Time (s),AF3,AF4,F3,F4,F7,F8,FC5,FC6,T7,T8,P7,P8,O1,O2,Sampling Rate
0.0000000000e+000,3.1432718202e+000,3.4322724664e+000,3.1917503515e+000,3.1398439742e+000,3.5546697880e+000,3.6786743974e+000,3.3885940714e+000,4.2893058310e+000,5.7281709826e+000,4.0954006996e+000,3.2197492382e+000,0.0000000000e+000,3.0838859760e+000,3.1296332209e+000,1
9.3750000000e-002,3.4864981694e+000,3.7476064917e+000,3.4605132923e+000,3.3389010136e+000,3.8506744155e+000,3.8579475018e+000,3.6143488914e+000,4.2855380799e+000,5.7196320828e+000,4.1945807055e+000,3.2573694590e+000,0.0000000000e+000,3.0853736924e+000,3.0913327100e+000,
1.8750000000e-001,3.5745930251e+000,3.8167602085e+000,3.6208958543e+000,3.3951579426e+000,3.9274313731e+000,3.9204274540e+000,3.6444664956e+000,4.2207597321e+000,5.7193727480e+000,4.2106245995e+000,3.2270832466e+000,1.8112327187e+000,3.0488409856e+000,3.1246437846e+000,
2.8125000000e-001,3.5454644988e+000,3.8179553090e+000,3.6886709295e+000,3.4183888833e+000,3.9406884119e+000,3.9088318723e+000,3.7058361090e+000,4.0553290843e+000,5.7292389254e+000,4.2433440234e+000,3.2778641253e+000,3.9451112035e+000,3.1711968923e+000,3.1655975123e+000,
3.7500000000e-001,3.6044237709e+000,3.7909184497e+000,3.7514427620e+000,3.4842565326e+000,3.9274467981e+000,3.8047505679e+000,3.6909414001e+000,3.9658835242e+000,5.7233042726e+000,4.2435919894e+000,3.2605374187e+000,4.6507301828e+000,3.1811076780e+000,3.1931609983e+000,
4.6875000000e-001,3.5767669054e+000,3.7036866416e+000,3.7145315783e+000,3.4097780285e+000,3.8581244828e+000,3.7179576712e+000,3.6871403409e+000,3.9255604841e+000,5.7121708112e+000,4.2577109138e+000,3.1352815362e+000,5.7554846645e+000,3.1040819162e+000,3.2140933472e+000,
5.6250000000e-001,3.7081273157e+000,3.7295800934e+000,3.8962417921e+000,3.4756965028e+000,3.8499448813e+000,3.7002502266e+000,3.7141373946e+000,3.9140235655e+000,5.7047691872e+000,4.3596512840e+000,3.2854800394e+000,6.7838683551e+000,3.1438468402e+000,3.2781387240e+000,
6.5625000000e-001,3.7729137288e+000,3.7864397384e+000,4.0620447857e+000,3.5809915056e+000,3.9050629890e+000,3.7801181389e+000,3.7497491681e+000,4.0204870090e+000,5.6483992841e+000,4.4176296997e+000,3.2649641000e+000,7.3037560331e+000,3.1130221596e+000,3.2783438442e+000,
7.5000000000e-001,3.8189662328e+000,3.8037572844e+000,4.2292340483e+000,3.6545040439e+000,4.1207060058e+000,3.8871408134e+000,3.7134360549e+000,4.0987970305e+000,5.6585789542e+000,4.4873866740e+000,3.3700572088e+000,7.5366590048e+000,3.2142851655e+000,3.2197038207e+000,
8.4375000000e-001,3.7879443839e+000,3.8371920005e+000,4.2623562751e+000,3.6408231883e+000,4.1178221087e+000,4.0224033136e+000,3.7024077534e+000,4.1396414672e+000,4.3728184285e+000,4.5477580593e+000,3.3746913723e+000,7.7268784999e+000,3.2351505337e+000,3.1648935452e+000,
9.3750000000e-001,3.8670537907e+000,3.8690651613e+000,4.2783951241e+000,3.6364668213e+000,4.1407415635e+000,3.9391699573e+000,3.7343374360e+000,4.1323776912e+000,3.5418837344e+000,4.5079047465e+000,3.3832226914e+000,7.8893166084e+000,3.2850438135e+000,3.1028211164e+000,
1.0312500000e+000,3.7304944152e+000,3.7253469289e+000,4.2576777135e+000,3.5972667163e+000,3.9076936518e+000,3.7903980906e+000,3.5600101946e+000,4.1202524453e+000,3.5094162437e+000,4.4487638991e+000,3.3098066889e+000,8.0680532406e+000,3.2738904707e+000,3.0473793297e+000,
1.1250000000e+000,3.4813064197e+000,3.4751372151e+000,4.1629745829e+000,3.4831474555e+000,3.7171349893e+000,3.6668512143e+000,3.4072353869e+000,4.0302512025e+000,3.7105481102e+000,4.5014246473e+000,3.3158096298e+000,8.2790847813e+000,3.2534530798e+000,3.0580001006e+000,
1.2187500000e+000,3.4821328646e+000,3.3592054879e+000,4.1362922485e+000,3.4378030566e+000,3.6308686790e+000,3.6194596657e+000,3.2967231437e+000,4.0100735534e+000,3.7011704267e+000,4.4850213300e+000,3.2148766306e+000,8.3831740054e+000,3.2103931215e+000,3.0026164234e+000,
1.3125000000e+000,3.7016822526e+000,3.5792308806e+000,4.1860627973e+000,3.4789931128e+000,3.8631180416e+000,3.6117362985e+000,3.3093472463e+000,4.0236673801e+000,3.6534052894e+000,4.5038751322e+000,3.1129511937e+000,8.4636038292e+000,3.1977962821e+000,2.9430790901e+000,
1.4062500000e+000,3.7941248415e+000,3.7324143783e+000,4.1535001771e+000,3.5186923487e+000,3.9812908684e+000,3.7593245052e+000,3.3904177749e+000,4.0309623720e+000,3.6465967061e+000,4.4131061954e+000,3.0864120762e+000,8.5432262965e+000,3.1464696972e+000,2.9625499980e+000,
1.5000000000e+000,3.8023124494e+000,3.7946168906e+000,4.1234668830e+000,3.5192791093e+000,4.0147372757e+000,3.8560741816e+000,3.5461847216e+000,4.0529523712e+000,3.7616106796e+000,4.4735519253e+000,3.0867202114e+000,8.5591360513e+000,3.2731522864e+000,2.8730467634e+000,
1.5937500000e+000,3.6493135986e+000,3.7751769706e+000,4.0765173295e+000,3.4432454691e+000,4.0132170941e+000,3.8318297637e+000,3.5943372382e+000,4.0265549182e+000,3.8075249071e+000,4.4127221591e+000,3.0876021529e+000,8.6089259610e+000,3.4413979685e+000,2.8635463872e+000,
1.6875000000e+000,3.6766971200e+000,3.7997224810e+000,4.0092087282e+000,3.3942536577e+000,3.9011480003e+000,3.8120228231e+000,3.5851472345e+000,4.0100440398e+000,3.7894365428e+000,4.3754220704e+000,3.0031990866e+000,8.5769371445e+000,3.3843577775e+000,3.1659266456e+000,
1.7812500000e+000,3.6567973729e+000,3.8238251866e+000,3.8691560052e+000,3.4454583482e+000,3.8788389337e+000,3.9011579735e+000,3.6610391527e+000,4.0423172185e+000,3.8975657876e+000,4.3698895075e+000,2.9640278725e+000,8.6323926115e+000,3.3622268816e+000,3.3244776533e+000,
1.8750000000e+000,3.6925925034e+000,3.7872269568e+000,3.8386303077e+000,3.4166486837e+000,3.9032551674e+000,3.8361834636e+000,3.6455577147e+000,3.9823538953e+000,3.9451487243e+000,4.3023670959e+000,3.0125334749e+000,8.6603427212e+000,3.3604352697e+000,3.4551305472e+000,
1.9687500000e+000,3.6490669423e+000,3.7584159126e+000,3.9186659909e+000,3.4680623054e+000,3.8628098308e+000,3.9092341442e+000,3.6261970081e+000,3.9630292439e+000,3.9461471056e+000,4.3596036497e+000,3.0409742940e+000,8.6978353496e+000,3.4441539802e+000,3.4817798834e+000,
2.0625000000e+000,3.5914412000e+000,3.7293856050e+000,3.9472476474e+000,3.4309213851e+000,3.7981098061e+000,3.9029835104e+000,3.6265942658e+000,3.9827516152e+000,3.7984640023e+000,4.3238926783e+000,3.0968588274e+000,8.7251458869e+000,3.4296609084e+000,3.4926519620e+000,
2.1562500000e+000,3.5808621908e+000,3.6824300462e+000,3.9815109961e+000,3.3652891248e+000,3.7622778842e+000,3.9435377909e+000,3.6522942112e+000,3.9029019743e+000,3.7891182583e+000,4.2377071885e+000,3.0421070092e+000,8.6969199597e+000,3.4416146793e+000,3.5439214869e+000,
2.2500000000e+000,3.4777291594e+000,3.6685841400e+000,3.9642878292e+000,3.3427235420e+000,3.7310274695e+000,3.9663148685e+000,3.6567288687e+000,3.9528790865e+000,3.7507751110e+000,4.3281565898e+000,3.0695260810e+000,8.7236022610e+000,3.4510925118e+000,3.5523997854e+000,
2.3437500000e+000,3.0850530155e+000,3.4672259985e+000,3.8323082318e+000,3.2590929311e+000,3.5441612990e+000,3.9152344997e+000,3.5583772753e+000,4.0378535412e+000,3.7632978213e+000,4.2640942087e+000,3.0997531884e+000,8.7747822800e+000,3.4551508457e+000,3.5506219648e+000,
2.4375000000e+000,3.2058054310e+000,3.5114012244e+000,3.8618220643e+000,3.3720655728e+000,3.8504891608e+000,3.9366867961e+000,3.5463593177e+000,4.0303456519e+000,3.7344735624e+000,4.3013435815e+000,3.1481014185e+000,8.7593387422e+000,3.4843872255e+000,3.5307582663e+000,
2.5312500000e+000,3.1677159794e+000,3.4765333743e+000,3.8109570576e+000,3.3493888022e+000,3.8506840861e+000,3.8952043332e+000,3.3504717630e+000,4.0261045231e+000,3.7819014559e+000,4.2278725794e+000,3.1111897191e+000,8.7903827104e+000,3.3595523908e+000,3.5549134876e+000,
2.6250000000e+000,3.2158057798e+000,3.5112507030e+000,3.8793501432e+000,3.4247804515e+000,3.8335238394e+000,3.8919912548e+000,3.3521718825e+000,4.0722617607e+000,3.8547009643e+000,4.2608171831e+000,3.1389665880e+000,8.7583637737e+000,3.3056631789e+000,3.4956861515e+000,
2.7187500000e+000,3.1161920234e+000,3.3716649884e+000,3.7952175955e+000,3.3493790753e+000,3.7235001291e+000,3.7586041983e+000,3.3675400295e+000,3.9212708888e+000,3.8828522767e+000,4.3720567440e+000,3.2274983402e+000,8.7405388804e+000,3.4884133552e+000,3.4536794829e+000,
2.8125000000e+000,3.1782168409e+000,3.3284174963e+000,3.8448635735e+000,3.3393881454e+000,3.7069319403e+000,3.7338416757e+000,3.2823761074e+000,3.9342289393e+000,3.6916050854e+000,4.3429070782e+000,3.1362700156e+000,8.7327684969e+000,3.4713582581e+000,3.4605235796e+000,
2.9062500000e+000,3.3044640410e+000,3.3964612876e+000,3.9078741789e+000,3.4570522523e+000,3.7215943851e+000,3.7833491564e+000,3.4379205599e+000,4.0370600143e+000,4.2757739408e+000,4.4086864424e+000,3.2885273788e+000,8.7207718283e+000,3.5506325291e+000,3.5498416420e+000,
3.0000000000e+000,3.3980281922e+000,3.4673738564e+000,3.9158497106e+000,3.5639259572e+000,3.7591127209e+000,3.7521105760e+000,3.5106859958e+000,4.0610608318e+000,4.3460309288e+000,4.4796651707e+000,3.2929565238e+000,8.7654977699e+000,3.5965503915e+000,3.6324296025e+000,
3.0937500000e+000,3.4458754999e+000,3.4533288429e+000,3.9590971341e+000,3.5428734245e+000,3.7682040666e+000,3.7777822666e+000,3.5509817736e+000,4.0260786166e+000,4.4263739213e+000,4.5802473037e+000,3.3036748360e+000,8.8198585859e+000,3.5785402069e+000,3.6060375059e+000,
3.1875000000e+000,3.4410104742e+000,3.5138004344e+000,4.0330123768e+000,3.5469663381e+000,3.8156734018e+000,3.7772664035e+000,3.6057600517e+000,4.1220406126e+000,4.8274018076e+000,4.6485483542e+000,3.2917251238e+000,8.8987229755e+000,3.5947246112e+000,3.6201683493e+000,
3.2812500000e+000,3.4997228627e+000,3.5068267728e+000,4.0182306452e+000,3.5896684791e+000,3.7524919175e+000,3.8001019786e+000,3.5901154855e+000,4.1062764257e+000,4.8491891719e+000,4.6163755667e+000,3.3904222446e+000,8.9028030772e+000,3.6458695203e+000,3.6435043626e+000,
3.3750000000e+000,3.4275654351e+000,3.3682751508e+000,3.9429555163e+000,3.4838746281e+000,3.5073545117e+000,3.6986036620e+000,3.5555542683e+000,4.0023059367e+000,4.8297597271e+000,4.6260208817e+000,3.3067588114e+000,8.8673871254e+000,3.5492799106e+000,3.6106893056e+000,
3.4687500000e+000,3.4108590597e+000,3.4853424201e+000,3.9383661304e+000,3.5577574894e+000,3.2533271772e+000,3.7547492112e+000,3.5563431533e+000,4.1134554010e+000,4.8110814616e+000,4.5598253583e+000,3.3104925535e+000,8.8776866992e+000,3.5555440010e+000,3.6286047307e+000,
3.5625000000e+000,3.4756457938e+000,3.4701244627e+000,3.9183799297e+000,3.5513583222e+000,3.2806736575e+000,3.7450763645e+000,3.6000608784e+000,4.1605139065e+000,4.7933883062e+000,4.5882798872e+000,3.2227904569e+000,8.8850032478e+000,3.5163244605e+000,3.6178041903e+000,
3.6562500000e+000,3.4929431748e+000,3.5367022665e+000,3.9629339727e+000,3.6082614919e+000,3.3128416393e+000,3.7617706301e+000,3.6158462074e+000,4.1500229576e+000,4.7600141906e+000,4.5313187318e+000,3.2066364882e+000,8.8871287142e+000,3.5541602911e+000,3.6703963617e+000,
3.7500000000e+000,3.4872757230e+000,3.5534678736e+000,4.0352094798e+000,3.5940803089e+000,3.3415942237e+000,3.8402246820e+000,3.5185913793e+000,4.1944655587e+000,4.7584167082e+000,4.4840336893e+000,3.1607295757e+000,8.9636543412e+000,3.3883838701e+000,3.4896990958e+000,
3.8437500000e+000,3.4293428475e+000,3.5686983387e+000,4.0168703560e+000,3.6223391332e+000,3.4018631467e+000,3.7885601045e+000,3.5374877973e+000,4.2106986680e+000,4.7201103870e+000,4.4744609846e+000,3.2569177715e+000,8.9715406381e+000,3.4628463761e+000,3.4351760511e+000,
3.9375000000e+000,3.3274170562e+000,3.5010060783e+000,3.9545338784e+000,3.5512890602e+000,3.3690678003e+000,3.7965277341e+000,3.4798462753e+000,4.1043043439e+000,4.4896098446e+000,4.4728765630e+000,3.1876017937e+000,8.9560941703e+000,3.4304062546e+000,3.4521553016e+000,
4.0312500000e+000,3.3578178854e+000,3.4575806696e+000,3.9149618736e+000,3.4702715538e+000,3.4325956598e+000,3.7363780439e+000,3.5070416171e+000,4.0696835053e+000,4.4782645162e+000,4.3234438945e+000,3.1772601731e+000,8.9640862061e+000,3.4046524397e+000,3.3924426349e+000,
4.1250000000e+000,3.3803587010e+000,3.4548847974e+000,3.8331646395e+000,3.4530414841e+000,3.7774367744e+000,3.6889670678e+000,3.4604391481e+000,4.0665826143e+000,4.9191140393e+000,4.1662889398e+000,3.1621300980e+000,9.0664235930e+000,3.6222778475e+000,3.4286715134e+000,
4.2187500000e+000,3.4057939352e+000,3.5124076287e+000,3.8761951285e+000,3.5059561475e+000,3.8266177848e+000,3.7670970732e+000,3.4160082401e+000,4.0838531377e+000,4.8606293773e+000,4.2202433933e+000,3.2170415829e+000,9.0778597626e+000,3.6794530707e+000,3.4928178364e+000,
4.3125000000e+000,3.5212916080e+000,3.5541815922e+000,3.9066591154e+000,3.4867411863e+000,3.9074797257e+000,3.7668828676e+000,3.4215313688e+000,4.0771261836e+000,4.8888207713e+000,4.3070812062e+000,3.1864432300e+000,9.0803467695e+000,3.6931650467e+000,3.5060221432e+000,
4.4062500000e+000,3.5767978445e+000,3.4834713299e+000,4.0160548406e+000,3.5016217211e+000,3.8764295047e+000,3.8680124003e+000,3.4468972153e+000,3.9978669249e+000,4.8818581272e+000,4.3599693844e+000,3.2580005538e+000,9.0854746072e+000,3.7004688644e+000,3.5731540586e+000,
4.5000000000e+000,3.5862624645e+000,3.4802110855e+000,4.0246850281e+000,3.5301964673e+000,3.8489500014e+000,3.8937409557e+000,3.4655125101e+000,3.9188466542e+000,4.8765168642e+000,4.3766550621e+000,3.3139676584e+000,9.1050424862e+000,3.7712291103e+000,3.6197363942e+000,
4.5937500000e+000,3.4744097924e+000,3.4342534932e+000,4.0163683017e+000,3.4690300081e+000,3.8559151346e+000,3.8728772834e+000,3.4726421282e+000,3.8374816418e+000,4.8794477646e+000,4.3108479846e+000,3.3375519407e+000,9.0582630185e+000,3.7316484451e+000,3.5878637683e+000,
4.6875000000e+000,3.3713804667e+000,3.3194937084e+000,3.8665075732e+000,3.4412760072e+000,3.8479729688e+000,3.8640336718e+000,3.4326078538e+000,3.8212340012e+000,4.8831586673e+000,4.3066169661e+000,3.3283506603e+000,9.0387941919e+000,3.6715472782e+000,3.6033373298e+000,
4.7812500000e+000,3.3777293935e+000,3.2703917539e+000,3.9178907813e+000,3.4420837438e+000,3.7866068256e+000,3.8231736102e+000,3.4510106486e+000,3.6952833033e+000,4.8684020088e+000,4.2686630794e+000,3.3387409588e+000,8.9769282875e+000,3.6452508313e+000,3.5892185891e+000,
4.8750000000e+000,3.3512941281e+000,3.3317790408e+000,3.9072650629e+000,3.3848059626e+000,3.8654694364e+000,3.7928825657e+000,3.5055652258e+000,3.6766011523e+000,4.8323280310e+000,4.2090075201e+000,3.3189021419e+000,8.9157691427e+000,3.6561842903e+000,3.6612639979e+000,
4.9687500000e+000,3.2987343996e+000,3.3368760084e+000,3.9360249214e+000,3.3032113531e+000,3.9034252657e+000,3.8308020832e+000,3.4286168068e+000,3.7472580448e+000,4.8247758647e+000,4.2387467651e+000,3.2226518690e+000,8.9870819901e+000,3.5702314208e+000,3.6183297947e+000,
5.0625000000e+000,3.2465742632e+000,3.3497320821e+000,3.8763965270e+000,3.3959782285e+000,3.8591479718e+000,3.7749592656e+000,3.3951984147e+000,3.7394470418e+000,4.7572498316e+000,4.2611327150e+000,3.1869700254e+000,8.7978853071e+000,3.5814092415e+000,3.6879760820e+000,
5.1562500000e+000,3.2709781134e+000,3.3385506198e+000,4.0554825302e+000,3.4117783130e+000,3.5462586918e+000,3.8376231424e+000,3.3846054405e+000,3.7120099395e+000,3.7383170330e+000,4.2869314128e+000,3.1912919778e+000,8.6910661935e+000,3.3267636478e+000,3.6641999145e+000,
5.2500000000e+000,3.2637074923e+000,3.3159613069e+000,4.0025814622e+000,3.5326909753e+000,3.4614439227e+000,3.8032649423e+000,3.3950745894e+000,3.7831698490e+000,3.5385954780e+000,4.1763902559e+000,3.1383895345e+000,8.4578699450e+000,3.1993471068e+000,3.7569803230e+000,
5.3437500000e+000,3.1658044079e+000,3.4014248133e+000,3.9285785009e+000,3.5425750964e+000,3.4567231467e+000,3.7717885567e+000,3.4232110013e+000,3.8517702421e+000,3.5334843676e+000,4.1909379814e+000,3.1090370267e+000,8.4411610117e+000,3.1878571159e+000,3.7460697234e+000,
5.4375000000e+000,3.1324223805e+000,3.4202900024e+000,3.8299263034e+000,3.5281182594e+000,3.5030756423e+000,3.6209917961e+000,3.4519141196e+000,3.9073215473e+000,3.6087615874e+000,4.1087305111e+000,3.1178110486e+000,8.3816791164e+000,3.2261840674e+000,3.7977300636e+000,
5.5312500000e+000,3.2405133557e+000,3.4862076854e+000,3.8026809768e+000,3.6376848110e+000,3.5323174319e+000,3.7087896269e+000,3.4626747403e+000,4.0756365081e+000,3.8755380913e+000,4.1359124091e+000,3.0413019578e+000,8.2261666364e+000,3.3230838124e+000,3.8703153601e+000,
5.6250000000e+000,3.3283971770e+000,3.5472903469e+000,3.7671412081e+000,3.6808078658e+000,3.5286148792e+000,3.7399993565e+000,3.4530327224e+000,4.1079777815e+000,3.8448386981e+000,4.2268740538e+000,3.1662987937e+000,8.3155122043e+000,3.3483127994e+000,3.8945005430e+000,
5.7187500000e+000,3.4042226119e+000,3.5498928840e+000,3.7820217037e+000,3.6117819050e+000,3.6012896484e+000,3.7041582856e+000,3.4215187702e+000,4.0563910197e+000,3.8827398938e+000,4.2261657874e+000,3.1083815014e+000,8.2023444678e+000,3.3547030740e+000,3.8489775068e+000,
5.8125000000e+000,3.5424044013e+000,3.6622398314e+000,3.6447636945e+000,3.7088505457e+000,3.7337975123e+000,3.7699610482e+000,3.4124889598e+000,4.1651449729e+000,3.9830485472e+000,4.3072941908e+000,3.1747550656e+000,8.1405116773e+000,3.3800256968e+000,3.9139018811e+000,
5.9062500000e+000,3.5021187708e+000,3.6297691176e+000,3.5609733734e+000,3.6849219578e+000,3.6603175690e+000,3.6362682783e+000,3.3926803464e+000,4.1420307575e+000,3.9556302274e+000,4.2995682751e+000,3.0729703044e+000,8.1117894341e+000,3.2788558751e+000,3.8508278479e+000,
6.0000000000e+000,3.4823773351e+000,3.5532820294e+000,3.5394818418e+000,3.6665977558e+000,3.6073716537e+000,3.6407129792e+000,3.4286219274e+000,4.1098790308e+000,3.9771806220e+000,4.3115006776e+000,3.1733572150e+000,8.0373786653e+000,3.2673691425e+000,3.8342146218e+000,
6.0937500000e+000,3.5530573772e+000,3.6100835471e+000,3.3732623551e+000,3.6344190763e+000,3.6987370290e+000,3.6471334988e+000,3.3436737267e+000,4.1598145429e+000,3.9719205778e+000,4.3994630422e+000,3.1970164947e+000,8.0635402807e+000,3.2334110202e+000,3.7809417241e+000,
6.1875000000e+000,3.5852109993e+000,3.6556860731e+000,2.9921184903e+000,3.6720749464e+000,3.7719687334e+000,3.7188182113e+000,3.3596984175e+000,4.2110681947e+000,3.9709362549e+000,4.3714256853e+000,3.1241911660e+000,8.1403734921e+000,3.2131408508e+000,3.7394111085e+000,
6.2812500000e+000,3.6098646718e+000,3.6042692623e+000,3.1649642674e+000,3.6444339309e+000,3.7578470251e+000,3.6461695989e+000,3.3659328644e+000,4.1307373360e+000,3.9580337997e+000,4.3076501007e+000,3.0849330536e+000,8.1618726161e+000,3.2356198892e+000,3.7670725386e+000,
6.3750000000e+000,3.7016113866e+000,3.6076721879e+000,3.2298896959e+000,3.6765888857e+000,3.7672318918e+000,3.6999359850e+000,3.3036742802e+000,4.1273597309e+000,4.0146508240e+000,4.3495921803e+000,3.0666385370e+000,8.3771357955e+000,3.2255334257e+000,3.8216966253e+000,
6.4687500000e+000,3.7583324796e+000,3.4776109089e+000,3.3392775145e+000,3.4881351208e+000,3.6843360379e+000,3.6415933623e+000,3.1819059062e+000,3.9560011801e+000,3.8941662024e+000,4.3270039532e+000,2.9294381394e+000,8.4811144385e+000,2.9753457767e+000,3.7890409711e+000,
6.5625000000e+000,3.8005761805e+000,3.5897355512e+000,3.4656356278e+000,3.5336110778e+000,3.6981918880e+000,3.5803066562e+000,3.2081379496e+000,3.9920941501e+000,3.9393034912e+000,4.2900919988e+000,2.9327638337e+000,8.5567613873e+000,2.9301517993e+000,3.8068142340e+000,
6.6562500000e+000,3.7758213709e+000,3.6074527839e+000,3.4379758137e+000,3.5844488172e+000,3.7109886041e+000,3.5964289228e+000,3.1754652440e+000,3.9586062116e+000,3.9628124961e+000,4.3593130946e+000,2.8845746367e+000,8.5976766919e+000,2.9095540674e+000,3.7724015619e+000,
6.7500000000e+000,3.7418664751e+000,3.5704936804e+000,3.4843209786e+000,3.6002061607e+000,3.7130000591e+000,3.7040730732e+000,3.2090356440e+000,3.9606535752e+000,4.0075158008e+000,4.2997539550e+000,2.9744819967e+000,8.6940623820e+000,3.1667234386e+000,3.8628299362e+000,
6.8437500000e+000,3.6890411394e+000,3.5939858720e+000,3.5299864095e+000,3.5451323850e+000,3.6686799646e+000,3.6957418987e+000,3.2284942614e+000,3.8866625824e+000,4.0048304415e+000,4.2481271913e+000,2.9262057097e+000,8.7671075367e+000,3.0996135986e+000,3.7413397079e+000,
6.9375000000e+000,3.7147735618e+000,3.6228936651e+000,3.5735130213e+000,3.6521155523e+000,3.6729828056e+000,3.8045290657e+000,3.2514688672e+000,3.9333960616e+000,3.9618505890e+000,4.1879867500e+000,2.9496282637e+000,8.7914405750e+000,3.1262036737e+000,3.7352302831e+000,
7.0312500000e+000,3.7361962749e+000,3.6992513753e+000,3.5813032382e+000,3.6887720027e+000,3.7165913866e+000,3.8609179809e+000,3.3374755946e+000,3.9543569193e+000,3.9515352004e+000,4.1982955597e+000,2.9969008539e+000,8.8570611774e+000,3.2332093987e+000,3.7839282698e+000,
7.1250000000e+000,3.6413683282e+000,3.6803528214e+000,3.6912841526e+000,3.6553331592e+000,3.6412521290e+000,3.8647772537e+000,3.4033062815e+000,3.9873067547e+000,3.9362655334e+000,4.1148144334e+000,3.0076212792e+000,8.8557188040e+000,3.2515506153e+000,3.7953294874e+000,
7.2187500000e+000,3.5392172809e+000,3.6222927355e+000,3.7005702534e+000,3.6265611150e+000,3.5490361087e+000,3.8887190208e+000,3.3910384285e+000,3.8804183559e+000,3.9402609815e+000,4.1004748781e+000,3.0092076326e+000,8.9089399253e+000,3.2539299988e+000,3.7565297852e+000,
7.3125000000e+000,3.5310475753e+000,3.7031987583e+000,3.7702086780e+000,3.6773121196e+000,3.6318029945e+000,3.9242291421e+000,3.4038193661e+000,3.9892324476e+000,3.9752429297e+000,4.1564702568e+000,2.9673927841e+000,8.8016486343e+000,3.2891752615e+000,3.6566750028e+000,
7.4062500000e+000,3.4284447900e+000,3.6867278597e+000,3.7019855255e+000,3.6187374369e+000,3.5811398314e+000,3.8914276010e+000,3.4927324443e+000,3.9138024107e+000,3.9055188944e+000,4.0904141325e+000,2.9856466466e+000,8.8003500450e+000,3.2393175843e+000,3.5947685898e+000,
7.5000000000e+000,3.3810011732e+000,3.6252097406e+000,3.6469670767e+000,3.6162595902e+000,3.8481552523e+000,3.8518056149e+000,3.5499280491e+000,3.9539977119e+000,3.8690749957e+000,4.1278412153e+000,2.8816534861e+000,8.8010680502e+000,3.2561156379e+000,3.4400369642e+000,
7.5937500000e+000,3.3031050780e+000,3.5745194522e+000,3.7443049002e+000,3.6071218616e+000,3.9764898935e+000,3.8836569712e+000,3.6343194569e+000,4.0143134568e+000,3.8150104905e+000,4.0878168793e+000,2.8919699472e+000,8.7912698675e+000,3.2890940650e+000,3.4496065652e+000,
7.6875000000e+000,3.3389235031e+000,3.5779740814e+000,3.8591077696e+000,3.5873722564e+000,3.9947074267e+000,3.8607070929e+000,3.6121219518e+000,4.0629711887e+000,3.8341709971e+000,4.0603214843e+000,2.7174853508e+000,8.7639134601e+000,3.2172551341e+000,3.4530516888e+000,
7.7812500000e+000,3.3398474919e+000,3.5736819849e+000,3.8353895171e+000,3.5357719754e+000,3.9500281965e+000,3.8621218521e+000,3.5371872468e+000,4.0297341155e+000,3.7849257311e+000,4.0711292424e+000,2.5207329810e+000,8.7461247155e+000,2.9694103403e+000,3.2802551195e+000,
7.8750000000e+000,3.3722000951e+000,3.4655196936e+000,3.7871188251e+000,3.4105398273e+000,3.8926144985e+000,3.7523153282e+000,3.5568664492e+000,3.9736441752e+000,3.7480413969e+000,4.0899659113e+000,2.4241579795e+000,8.7356202992e+000,2.9101099953e+000,3.2424330509e+000,
7.9687500000e+000,3.3329137573e+000,3.4753592239e+000,3.7374047881e+000,3.4066833515e+000,3.8608840649e+000,3.7504087541e+000,3.4717770875e+000,3.9576247206e+000,3.7150067013e+000,3.9840329416e+000,2.1992606545e+000,8.7031112519e+000,2.9152494806e+000,3.3099949839e+000,
8.0625000000e+000,3.3843678422e+000,3.4695410098e+000,3.6772556653e+000,3.5193657339e+000,3.7631267284e+000,3.7163233958e+000,3.2943598189e+000,4.0463546188e+000,3.7814419582e+000,3.8885507732e+000,2.4952605223e+000,8.7082266980e+000,2.9335218348e+000,3.2391854129e+000,
8.1562500000e+000,3.3525420670e+000,3.4202030766e+000,3.6400511580e+000,3.4507643444e+000,3.7595330792e+000,3.7065310592e+000,3.2925984969e+000,4.0033607297e+000,3.7575706518e+000,3.9040219887e+000,2.4693042659e+000,8.6830289984e+000,2.9264799843e+000,3.2253705657e+000,
8.2500000000e+000,3.4012802911e+000,3.4267747301e+000,3.6607600644e+000,3.4766117400e+000,3.7554376451e+000,3.6311720637e+000,3.3199754837e+000,4.0946156536e+000,3.7657586612e+000,4.0668090390e+000,2.5806561438e+000,8.6946620876e+000,2.9773521380e+000,3.2468073680e+000,
8.3437500000e+000,3.2614358021e+000,3.2297336893e+000,3.6096319219e+000,3.3682775122e+000,3.7379925361e+000,3.5588347328e+000,3.1927664885e+000,3.9892277796e+000,4.2297077674e+000,4.0093141609e+000,2.7247497818e+000,8.7253624367e+000,2.9618093973e+000,3.1633730103e+000,
8.4375000000e+000,3.4031515030e+000,3.3639268101e+000,3.7072531331e+000,3.4679834395e+000,3.7319865187e+000,3.6953709145e+000,3.2099543294e+000,4.1437475803e+000,5.0057174736e+000,4.0428417639e+000,2.7221028842e+000,8.7786988139e+000,2.9248471772e+000,3.2548513301e+000,
8.5312500000e+000,3.4319680542e+000,3.4489399733e+000,3.7227365263e+000,3.4337464241e+000,3.6979203372e+000,3.6927932332e+000,3.1529231398e+000,4.1025729881e+000,5.0153917697e+000,4.0851174274e+000,2.7938173912e+000,8.8307621504e+000,2.9047883044e+000,3.2854387079e+000,
8.6250000000e+000,3.4387256279e+000,3.4624593485e+000,3.5327661665e+000,3.4069115044e+000,3.6527304291e+000,3.7584357529e+000,3.0395392739e+000,4.0914108858e+000,5.0002380705e+000,4.0729077405e+000,2.7922627195e+000,8.8381335626e+000,2.8351027925e+000,3.2155077335e+000,
8.7187500000e+000,3.4401175415e+000,3.4371164636e+000,3.3795704379e+000,3.3441353971e+000,3.6466631805e+000,3.7594442480e+000,3.0676207430e+000,4.0570755373e+000,4.9925322927e+000,4.0941442164e+000,3.0000306282e+000,8.8631543942e+000,2.8786932781e+000,3.1329678559e+000,
8.8125000000e+000,3.4411792246e+000,3.3993361792e+000,3.4338895096e+000,3.3363710915e+000,3.6099128097e+000,3.7295537077e+000,2.9746020467e+000,4.0881866578e+000,4.9636305795e+000,4.0734795647e+000,3.0703497937e+000,8.8781612962e+000,2.9941693266e+000,3.1530447206e+000,
8.9062500000e+000,3.3608863895e+000,3.3805983079e+000,3.5375649999e+000,3.3421318245e+000,4.0343649609e+000,3.8129547297e+000,2.9188613161e+000,4.1472334231e+000,4.9977076256e+000,4.0740099978e+000,3.1974777455e+000,8.9130555633e+000,3.0680866680e+000,3.1499734388e+000,
9.0000000000e+000,3.3942140365e+000,3.2901962121e+000,3.5250393801e+000,3.3107329494e+000,3.9801114403e+000,3.7378459195e+000,3.0237115106e+000,4.1331465994e+000,4.9947309180e+000,4.1792471789e+000,3.2411578211e+000,8.8898347385e+000,3.0434321837e+000,3.0303415375e+000,
9.0937500000e+000,3.3366174843e+000,3.2374356710e+000,3.5496334831e+000,3.1996023205e+000,4.2630747795e+000,3.6713064958e+000,3.0899002257e+000,4.0192019223e+000,4.9767226047e+000,4.2250058717e+000,3.1980363762e+000,8.9332808685e+000,3.0375013796e+000,3.1633327155e+000,
9.1875000000e+000,3.3374209285e+000,3.2675477528e+000,3.5430624968e+000,3.1891558699e+000,4.2947100138e+000,3.7576567698e+000,3.0677830527e+000,4.0460076819e+000,4.9977686805e+000,4.2822648882e+000,3.2089832754e+000,8.9640036125e+000,3.1092333404e+000,3.1830331370e+000,
9.2812500000e+000,3.3355426553e+000,3.3225673647e+000,3.5776778584e+000,3.1489677234e+000,4.2794308807e+000,3.7348417215e+000,3.0758576875e+000,3.9874321095e+000,5.0222491400e+000,4.1967693669e+000,3.2280869682e+000,8.9376157133e+000,3.1196427232e+000,3.0916070312e+000,
9.3750000000e+000,3.2995870831e+000,3.4089188899e+000,3.5925014974e+000,3.1265104898e+000,4.2750818946e+000,3.7664392737e+000,3.0683887690e+000,3.9796623345e+000,4.4411335525e+000,4.2220636688e+000,3.2589938891e+000,8.9502182338e+000,3.1555845498e+000,3.0980189343e+000,
9.4687500000e+000,3.2689637386e+000,3.4487471201e+000,3.5654800532e+000,3.2916054811e+000,4.2511460465e+000,3.7990133637e+000,3.2052646653e+000,4.0600776700e+000,3.9522506852e+000,4.2221038586e+000,3.3545737909e+000,8.9353124073e+000,3.2979508619e+000,3.1845124194e+000,
9.5625000000e+000,3.2197499155e+000,3.4373262479e+000,3.6511001065e+000,3.3547707270e+000,4.2007046830e+000,3.8321309422e+000,3.2366015479e+000,4.0935204087e+000,3.9620803965e+000,4.1859916962e+000,3.3514321102e+000,8.9250546491e+000,3.2720862132e+000,3.2123800466e+000,
9.6562500000e+000,3.1719583816e+000,3.3412582149e+000,3.6171228042e+000,3.3427441557e+000,4.1717058547e+000,3.7205669288e+000,3.3573437526e+000,4.0094668475e+000,3.9651544745e+000,4.1580884056e+000,3.3351403622e+000,8.9287298048e+000,3.2998593824e+000,3.2687108797e+000,
9.7500000000e+000,3.3194587036e+000,3.4768385078e+000,3.7465192976e+000,3.4861356275e+000,4.2278861911e+000,3.8233831047e+000,3.4461297364e+000,4.1419768576e+000,4.0042220317e+000,4.2414333749e+000,3.2183576970e+000,8.9808266794e+000,3.2806371890e+000,3.3414530217e+000,
9.8437500000e+000,3.3177409819e+000,3.4659165810e+000,3.6614583401e+000,3.4807278066e+000,4.0373046401e+000,3.8446904980e+000,3.4746736290e+000,4.0862606860e+000,4.0134910839e+000,4.2396826211e+000,3.1629557386e+000,8.9799306920e+000,3.2780134491e+000,3.4652239299e+000,
9.9375000000e+000,3.3330761432e+000,3.5005666157e+000,3.6663190999e+000,3.5108056202e+000,4.0515381180e+000,3.9051551331e+000,3.4733955508e+000,4.0557124254e+000,3.9780082557e+000,4.2700411911e+000,3.0954343073e+000,8.9675639205e+000,3.2320464426e+000,3.4647803535e+000,
1.0031250000e+001,3.4122723016e+000,3.5717978704e+000,3.7641755977e+000,3.5774027496e+000,4.0306078361e+000,3.9047065449e+000,3.5138077235e+000,4.1382152409e+000,4.0431862925e+000,4.3202578644e+000,3.1298602417e+000,8.9917688457e+000,3.2058546761e+000,3.6108655380e+000,
1.0125000000e+001,3.4243708195e+000,3.5740925438e+000,3.8864291310e+000,3.5902774519e+000,3.9180616631e+000,3.8961806092e+000,3.5762581110e+000,4.1515190539e+000,4.0753390968e+000,4.4318020951e+000,3.0562885663e+000,8.9984731489e+000,3.1713342787e+000,3.5733512213e+000,
1.0218750000e+001,3.4289396820e+000,3.5132263760e+000,3.8876719349e+000,3.5532029675e+000,3.8927604084e+000,3.8483020708e+000,3.5358661189e+000,4.1235605049e+000,3.9814985473e+000,4.4198737311e+000,3.0789011612e+000,8.9697492814e+000,3.0766431422e+000,3.5419704160e+000,
1.0312500000e+001,3.4847001596e+000,3.4933934036e+000,3.8678242062e+000,3.5432771073e+000,3.9436254797e+000,3.8976030564e+000,3.5680779954e+000,4.1598628601e+000,3.9990625224e+000,4.4808805098e+000,2.9442010928e+000,8.9883566051e+000,3.0688371812e+000,3.4955690528e+000,
1.0406250000e+001,3.7120613447e+000,3.5688142759e+000,3.8880226704e+000,3.5945189727e+000,4.0765129124e+000,3.9081229312e+000,3.6753156381e+000,4.1740435241e+000,3.9067017828e+000,4.4636773522e+000,2.8306934394e+000,8.9371016787e+000,2.8561786041e+000,3.4333995024e+000,
1.0500000000e+001,3.7287744044e+000,3.6192659141e+000,3.8990872603e+000,3.5242784480e+000,4.0582812701e+000,3.8791009464e+000,3.6792422929e+000,4.2129639927e+000,3.8179536743e+000,4.4909909321e+000,2.7850168924e+000,8.8846246050e+000,2.7691708507e+000,3.3690715241e+000,
1.0593750000e+001,3.7039934730e+000,3.6578492556e+000,3.8595178792e+000,3.5121489282e+000,4.0739030322e+000,3.8695793523e+000,3.5945533465e+000,4.1759385642e+000,3.8457960906e+000,4.4854766552e+000,2.9413597725e+000,9.0401466077e+000,2.8809952969e+000,3.3659231599e+000,
1.0687500000e+001,3.6824624235e+000,3.6262084902e+000,3.8281402282e+000,3.4620534935e+000,4.0647047034e+000,3.8286802204e+000,3.5552663526e+000,4.1760034942e+000,3.8723560977e+000,4.3973618453e+000,3.0030445583e+000,8.9664393932e+000,2.9211750678e+000,3.3223922515e+000,
1.0781250000e+001,3.6509568650e+000,3.5663197558e+000,3.7823574888e+000,3.3835385296e+000,4.1138621376e+000,3.7513155778e+000,3.5285605341e+000,4.0924772926e+000,3.8690204774e+000,4.3624561168e+000,2.9943367308e+000,8.9542280327e+000,2.9007288020e+000,3.3896282214e+000,
1.0875000000e+001,3.7082216388e+000,3.6434835172e+000,3.7801906051e+000,3.4281738549e+000,4.1144981425e+000,3.7266600050e+000,3.5908177803e+000,4.1150213387e+000,3.8871544819e+000,4.4367340662e+000,3.0456251389e+000,8.9518458454e+000,2.9325746296e+000,3.3536418892e+000,
1.0968750000e+001,3.6643089487e+000,3.6774482848e+000,3.8228052613e+000,3.4750222365e+000,4.0783026354e+000,3.7566851972e+000,3.6227046825e+000,4.1435497375e+000,3.8270644876e+000,4.5560447915e+000,3.0896330082e+000,8.9495747249e+000,3.0419937485e+000,3.3407282918e+000,
1.1062500000e+001,3.6367414918e+000,3.6192204897e+000,3.6977790598e+000,3.4930277957e+000,4.0933567300e+000,3.7579585146e+000,3.5899965437e+000,4.1663819233e+000,3.8760265051e+000,4.4309068219e+000,3.0650672157e+000,8.9100664085e+000,3.0841164086e+000,3.2209957635e+000,
1.1156250000e+001,3.6435958559e+000,3.6802808972e+000,3.7275457706e+000,3.5597396443e+000,3.9065916109e+000,3.8059473764e+000,3.5892636336e+000,4.2378323661e+000,3.8983622426e+000,4.3760139959e+000,3.0592751204e+000,8.8864104416e+000,3.0753479289e+000,3.1849334286e+000,
1.1250000000e+001,3.6410909240e+000,3.6389982820e+000,3.6152525959e+000,3.5462027934e+000,3.8588638722e+000,3.7424112719e+000,3.5784044481e+000,4.2533739766e+000,3.8233653442e+000,4.2616333762e+000,3.1846522083e+000,8.8733908720e+000,3.1572078191e+000,3.2182634517e+000,
1.1343750000e+001,3.4874056388e+000,3.6089079883e+000,3.5994262347e+000,3.4990580492e+000,3.7959970421e+000,3.6893191361e+000,3.5488881338e+000,4.2854761127e+000,3.7566619816e+000,4.2543701242e+000,3.1808796081e+000,8.8697241793e+000,3.1377003578e+000,3.2353468491e+000,
1.1437500000e+001,3.1949761634e+000,3.3859275066e+000,3.7458246386e+000,3.3288802220e+000,3.4986754039e+000,3.6308227866e+000,3.3417808069e+000,4.1704568621e+000,3.7133061487e+000,4.2603106324e+000,3.2067086021e+000,8.9196264684e+000,3.1343737459e+000,3.2789529603e+000,
1.1531250000e+001,3.2852394837e+000,3.2994675185e+000,3.7564534632e+000,3.4123782981e+000,3.7041934481e+000,3.7147217690e+000,3.4201735146e+000,4.0948726349e+000,3.7750557089e+000,4.2855373636e+000,3.2558067091e+000,8.8047451203e+000,3.1647033644e+000,3.3763480194e+000,
1.1625000000e+001,3.3793440330e+000,3.3191808454e+000,3.8076336607e+000,3.4562060812e+000,3.8252469434e+000,3.8171672476e+000,3.4146564083e+000,4.2690315024e+000,3.8079540272e+000,4.4462701130e+000,3.3118956477e+000,8.7818079157e+000,3.1444028300e+000,3.4068130034e+000,
1.1718750000e+001,3.3095661117e+000,3.3864130428e+000,3.8278779182e+000,3.4787229148e+000,3.6741997841e+000,3.8609220187e+000,3.4345312224e+000,4.3397671426e+000,3.7486082226e+000,4.5324538413e+000,3.2516631289e+000,8.7714981730e+000,3.1031592356e+000,3.3656567950e+000,
1.1812500000e+001,3.2203751110e+000,3.2591034969e+000,3.7953795547e+000,3.4492219223e+000,3.5583799726e+000,3.7896361948e+000,3.3213950046e+000,4.3708287730e+000,3.6373775471e+000,4.4889801823e+000,3.2129303920e+000,8.7881618983e+000,3.1388711287e+000,3.3818402404e+000,
1.1906250000e+001,3.2259844782e+000,3.1403755550e+000,3.7616588923e+000,3.3446499844e+000,3.4705723936e+000,3.7593133354e+000,3.2393436901e+000,4.3478512888e+000,3.5104992794e+000,4.5216668492e+000,3.1436355038e+000,8.8010870282e+000,3.0402062717e+000,3.3970424142e+000,
1.2000000000e+001,3.1465284487e+000,3.1097123601e+000,3.7009195940e+000,3.2063172289e+000,3.3802354667e+000,3.7706706519e+000,3.2101112686e+000,4.2373349207e+000,3.4846345017e+000,4.4179878051e+000,3.0831118493e+000,8.7986757060e+000,2.9361035928e+000,3.1910279517e+000,
1.2093750000e+001,3.2161489500e+000,3.2076794854e+000,3.6192098553e+000,3.2457444790e+000,3.5770503490e+000,3.7926633921e+000,3.1639296096e+000,4.2031814598e+000,3.3776991073e+000,4.4356589679e+000,3.1072734399e+000,8.8226273644e+000,2.8883036166e+000,3.2209428300e+000,
1.2187500000e+001,3.3287048854e+000,3.3570930652e+000,3.6555358152e+000,3.3261467121e+000,3.7090262037e+000,3.7032299278e+000,3.0894039452e+000,4.2371126481e+000,3.4154906106e+000,4.4248315153e+000,3.2250913065e+000,8.7945246243e+000,2.8714674707e+000,3.2817230179e+000,
1.2281250000e+001,3.3048348041e+000,3.3363746775e+000,3.6434587075e+000,3.2885897911e+000,3.9680765797e+000,3.6906430775e+000,3.1140538906e+000,4.1790236528e+000,3.5425581604e+000,4.3735373347e+000,3.2091802665e+000,8.8411859009e+000,2.9273339647e+000,3.2104784109e+000,
1.2375000000e+001,3.3249737065e+000,3.3537639207e+000,3.6839608196e+000,3.2362572941e+000,4.0333582894e+000,3.7632267563e+000,3.2075772780e+000,4.1052053297e+000,3.5762104264e+000,4.4528706671e+000,3.2316885263e+000,8.9099796828e+000,2.9388639507e+000,3.2320825719e+000,
1.2468750000e+001,3.2880490877e+000,3.3429350032e+000,3.5767117011e+000,3.1866629712e+000,4.0712767437e+000,3.6935960516e+000,3.0904898995e+000,4.1063035906e+000,3.5114465495e+000,4.4793820547e+000,3.1987177900e+000,8.9523336724e+000,2.9892660450e+000,3.2553704176e+000,
1.2562500000e+001,3.2201264026e+000,3.3593591502e+000,3.5463125757e+000,3.1857550376e+000,4.0103449918e+000,3.7001488523e+000,3.0836711521e+000,4.1679019077e+000,3.4485310781e+000,4.5753037832e+000,3.1330666059e+000,8.9868702966e+000,3.0051842250e+000,3.1697876097e+000,
1.2656250000e+001,3.1954894056e+000,3.3184823668e+000,3.5388805510e+000,3.1641248490e+000,4.0331036755e+000,3.6367789034e+000,3.0724802553e+000,4.1798720561e+000,4.8558471568e+000,4.4683833800e+000,3.0599935513e+000,9.0066353995e+000,3.0329276029e+000,3.1722468708e+000,
1.2750000000e+001,3.2674203940e+000,3.4226011664e+000,3.5118775938e+000,3.2673824402e+000,4.0852709718e+000,3.6976195422e+000,3.0709424422e+000,4.1252722925e+000,4.9271531862e+000,4.3952159907e+000,3.2557135914e+000,9.0124446893e+000,3.1894694004e+000,3.1838276133e+000,
1.2843750000e+001,3.3042931239e+000,3.5395499740e+000,3.5045690781e+000,3.3949230676e+000,4.1250503135e+000,3.7647516960e+000,3.1437074816e+000,4.2004793894e+000,4.9545866947e+000,4.4123205935e+000,3.2821156708e+000,9.0365419972e+000,3.2280445455e+000,3.3375600660e+000,
1.2937500000e+001,3.5230379504e+000,3.7767433953e+000,3.7557376381e+000,3.6793445561e+000,4.1604370560e+000,3.8365641565e+000,3.1338170104e+000,4.2855771002e+000,4.9625317915e+000,4.4830548760e+000,3.3318354156e+000,9.0509419220e+000,3.3572956821e+000,3.4361693820e+000,
1.3031250000e+001,3.5365490932e+000,3.7528645206e+000,3.7859818241e+000,3.6592053899e+000,4.1916681995e+000,3.8232654000e+000,3.0968882658e+000,4.3430793892e+000,4.9655419601e+000,4.4917094586e+000,3.2110355969e+000,9.0737297616e+000,3.3512048485e+000,3.4751610597e+000,
1.3125000000e+001,3.5432661991e+000,3.6677102267e+000,3.8264432156e+000,3.6108425754e+000,4.0607169457e+000,3.7436634128e+000,3.0895970198e+000,4.3264352229e+000,4.9751270754e+000,4.4397948194e+000,3.2420087701e+000,9.0864701863e+000,3.4044882455e+000,3.4685313471e+000,
1.3218750000e+001,3.5027256762e+000,3.5517553484e+000,3.8183405295e+000,3.5866542546e+000,4.0451653062e+000,3.7435379721e+000,3.1101750800e+000,4.2878054065e+000,4.9906695543e+000,4.4985253825e+000,3.2001188596e+000,9.1149440507e+000,3.4091443955e+000,3.5134285671e+000,
1.3312500000e+001,3.5172699796e+000,3.5447202004e+000,3.8686247434e+000,3.6474386632e+000,3.7692684188e+000,3.8515792831e+000,2.9825657441e+000,4.2759239942e+000,4.9784924405e+000,4.5701792257e+000,3.0727819288e+000,9.0670113106e+000,3.3344681554e+000,3.7924159202e+000,
1.3406250000e+001,3.5385165740e+000,3.6703314182e+000,3.8346345715e+000,3.7775373597e+000,3.7295597638e+000,3.8842021999e+000,2.8989631322e+000,4.3583137911e+000,4.9870870942e+000,4.5526001095e+000,2.9628001548e+000,9.1036075811e+000,3.3933485408e+000,3.8550151706e+000,
1.3500000000e+001,3.4805276471e+000,3.6324531367e+000,3.7172135810e+000,3.7361980973e+000,3.4054296150e+000,3.7752800936e+000,2.8926372657e+000,4.2499677724e+000,4.9845245883e+000,4.4415729554e+000,2.8867829153e+000,9.1548755660e+000,3.3889960418e+000,3.7831519920e+000,
1.3593750000e+001,3.4712614083e+000,3.6742711657e+000,3.6966710322e+000,3.6451347958e+000,3.3958472510e+000,3.7203388389e+000,2.8950095758e+000,4.1325898276e+000,4.8509941207e+000,4.3619352693e+000,2.8788360943e+000,9.0736906464e+000,3.3502543507e+000,3.7515267518e+000,
1.3687500000e+001,3.4468078293e+000,3.5569563226e+000,3.7927430317e+000,3.6202716931e+000,3.5389250252e+000,3.7553823163e+000,2.9422086835e+000,4.0794891531e+000,3.9068819344e+000,4.4448171175e+000,2.9310196926e+000,9.1743531373e+000,3.3699870969e+000,3.7966853949e+000,
1.3781250000e+001,3.5126174085e+000,3.5380805088e+000,3.8329993079e+000,3.5643142785e+000,3.5977043226e+000,3.7317931227e+000,2.9763985040e+000,4.1845629371e+000,3.8382833516e+000,4.4737198770e+000,2.7078741885e+000,9.1952210570e+000,3.1962837914e+000,3.6767668326e+000,
1.3875000000e+001,3.4355682484e+000,3.2873062550e+000,3.8545101196e+000,3.2769086657e+000,3.8259013670e+000,3.7071710781e+000,2.8610303264e+000,4.0346144364e+000,3.7907975167e+000,4.3603051796e+000,2.6201879343e+000,9.1912248498e+000,3.1114419617e+000,3.4872236329e+000,
1.3968750000e+001,3.2964002748e+000,3.0799812900e+000,3.7852492258e+000,3.1429027956e+000,3.8556090356e+000,3.6978359927e+000,2.8548392602e+000,3.9902669482e+000,3.8562690766e+000,4.3665682978e+000,2.7717293375e+000,9.1986217779e+000,3.0710651399e+000,3.5572133261e+000,
1.4062500000e+001,3.2857943613e+000,3.1008083688e+000,3.7292718444e+000,3.1207895283e+000,3.8671802031e+000,3.6759062494e+000,2.9427229667e+000,3.9816529836e+000,3.8018187690e+000,4.5160435579e+000,2.8785783986e+000,9.1882263895e+000,3.0528592657e+000,3.6325247281e+000,
1.4156250000e+001,3.2739856491e+000,3.1186529694e+000,3.7143841414e+000,3.0632405176e+000,3.8404395217e+000,3.7568829328e+000,2.9616622185e+000,3.9618126534e+000,3.7533595910e+000,4.4947044661e+000,2.8363196352e+000,9.1700730428e+000,3.0366752403e+000,3.6770071779e+000,
1.4250000000e+001,3.2420209405e+000,3.1284335228e+000,3.7997936790e+000,3.0664952678e+000,3.8650828676e+000,3.8001861825e+000,3.0728497516e+000,3.9352441395e+000,3.6459521203e+000,4.4294167382e+000,2.8804370744e+000,9.2172165504e+000,3.1049645965e+000,3.5528142685e+000,
1.4343750000e+001,3.2671043508e+000,2.9608921192e+000,3.6710462370e+000,2.8019008420e+000,3.8499628537e+000,3.6027504797e+000,3.1950830696e+000,3.8099376243e+000,3.5510377685e+000,4.2608867611e+000,2.9137646712e+000,9.1699448743e+000,3.1125801889e+000,3.2401014239e+000,
1.4437500000e+001,3.2204320661e+000,2.8426491418e+000,3.6779858054e+000,2.8212895401e+000,3.8866659919e+000,3.5887283873e+000,3.2069718366e+000,3.7564369982e+000,3.6074951439e+000,4.2994475673e+000,2.9987914272e+000,9.1303550697e+000,3.0921236916e+000,3.2347625394e+000,
1.4531250000e+001,3.2656058722e+000,2.6891038530e+000,3.6568782580e+000,2.8795949887e+000,3.9803942093e+000,3.6172270384e+000,3.2035529755e+000,3.7466013784e+000,3.5535938645e+000,4.3535531323e+000,2.9570445201e+000,9.1558738247e+000,3.1076217870e+000,3.3791298431e+000,
1.4625000000e+001,3.3086627893e+000,2.7281719434e+000,3.6803055084e+000,3.0414390075e+000,3.9397153245e+000,3.5943348568e+000,3.2929349837e+000,3.7971119213e+000,3.5217582685e+000,4.4006039310e+000,3.0965175737e+000,9.1879028638e+000,3.1496674099e+000,3.5833340210e+000,
1.4718750000e+001,3.3559133732e+000,2.7802510715e+000,3.6077181266e+000,2.9911944953e+000,3.9259351229e+000,3.5313255498e+000,3.2799958553e+000,3.8480502280e+000,3.5094293331e+000,4.3839565011e+000,3.1576718454e+000,9.1160112641e+000,3.1984526791e+000,3.6250996467e+000,
1.4812500000e+001,3.3514372215e+000,2.6747772174e+000,3.5539523557e+000,2.9878846505e+000,3.7025092332e+000,3.4925901865e+000,3.2723143295e+000,3.6861967889e+000,3.5106322222e+000,4.2842082152e+000,3.1411481713e+000,9.1601913974e+000,3.2655502635e+000,3.6806865864e+000,
1.4906250000e+001,3.2884212122e+000,2.5950856102e+000,3.5697006749e+000,2.9714972630e+000,3.5387643594e+000,3.3862348217e+000,3.2581555340e+000,3.6470733091e+000,3.5416498248e+000,4.2534496805e+000,3.1709926778e+000,9.0721991283e+000,3.2890511257e+000,3.7027501957e+000,
1.5000000000e+001,3.3583942514e+000,2.6067786871e+000,3.4923706129e+000,3.0875049196e+000,3.5317995811e+000,3.4610200862e+000,3.3380433771e+000,3.7978884002e+000,3.5298781832e+000,4.0441814123e+000,3.1421674528e+000,9.1220684419e+000,3.2965807833e+000,3.6503818212e+000,
1.5093750000e+001,3.3183703708e+000,2.6628292881e+000,3.4566520644e+000,3.0692583314e+000,3.5134422553e+000,3.4681900806e+000,3.3153694945e+000,3.7626012435e+000,3.5910380276e+000,4.0174958697e+000,3.0809035083e+000,9.1923373446e+000,3.3446540639e+000,3.5950187367e+000,
1.5187500000e+001,3.3049105604e+000,3.0936603605e+000,3.4331138675e+000,3.2449504260e+000,3.5592125681e+000,3.5279300546e+000,3.4315763819e+000,3.9424090671e+000,3.5620194962e+000,4.0934846909e+000,3.1159482884e+000,9.3312952282e+000,3.2795660385e+000,3.5995718791e+000,
1.5281250000e+001,3.3554556596e+000,3.1566439654e+000,3.2977838763e+000,3.2947663236e+000,3.5711557949e+000,3.4727649047e+000,3.3577538218e+000,3.9727853796e+000,3.6125762373e+000,4.0957665550e+000,3.0468031877e+000,9.3661091687e+000,3.2569183062e+000,3.6626365700e+000,
1.5375000000e+001,3.3449092150e+000,3.1452102451e+000,3.3225430799e+000,3.2680614686e+000,3.8475028249e+000,3.5024361894e+000,3.2903373291e+000,3.9620647385e+000,3.5832012240e+000,4.0674611057e+000,2.9929465812e+000,9.3795647507e+000,3.2128679511e+000,3.6914367885e+000,
1.5468750000e+001,3.3501062713e+000,3.2013675152e+000,3.3994275042e+000,3.2240488782e+000,3.8049669467e+000,3.4849080531e+000,3.2498030234e+000,3.9536002824e+000,3.6219791356e+000,4.0829827864e+000,2.9931805408e+000,9.3116143834e+000,3.2450279912e+000,3.6585789307e+000,
1.5562500000e+001,3.3871969142e+000,3.2986623660e+000,3.4205486889e+000,3.3086145623e+000,3.7817194044e+000,3.7582271596e+000,3.2219563125e+000,4.0917851085e+000,3.6502307158e+000,4.3177426310e+000,3.0084059549e+000,9.3571858909e+000,3.3538392264e+000,3.6194201371e+000,
1.5656250000e+001,3.2287081904e+000,3.2897392475e+000,3.3629348127e+000,3.2585252280e+000,3.7613821396e+000,3.8668141410e+000,3.1370230394e+000,4.0470607076e+000,3.5684717432e+000,4.2504902710e+000,2.7456254488e+000,9.4146885207e+000,3.2525067447e+000,3.4036530677e+000,
1.5750000000e+001,3.2381743544e+000,3.3556855926e+000,3.4221189633e+000,3.3300710800e+000,3.7530263467e+000,3.9296958128e+000,3.2027953022e+000,4.0680216345e+000,3.6089665009e+000,4.3325831745e+000,2.7866732567e+000,9.4149421811e+000,3.2818348483e+000,3.6185967442e+000,
1.5843750000e+001,3.2471222258e+000,3.5184155972e+000,3.4882705681e+000,3.4287961673e+000,3.7605517045e+000,3.9220433501e+000,3.2236916758e+000,4.0731462205e+000,3.5140142972e+000,4.3421704551e+000,2.7941637540e+000,9.4230062927e+000,3.1746099612e+000,3.5985906559e+000,
1.5937500000e+001,3.2856221815e+000,3.6279580930e+000,3.4899723239e+000,3.5424699118e+000,3.8213768495e+000,3.9614101572e+000,3.2310284045e+000,4.0829065736e+000,3.4697774870e+000,4.3760966509e+000,2.9551073808e+000,9.4623714864e+000,3.2313573239e+000,3.6993107895e+000,
1.6031250000e+001,3.2827247232e+000,3.6149454142e+000,3.5310436730e+000,3.4890492469e+000,3.8632319539e+000,3.9944216263e+000,3.2027306498e+000,4.0282024497e+000,3.5761378010e+000,4.3876205267e+000,3.0195441319e+000,9.5074943908e+000,3.2645288175e+000,3.7912283197e+000,
1.6125000000e+001,3.2934598272e+000,3.5405333956e+000,3.5394823833e+000,3.4231750487e+000,3.8247378829e+000,3.9666313600e+000,3.1255586214e+000,3.9498494949e+000,3.5718722876e+000,4.3947910356e+000,3.0020920755e+000,9.5947288858e+000,3.2490523243e+000,3.7319759276e+000,
1.6218750000e+001,3.2949829952e+000,3.4719914034e+000,3.5689347810e+000,3.3114091879e+000,3.8131301599e+000,3.9466857899e+000,3.0383104965e+000,3.7370076791e+000,3.6473159066e+000,4.4102107747e+000,2.8866353748e+000,9.5551068909e+000,3.2337321270e+000,3.7133819204e+000,
1.6312500000e+001,3.3288960134e+000,3.5694198947e+000,3.5910219645e+000,3.4007264433e+000,3.8485453814e+000,3.9824737638e+000,3.1319191814e+000,3.8990371427e+000,3.7622220072e+000,4.5360073377e+000,2.9162679366e+000,9.5287823766e+000,3.2700811473e+000,3.7223813682e+000,
1.6406250000e+001,3.3622860241e+000,3.5857139590e+000,3.5164006674e+000,3.4027103288e+000,3.5561299406e+000,4.0186682774e+000,3.1464204509e+000,3.8870177650e+000,3.8228603110e+000,4.5378270694e+000,3.0225608513e+000,9.6033663623e+000,3.3977148746e+000,3.6775193331e+000,
1.6500000000e+001,3.3164370108e+000,3.5746454649e+000,3.4868356686e+000,3.3913092027e+000,3.5444311666e+000,3.9793787802e+000,3.2093012205e+000,3.8749007798e+000,3.7678055546e+000,4.5306738397e+000,3.0322025067e+000,9.6185109367e+000,3.3506453419e+000,3.7138286364e+000,
1.6593750000e+001,3.2665703171e+000,3.6130810027e+000,3.4846006503e+000,3.4029535529e+000,3.6279186469e+000,3.7935069236e+000,3.2169314625e+000,3.7451937178e+000,4.7214947391e+000,4.4089684729e+000,3.0019956525e+000,9.5489699413e+000,3.3106473281e+000,3.7124069052e+000,
1.6687500000e+001,3.3327415345e+000,3.5757956665e+000,3.5680785087e+000,3.3415938000e+000,3.6124160573e+000,3.6700998224e+000,3.2545475620e+000,3.6059601849e+000,5.1062531719e+000,4.3804311508e+000,2.9880084536e+000,9.5495353127e+000,3.2628626766e+000,3.6444467839e+000,
1.6781250000e+001,3.2132106117e+000,3.4981624076e+000,3.4757107947e+000,3.3095980923e+000,3.5788840818e+000,3.6484260693e+000,3.2959207298e+000,3.6532714086e+000,5.1119863992e+000,4.3360454943e+000,3.0081575954e+000,9.5574501919e+000,3.2294053842e+000,3.4368878015e+000,
1.6875000000e+001,3.1322553843e+000,3.3016313172e+000,3.4082088009e+000,3.1417525343e+000,3.6474531778e+000,3.6006164294e+000,3.3155742043e+000,3.6783382757e+000,5.1217029225e+000,4.2944848668e+000,3.0329618245e+000,9.5861699427e+000,3.2395030410e+000,3.4407562320e+000,
1.6968750000e+001,3.0761432710e+000,3.2617444714e+000,3.4701682139e+000,3.1208761910e+000,3.7784598538e+000,3.3784918186e+000,3.3082687385e+000,3.6068261760e+000,5.0957313624e+000,4.2326864844e+000,2.8442209163e+000,9.5928338931e+000,3.1510677494e+000,3.2207124925e+000,
1.7062500000e+001,3.1429939371e+000,3.2786562052e+000,3.5406728919e+000,3.2612636795e+000,3.7883750029e+000,3.4163645327e+000,3.3879033125e+000,3.7672070770e+000,5.0981467628e+000,4.2550205749e+000,2.9041651432e+000,9.5409162153e+000,3.1149498606e+000,3.1592921658e+000,
1.7156250000e+001,3.1479835504e+000,3.2357467595e+000,3.5825525943e+000,3.3267744462e+000,3.7666019231e+000,3.4527356790e+000,3.4990820230e+000,3.9119912667e+000,5.0949746070e+000,4.2326718279e+000,2.9884296967e+000,9.4318562978e+000,3.1817248714e+000,3.2957135774e+000,
1.7250000000e+001,3.1146983449e+000,3.1649290740e+000,3.5017683041e+000,3.2995087162e+000,3.7770653201e+000,3.4428104830e+000,3.5395199564e+000,3.8453866571e+000,5.0941571913e+000,4.1425076012e+000,3.0092399083e+000,9.4659876282e+000,3.2990687761e+000,3.2729625700e+000,
1.7343750000e+001,3.1031137370e+000,3.1081237793e+000,3.4928125857e+000,3.2637677752e+000,3.7452265138e+000,3.4315246330e+000,3.4734639179e+000,3.8142857817e+000,5.0780850124e+000,4.0868338389e+000,2.9390868075e+000,9.3840768910e+000,3.3387120825e+000,3.1776615137e+000,
1.7437500000e+001,3.2564402076e+000,3.0950225163e+000,3.5605172069e+000,3.3578074300e+000,3.7783347939e+000,3.4452669870e+000,3.5536206056e+000,3.8403802202e+000,5.0725200368e+000,3.9653125368e+000,3.0203458082e+000,9.4429744644e+000,3.2043517962e+000,3.0864441856e+000,
1.7531250000e+001,3.5489413984e+000,3.0723756637e+000,3.5949551272e+000,3.3437514873e+000,3.6781390964e+000,3.5158529446e+000,3.6070728402e+000,3.8625588872e+000,5.0957742920e+000,3.8713076486e+000,3.0745993117e+000,9.3939132699e+000,3.1786095382e+000,3.0534949128e+000,
1.7625000000e+001,3.4674821864e+000,2.9666605370e+000,3.5691831723e+000,3.2883104823e+000,3.6533745023e+000,3.5215003983e+000,3.5159697252e+000,3.9095387050e+000,4.0460933785e+000,3.7988657974e+000,3.0801435875e+000,9.4397148840e+000,3.1456579139e+000,2.9888950849e+000,
1.7718750000e+001,3.5427724653e+000,3.1459891753e+000,3.5273489720e+000,3.4019931974e+000,3.7253871381e+000,3.5151632511e+000,3.5185366097e+000,3.9659991208e+000,3.5720359883e+000,3.7852844946e+000,3.0879695124e+000,9.3919692870e+000,3.3175337822e+000,3.2337702981e+000,
1.7812500000e+001,3.5780647604e+000,3.1885049035e+000,3.5729455269e+000,3.3902424120e+000,3.7469443898e+000,3.5530669796e+000,3.4891016092e+000,3.9333614367e+000,3.5186068747e+000,3.8059273038e+000,3.1264610185e+000,9.3570572897e+000,3.3156344188e+000,3.3699937393e+000,
1.7906250000e+001,3.6743671519e+000,3.4116209823e+000,3.7372175560e+000,3.5410154115e+000,3.5061572355e+000,3.7495036916e+000,3.6012624236e+000,4.0420526291e+000,3.6018271952e+000,4.0750917721e+000,3.1857198327e+000,9.3610075087e+000,3.4463728151e+000,3.5469146964e+000,
1.8000000000e+001,3.6581162251e+000,3.4311162240e+000,3.8027934557e+000,3.5140900426e+000,3.4283636586e+000,3.7047150946e+000,3.5783172794e+000,4.0479876278e+000,3.6033362313e+000,4.0967313169e+000,3.1728509270e+000,9.3442393640e+000,3.4020942135e+000,3.5138774019e+000,
1.8093750000e+001,3.6186033251e+000,3.4617375940e+000,3.8382682514e+000,3.4735886442e+000,3.5083784962e+000,3.7257344446e+000,3.5404401651e+000,3.9821050841e+000,3.5994303742e+000,4.1362019447e+000,3.1284512413e+000,9.3252563920e+000,3.3650026373e+000,3.4393228493e+000,
1.8187500000e+001,3.7288056495e+000,3.6487624574e+000,3.9748101581e+000,3.5956691295e+000,3.6843530288e+000,3.8554543191e+000,3.5517317165e+000,4.0292734379e+000,3.6739452845e+000,4.2022319439e+000,3.1652741184e+000,9.2970583893e+000,3.4454420571e+000,3.4987671085e+000,
1.8281250000e+001,3.8625762969e+000,3.8132111249e+000,4.1223902576e+000,3.7470827937e+000,3.7626247250e+000,3.8985565394e+000,3.5243521132e+000,4.0982742219e+000,3.6482456094e+000,4.2953775045e+000,3.1898889371e+000,9.2997617283e+000,3.4859569422e+000,3.6288722110e+000,
1.8375000000e+001,3.8382630826e+000,3.9235063229e+000,4.1906544818e+000,3.8036263068e+000,3.8057491637e+000,3.9155493732e+000,3.5256004134e+000,4.2088836506e+000,3.6548849115e+000,4.2667754081e+000,3.1125232781e+000,9.2905154959e+000,3.4166806814e+000,3.6344233220e+000,
1.8468750000e+001,3.7564675771e+000,3.9335962290e+000,4.1973750978e+000,3.7850367105e+000,4.1224360083e+000,3.8918878239e+000,3.4607138173e+000,4.2507730639e+000,3.6196167339e+000,4.3347235717e+000,3.0574866970e+000,9.2059841246e+000,3.4345083822e+000,3.6836206543e+000,
1.8562500000e+001,3.6736565405e+000,3.9860534237e+000,4.2480182133e+000,3.8857405126e+000,4.1648594929e+000,3.9432034642e+000,3.4271094798e+000,4.3982728512e+000,3.5188417404e+000,4.4605543654e+000,2.9921282609e+000,9.2585176707e+000,3.5422924215e+000,3.8596863568e+000,
1.8656250000e+001,3.7116764268e+000,4.0448172139e+000,4.2051447530e+000,3.9828199274e+000,4.2853745078e+000,4.0371748147e+000,3.4634791449e+000,4.4565375295e+000,3.4957828379e+000,4.5861435570e+000,3.0846310001e+000,9.2535844906e+000,3.6481430673e+000,3.9956912639e+000,
1.8750000000e+001,3.8252128248e+000,4.1775761802e+000,4.3406840627e+000,4.1042929958e+000,4.3482770992e+000,4.1300514109e+000,3.6395587638e+000,4.4815115079e+000,3.6181808501e+000,4.6117412147e+000,3.1027987631e+000,9.2551197888e+000,3.6607510353e+000,4.0079591586e+000,
1.8843750000e+001,3.8718357942e+000,4.2465534313e+000,4.3841006605e+000,4.1799823126e+000,4.3845773259e+000,4.1172090331e+000,3.6380055451e+000,4.5365659395e+000,3.5946630552e+000,4.6620011657e+000,3.0162355355e+000,9.2284137148e+000,3.6215484040e+000,3.9376466998e+000,
1.8937500000e+001,3.8843568431e+000,4.2957284590e+000,4.3215023724e+000,4.1587490371e+000,4.4089106318e+000,4.1451671019e+000,3.6266134464e+000,4.4962132733e+000,3.6682240238e+000,4.6882885857e+000,3.0386447962e+000,9.1299050007e+000,3.6659547266e+000,4.0617381631e+000,
1.9031250000e+001,4.0114419229e+000,4.4531279945e+000,4.2838585907e+000,4.2768161007e+000,4.5103715370e+000,4.3911584860e+000,3.8166136526e+000,4.5781445259e+000,3.8413360451e+000,4.9742462159e+000,3.2157191438e+000,9.0724888782e+000,3.7297393797e+000,4.1650763198e+000,
1.9125000000e+001,3.9867759931e+000,4.4472100579e+000,4.2236512750e+000,4.2649697564e+000,4.4727110781e+000,4.3644760327e+000,3.7757524944e+000,4.5745421550e+000,3.7943769926e+000,4.9878415047e+000,3.1817427263e+000,9.0691458894e+000,3.6975133672e+000,4.1972748873e+000,
1.9218750000e+001,3.9618056108e+000,4.3583091670e+000,4.1956725729e+000,4.2608513841e+000,4.4705885416e+000,4.3302260903e+000,3.7620435385e+000,4.5988837538e+000,3.7062259551e+000,4.9465333506e+000,3.1305447599e+000,9.0829308224e+000,3.6178350165e+000,4.1400093577e+000,
1.9312500000e+001,3.8938659899e+000,4.3475574457e+000,4.1733347889e+000,4.2302018176e+000,4.4829746887e+000,4.3174440664e+000,3.8215332328e+000,4.5450947205e+000,3.7177604172e+000,4.9536420539e+000,3.2414029784e+000,9.1619427823e+000,3.5684633329e+000,4.1133407754e+000,
1.9406250000e+001,3.8909643721e+000,4.2867585088e+000,4.1084673810e+000,4.2061367901e+000,4.3012723747e+000,4.3359763025e+000,3.8113969553e+000,4.5194620296e+000,3.7789447801e+000,5.0143178025e+000,3.3806126658e+000,9.1170184210e+000,3.6661061416e+000,4.1370766439e+000,
1.9500000000e+001,3.8860584997e+000,4.2829464233e+000,4.1145566226e+000,4.2085094880e+000,4.2688083292e+000,4.3078737063e+000,3.8637974317e+000,4.5091089199e+000,3.9403086180e+000,4.9693350390e+000,3.4110846798e+000,9.1619191579e+000,3.6821397308e+000,4.0881468504e+000,
1.9593750000e+001,3.8802352544e+000,4.2693155009e+000,4.1241463856e+000,4.1495238858e+000,4.2251091636e+000,4.2617768966e+000,3.8609893434e+000,4.3722804579e+000,3.9426385364e+000,4.8997143983e+000,3.3986725541e+000,9.0371917191e+000,3.5518061878e+000,3.9316665628e+000,
1.9687500000e+001,3.7766124838e+000,4.1613503563e+000,4.1641168701e+000,4.0514496132e+000,4.0669021025e+000,4.2124262555e+000,3.8310463172e+000,4.4013214802e+000,3.9571997485e+000,4.8610890033e+000,3.4032229629e+000,9.0244222093e+000,3.4871594459e+000,3.8582653597e+000,
1.9781250000e+001,3.6804271036e+000,4.0141454216e+000,3.9876491297e+000,3.8827034559e+000,3.9802187222e+000,4.1564006941e+000,3.7282248473e+000,4.3381523902e+000,3.8915979139e+000,4.8304039266e+000,3.4445802020e+000,9.0137554680e+000,3.4166136108e+000,3.7636144958e+000,
1.9875000000e+001,3.6701163154e+000,4.0212356953e+000,3.9631404024e+000,3.8655442110e+000,3.9962824908e+000,4.2230172886e+000,3.7532844602e+000,4.2988815762e+000,3.8434713905e+000,4.7859958630e+000,3.3884853072e+000,9.1099071875e+000,3.3117165983e+000,3.7005957711e+000,
1.9968750000e+001,3.5772243733e+000,3.8293902481e+000,3.9198448220e+000,3.7413936013e+000,3.9684914384e+000,4.1158383001e+000,3.6709029162e+000,4.2968537315e+000,3.7621834951e+000,4.5202561001e+000,3.3565330111e+000,9.1490349477e+000,3.3055019303e+000,3.5213118732e+000,
2.0062500000e+001,3.5628906328e+000,3.6018689544e+000,3.9001065570e+000,3.6117083699e+000,3.9078514348e+000,3.9294794231e+000,3.5757763232e+000,4.1719269459e+000,3.7046354494e+000,4.2895256236e+000,3.2374000228e+000,9.2053325444e+000,3.2698472528e+000,3.4441681628e+000,
2.0156250000e+001,3.5189111751e+000,3.6141086730e+000,3.9063210619e+000,3.6765265492e+000,3.9167336269e+000,3.9828827338e+000,3.6096813458e+000,4.1999110096e+000,3.7197746204e+000,4.2508952852e+000,3.2598543820e+000,9.1198732870e+000,3.2816360286e+000,3.5735390605e+000,
2.0250000000e+001,3.3595564619e+000,3.5770683063e+000,3.7493719613e+000,3.4924600395e+000,3.7186285320e+000,3.9529016816e+000,3.4905271564e+000,4.0145443934e+000,3.7616202800e+000,4.1745070189e+000,3.2088553447e+000,8.9795265773e+000,3.2136403044e+000,3.5670390156e+000,
2.0343750000e+001,3.4018037972e+000,3.6173864097e+000,3.7255106328e+000,3.4823136709e+000,3.7385926372e+000,3.9450852749e+000,3.4742176372e+000,4.0226926652e+000,3.7793160896e+000,4.2246226420e+000,3.1146749218e+000,8.8186645916e+000,3.2169164575e+000,3.6607674639e+000,
2.0437500000e+001,3.4702802825e+000,3.7378280823e+000,3.8171598415e+000,3.5927179353e+000,3.7649902285e+000,3.9082956504e+000,3.4583063547e+000,4.0443727830e+000,4.6448287734e+000,4.2526527293e+000,2.9252281639e+000,8.7412530226e+000,3.0841671509e+000,3.6658488610e+000,
2.0531250000e+001,3.3908686793e+000,3.6826068703e+000,3.7530306502e+000,3.4515772932e+000,3.6942110711e+000,3.8627452108e+000,3.4155734295e+000,4.0788909737e+000,5.1637293555e+000,4.1902430742e+000,2.9666632481e+000,8.5927693639e+000,2.9705439475e+000,3.6092339248e+000,
2.0625000000e+001,3.3538790228e+000,3.6964201634e+000,3.7589931064e+000,3.4029700441e+000,3.7344963191e+000,3.7896593977e+000,3.4517540636e+000,3.9896274492e+000,5.2085553336e+000,4.1998294023e+000,2.9875607311e+000,8.5159056974e+000,2.9820322885e+000,3.5691036014e+000,
2.0718750000e+001,3.4161458496e+000,3.7650928430e+000,3.8379071624e+000,3.4674505806e+000,3.7239700873e+000,3.8710134870e+000,3.3881630955e+000,3.8910724417e+000,5.2078116525e+000,4.2778988613e+000,3.0047895466e+000,8.3916063426e+000,2.9580244476e+000,3.6233420988e+000,
2.0812500000e+001,3.4560299270e+000,3.7741243992e+000,3.8334722505e+000,3.4896411596e+000,4.2584657412e+000,3.8635802368e+000,3.4500627881e+000,3.8668465113e+000,5.2375694012e+000,4.3264731492e+000,3.0835464541e+000,8.1610825826e+000,3.0898089295e+000,3.7176562456e+000,
2.0906250000e+001,3.4456069308e+000,3.8021197341e+000,3.8420442367e+000,3.5467547475e+000,4.2550657656e+000,3.8490030008e+000,3.3789381129e+000,3.9869756467e+000,5.2432494189e+000,4.3445349359e+000,3.1846449263e+000,7.8009960663e+000,3.0901316435e+000,3.7100445633e+000,
2.1000000000e+001,3.4097130419e+000,3.7827649611e+000,3.9072083769e+000,3.5877763185e+000,4.1680926667e+000,3.8208607028e+000,3.3344322754e+000,3.8751476765e+000,5.2372604121e+000,4.3526131849e+000,3.1442916679e+000,7.3268646419e+000,2.9944121802e+000,3.6412273590e+000,
2.1093750000e+001,3.3638717895e+000,3.7497521932e+000,3.9662016293e+000,3.5315744983e+000,4.1428343581e+000,3.7969340217e+000,3.4092696361e+000,3.8416795381e+000,5.2327156814e+000,4.3685458538e+000,3.2347269846e+000,6.3950723338e+000,3.0064480840e+000,3.6590343325e+000,
2.1187500000e+001,3.4228027655e+000,3.7287143855e+000,3.9163614637e+000,3.5098474813e+000,4.2151974417e+000,3.8556781686e+000,3.5635850739e+000,3.8588842254e+000,5.2316779544e+000,4.4070102858e+000,3.2434573181e+000,6.2882684901e+000,3.0527903582e+000,3.7198014393e+000,
2.1281250000e+001,3.5300685785e+000,3.7606504438e+000,3.9246658943e+000,3.5442022870e+000,4.3049112204e+000,3.8998989516e+000,3.6574334368e+000,3.8759932892e+000,5.2376253446e+000,4.4361148195e+000,3.3107051232e+000,6.3270439803e+000,3.1347541982e+000,3.6736119782e+000,
2.1375000000e+001,3.6310900377e+000,3.7872537930e+000,3.9590330881e+000,3.6026190285e+000,4.3998162433e+000,4.0006886359e+000,3.7016012709e+000,3.9533128623e+000,5.2418783642e+000,4.3249323180e+000,3.3368770009e+000,6.1551317291e+000,3.1182649206e+000,3.6495218080e+000,
2.1468750000e+001,3.6192730117e+000,3.6786634668e+000,3.8941330774e+000,3.5752512821e+000,4.3882110402e+000,4.0151249421e+000,3.6679175617e+000,3.8675214357e+000,4.5684141672e+000,4.2976892440e+000,3.4356670974e+000,6.1170243451e+000,3.2129558855e+000,3.6742780457e+000,
2.1562500000e+001,3.6435695535e+000,3.6358766463e+000,3.8301087394e+000,3.5839766407e+000,4.3797066925e+000,4.0033118375e+000,3.6474705034e+000,3.8716593354e+000,3.7702224570e+000,4.3050653897e+000,3.3801212587e+000,6.1068751591e+000,3.2107422042e+000,3.7469521005e+000,
2.1656250000e+001,3.6151791651e+000,3.5741798041e+000,3.7577852429e+000,3.5335409024e+000,4.4189834816e+000,4.0105102029e+000,3.6102117958e+000,3.8716069080e+000,3.7934561603e+000,4.2462170390e+000,3.3509362660e+000,6.0973990055e+000,3.1964512105e+000,3.7108239252e+000,
2.1750000000e+001,3.6058213975e+000,3.5616747768e+000,3.7681141550e+000,3.5337128357e+000,4.2623924174e+000,3.9479586451e+000,3.5813430581e+000,4.0153034360e+000,3.7918712569e+000,4.4023868344e+000,3.2418293846e+000,6.1278582538e+000,3.2237039092e+000,3.7355133157e+000,
2.1843750000e+001,3.5438811967e+000,3.4824382861e+000,3.7496366674e+000,3.4808827784e+000,3.9119887474e+000,3.8844193139e+000,3.4362427874e+000,3.9280708818e+000,3.7451201704e+000,4.3377163302e+000,3.2033158811e+000,6.0957851445e+000,3.1753207242e+000,3.6283467986e+000,
2.1937500000e+001,3.5459151486e+000,3.4191884912e+000,3.7511788587e+000,3.4443295142e+000,3.9242024931e+000,3.8708878760e+000,3.4140248731e+000,3.8955627612e+000,3.7626211696e+000,4.2477312415e+000,3.0286717496e+000,5.8722430768e+000,3.0799088926e+000,3.5624706161e+000,
2.2031250000e+001,3.4716877970e+000,3.4263602435e+000,3.6321560664e+000,3.4414481549e+000,3.9702457351e+000,3.8744259434e+000,3.4718687217e+000,3.9214097201e+000,3.7646792216e+000,4.2398984085e+000,3.0094574405e+000,5.8508559874e+000,3.1200930007e+000,3.6361292656e+000,
2.2125000000e+001,3.5001238240e+000,3.5428845302e+000,3.6448116142e+000,3.5172238730e+000,3.9682316513e+000,3.9572839970e+000,3.4131251572e+000,4.0137811319e+000,3.7666882892e+000,4.3270582351e+000,2.9141341608e+000,5.9902529200e+000,3.1549295174e+000,3.6845988948e+000,
2.2218750000e+001,3.3891784897e+000,3.4636631294e+000,3.6839248518e+000,3.4879693036e+000,3.7743899533e+000,3.8355154854e+000,3.2024220296e+000,4.0876822551e+000,3.7448881752e+000,4.4045948142e+000,2.9429775465e+000,6.0463213088e+000,3.2004250235e+000,3.5487659277e+000,
2.2312500000e+001,3.5718480934e+000,3.6200830929e+000,3.9040827523e+000,3.6348104140e+000,3.8915849014e+000,3.9827814957e+000,3.3492341050e+000,4.1470650796e+000,3.7488528011e+000,4.5342945892e+000,2.9486616911e+000,6.0880195957e+000,3.3861368302e+000,3.7137185423e+000,
2.2406250000e+001,3.4995547588e+000,3.5537200340e+000,3.8783603005e+000,3.5363682207e+000,3.8362670047e+000,3.9202941537e+000,3.3268781799e+000,4.1575986422e+000,3.8273601591e+000,4.5631992411e+000,3.0786892910e+000,6.0525740698e+000,3.4632624719e+000,3.7159877768e+000,
2.2500000000e+001,3.5392229617e+000,3.6400870105e+000,3.9060040378e+000,3.5605359722e+000,3.9427781859e+000,3.9153461381e+000,3.4021225000e+000,4.1367912295e+000,3.9133532028e+000,4.5242953428e+000,3.1551452881e+000,6.1094289474e+000,3.4520150356e+000,3.7096176327e+000,
2.2593750000e+001,3.5829193552e+000,3.7050803138e+000,4.0076421708e+000,3.5210613286e+000,3.8951072659e+000,3.9397380417e+000,3.4514831665e+000,4.0753344243e+000,3.9366225782e+000,4.5404013115e+000,3.2322635206e+000,6.1436041492e+000,3.4778440558e+000,3.7153827906e+000,
2.2687500000e+001,3.6086304446e+000,3.6979510296e+000,3.9517037943e+000,3.4749194177e+000,3.9644754247e+000,3.9662638066e+000,3.4026129658e+000,4.0125492090e+000,3.9162324927e+000,4.4198840258e+000,3.1882161228e+000,6.4064414922e+000,3.4822806385e+000,3.6641594490e+000,
2.2781250000e+001,3.6564874937e+000,3.7956994227e+000,3.9375814405e+000,3.4911448962e+000,4.0339905689e+000,4.0383483993e+000,3.4808334622e+000,3.9709314348e+000,3.8278470361e+000,4.3594730982e+000,3.2831166623e+000,6.2824815704e+000,3.4847485155e+000,3.6496071627e+000,
2.2875000000e+001,3.6494471571e+000,3.8281231874e+000,3.9086414603e+000,3.5183289909e+000,4.0553354725e+000,4.0209677474e+000,3.4976982162e+000,4.0050439237e+000,3.7971832013e+000,4.3852989038e+000,3.2315629163e+000,6.2675069402e+000,3.4680130611e+000,3.6722166634e+000,
2.2968750000e+001,3.5981687475e+000,3.7807556446e+000,3.9354494434e+000,3.4687796757e+000,4.0184186726e+000,3.9438746989e+000,3.4941177981e+000,4.0026817062e+000,3.7753494258e+000,4.3922515172e+000,3.2170895868e+000,6.2238741654e+000,3.4917712227e+000,3.6996091220e+000,
2.3062500000e+001,3.5909028505e+000,3.7298651881e+000,3.9441692819e+000,3.4469868818e+000,4.0874756375e+000,3.9480458413e+000,3.3957312116e+000,3.9739970730e+000,3.7567375094e+000,4.4031350118e+000,3.2347456478e+000,6.1894312424e+000,3.4584252625e+000,3.6430679631e+000,
2.3156250000e+001,3.5758998136e+000,3.6826043944e+000,4.0270818424e+000,3.4391667607e+000,4.1996299213e+000,3.9200535007e+000,3.4354068079e+000,3.9307056592e+000,3.7482136859e+000,4.2897351024e+000,3.2405030317e+000,5.9715763587e+000,3.4207330241e+000,3.4906833815e+000,
2.3250000000e+001,3.4896604166e+000,3.5851506666e+000,3.9569502521e+000,3.3100464757e+000,4.2363644686e+000,3.7914114816e+000,3.3398224541e+000,3.7926971336e+000,3.6155970884e+000,4.1412111020e+000,3.2611755920e+000,6.0037567399e+000,3.2816176519e+000,3.3771366623e+000,
2.3343750000e+001,3.4541254932e+000,3.4405624019e+000,3.8736701047e+000,3.2453666345e+000,4.1102923991e+000,3.6688434391e+000,3.3477388291e+000,3.8796763148e+000,3.5510928531e+000,3.9413070603e+000,3.1037016438e+000,5.8838065587e+000,3.0380694731e+000,3.2245459029e+000,
2.3437500000e+001,3.5097890484e+000,3.4859660102e+000,3.7880323012e+000,3.2512980714e+000,4.1138836797e+000,3.8159708516e+000,3.3056634174e+000,3.9006578902e+000,3.5031815093e+000,3.8224844379e+000,2.9975275487e+000,5.8148274422e+000,3.0036858297e+000,3.1224912992e+000,
2.3531250000e+001,3.4637623837e+000,3.4372469980e+000,3.7305625892e+000,3.2400023028e+000,4.0187663433e+000,3.8703918591e+000,3.2147559297e+000,3.9270024490e+000,3.3959381645e+000,3.9648043641e+000,2.9360805709e+000,5.7697876920e+000,3.1572086704e+000,3.3394584399e+000,
2.3625000000e+001,3.4582225716e+000,3.4709519268e+000,3.6550809686e+000,3.3170382590e+000,4.0530332428e+000,3.9220967032e+000,3.3963131941e+000,3.9932280219e+000,3.3913653480e+000,3.9471330475e+000,3.0624592335e+000,5.7073246782e+000,3.2759028528e+000,3.4389675086e+000,
2.3718750000e+001,3.4905781254e+000,3.3949083628e+000,3.7132719731e+000,3.5042396595e+000,4.0768702370e+000,3.9175120796e+000,3.4546567313e+000,4.0560578315e+000,3.5569669959e+000,3.9784806415e+000,3.1017806149e+000,5.6078370379e+000,3.4072024471e+000,3.5391671346e+000,
2.3812500000e+001,3.4434899562e+000,3.3808094908e+000,3.7699699970e+000,3.5188370433e+000,4.0686667214e+000,3.9749743397e+000,3.4029354165e+000,4.0578733690e+000,3.6968239728e+000,4.0202588017e+000,3.0806051712e+000,5.7221502952e+000,3.4757941464e+000,3.5560676437e+000,
2.3906250000e+001,3.7490265915e+000,3.3451253618e+000,3.8305186690e+000,3.4748908051e+000,4.0243970464e+000,4.0191929166e+000,3.4064067451e+000,4.0288941596e+000,3.6637097729e+000,3.9631543055e+000,3.0576949840e+000,5.7877334162e+000,3.4352780862e+000,3.5882065827e+000,
2.4000000000e+001,3.8121312186e+000,3.4147389704e+000,3.9221210401e+000,3.4796109325e+000,4.0100952277e+000,3.9993058324e+000,3.4194333661e+000,4.0136062097e+000,3.6604161940e+000,3.8954622278e+000,3.1019319363e+000,5.7824521000e+000,3.4589911681e+000,3.5836917536e+000,
2.4093750000e+001,3.8208294121e+000,3.4642817067e+000,3.9656734288e+000,3.4777246506e+000,3.8576004260e+000,3.9637643251e+000,3.3853592832e+000,4.0362685668e+000,3.6698508138e+000,3.8340160531e+000,3.1154211294e+000,5.7777271238e+000,3.4946834809e+000,3.6005906131e+000,
2.4187500000e+001,3.8560070346e+000,3.4267472439e+000,3.9644399026e+000,3.4209257135e+000,3.7532847343e+000,3.9184039709e+000,3.3546779557e+000,4.0431261030e+000,3.7477682682e+000,3.7761607231e+000,3.1306805235e+000,5.8444223783e+000,3.4756999593e+000,3.6328479014e+000,
2.4281250000e+001,3.7888673133e+000,3.4421897766e+000,3.9541124301e+000,3.3677953801e+000,3.6919067025e+000,3.9438890554e+000,3.3398480240e+000,3.9177788478e+000,3.7008103856e+000,3.8450225371e+000,3.0981756430e+000,6.0347371434e+000,3.4948915695e+000,3.5816459528e+000,
2.4375000000e+001,3.7302411028e+000,3.4277407817e+000,4.0927152457e+000,3.3968151101e+000,3.6473549432e+000,3.9417229865e+000,3.3032183243e+000,3.8441297320e+000,4.7185587399e+000,4.0840883244e+000,3.0445188867e+000,6.0205015539e+000,3.4796715068e+000,3.6131178622e+000,
2.4468750000e+001,3.6318891107e+000,3.3200763505e+000,4.0756792045e+000,3.3448663509e+000,3.6973348653e+000,3.8002159528e+000,3.2519084572e+000,3.8829355673e+000,5.2029952884e+000,4.0347232403e+000,3.0609102243e+000,6.0202986465e+000,3.4072232946e+000,3.5069592634e+000,
2.4562500000e+001,3.6725183106e+000,3.2602466175e+000,4.1010934417e+000,3.4112129684e+000,3.8444161087e+000,3.7072125672e+000,3.2396758007e+000,3.9736883347e+000,5.2420412784e+000,4.0242905465e+000,2.9422897921e+000,6.0540634571e+000,3.2847776622e+000,3.3785014969e+000,
2.4656250000e+001,3.6472854831e+000,3.3064944811e+000,4.0850459223e+000,3.3594887657e+000,3.9273083054e+000,3.5950530341e+000,3.0322641049e+000,3.9433421526e+000,5.2465634185e+000,4.0043206400e+000,2.8906875063e+000,5.8833615610e+000,3.1706141526e+000,3.2268425417e+000,
2.4750000000e+001,3.6125129082e+000,3.2725818327e+000,4.0536601168e+000,3.1830761355e+000,3.8358149951e+000,3.5477986950e+000,3.2616813928e+000,3.8346681603e+000,5.2236384958e+000,3.9710572452e+000,2.7826750653e+000,5.7102324934e+000,2.9659160782e+000,3.1779710304e+000,
2.4843750000e+001,3.6230493453e+000,3.3112750404e+000,4.0589153714e+000,3.1993137363e+000,3.8350120928e+000,3.5556974575e+000,4.4652572361e+000,3.8796388092e+000,5.2099793065e+000,4.0113043694e+000,2.7262174630e+000,5.7247295500e+000,2.9280857566e+000,3.1354325099e+000,
2.4937500000e+001,3.2274766546e+000,3.3892535997e+000,3.8531540316e+000,3.2900822357e+000,3.8419784283e+000,3.6606859153e+000,4.7854212779e+000,3.9154705056e+000,5.2241765618e+000,4.0119980506e+000,2.7769249007e+000,5.6449720713e+000,2.9536752567e+000,3.0042374682e+000,
2.5031250000e+001,3.2961043732e+000,3.3778873813e+000,3.8614693528e+000,3.3204421696e+000,4.0119031334e+000,3.7281978698e+000,4.7948270229e+000,3.8544427709e+000,5.2211536513e+000,4.0547826595e+000,2.7934853680e+000,5.6657892874e+000,2.9639509169e+000,2.8991582119e+000,
2.5125000000e+001,3.3223463826e+000,3.3343392514e+000,3.7950267084e+000,3.2973432641e+000,4.0532840865e+000,3.6978249252e+000,4.7912700493e+000,3.8018495726e+000,5.2308059946e+000,4.0452393810e+000,2.8569315897e+000,5.7691819934e+000,3.0130212293e+000,2.9271557950e+000,
2.5218750000e+001,3.2863615129e+000,3.3250151228e+000,3.7981091657e+000,3.3339513472e+000,4.0478773605e+000,3.6571872914e+000,4.7773390265e+000,3.8354998292e+000,5.2246586616e+000,4.0219329437e+000,2.8548823916e+000,5.5712869937e+000,3.0226424249e+000,2.8913863956e+000,
2.5312500000e+001,3.2786527727e+000,3.3120525801e+000,3.7159237350e+000,3.3006178588e+000,4.0345952286e+000,3.6334833233e+000,4.7726674792e+000,3.8884026473e+000,5.2082244622e+000,3.9060122452e+000,2.7223953159e+000,7.7062289026e+000,2.9452243657e+000,2.9249696870e+000,
2.5406250000e+001,3.2006664029e+000,3.2474920361e+000,4.0647106387e+000,3.2097541165e+000,4.0353283275e+000,3.5317876316e+000,4.7964307560e+000,3.7986250505e+000,4.5008695338e+000,4.0444812080e+000,2.7214996399e+000,9.3812598116e+000,2.9183483195e+000,2.9114455774e+000,
2.5500000000e+001,3.2723229964e+000,3.3020468923e+000,4.1332848572e+000,3.2174577061e+000,4.0557242495e+000,3.5881458577e+000,4.8150939215e+000,3.7956933496e+000,3.6932610736e+000,4.1974816337e+000,2.7846667970e+000,9.5825847569e+000,2.8625427554e+000,2.8779819753e+000,
2.5593750000e+001,3.3070849314e+000,3.3470751704e+000,4.2056306988e+000,3.0662400565e+000,3.8051405093e+000,3.5922246881e+000,4.8258095111e+000,3.6758295080e+000,3.7557108048e+000,4.1972858786e+000,2.8386844147e+000,9.7677858345e+000,2.9223628411e+000,2.7161901871e+000,
2.5687500000e+001,3.4606701604e+000,3.3410334046e+000,4.2630221026e+000,3.1388096052e+000,3.7416658896e+000,3.6349713535e+000,4.7816752844e+000,3.6602203052e+000,3.7305172318e+000,4.2363058044e+000,2.8296936086e+000,9.8811833269e+000,3.0120390157e+000,2.6782958461e+000,
2.5781250000e+001,3.5053962230e+000,3.3858579045e+000,4.2559836410e+000,3.2803311599e+000,3.8717897397e+000,3.7105734332e+000,4.7439441976e+000,3.7968258731e+000,3.7841581124e+000,4.2771092574e+000,2.9660593194e+000,9.9097980839e+000,3.1338844491e+000,2.8103607778e+000,
2.5875000000e+001,3.5423063186e+000,3.3215059486e+000,4.2677307507e+000,3.2049246065e+000,3.8610877283e+000,3.6543466869e+000,3.4997535164e+000,3.8184388137e+000,3.7965059275e+000,4.3549456757e+000,3.0003625800e+000,9.9322480048e+000,3.1529049888e+000,2.9514870901e+000,
2.5968750000e+001,3.5427577865e+000,3.2549970629e+000,4.3637925489e+000,3.2491092240e+000,3.8087306376e+000,3.5399202245e+000,3.2203744347e+000,3.7939279732e+000,3.8172561528e+000,4.3827343238e+000,2.9961917154e+000,9.9446166469e+000,3.1753342153e+000,2.9542739985e+000,
2.6062500000e+001,3.5737779957e+000,3.3023222061e+000,4.3726799839e+000,3.2843581855e+000,3.7617466941e+000,3.6528190754e+000,3.2265813816e+000,4.0069938918e+000,3.7705368514e+000,4.4036941016e+000,3.0278457676e+000,9.9801933491e+000,3.2901937572e+000,3.1248391002e+000,
2.6156250000e+001,3.5290747815e+000,3.3701225568e+000,4.2979830103e+000,3.2847531506e+000,3.8030630808e+000,3.6840833104e+000,3.2908321521e+000,4.0305215074e+000,3.7818493187e+000,4.4715771893e+000,2.9844068958e+000,9.9837119374e+000,3.2136538884e+000,3.0818273675e+000,
2.6250000000e+001,3.5365412117e+000,3.3621015361e+000,4.3602216618e+000,3.3733126964e+000,3.8222881515e+000,3.7453068592e+000,3.2846219981e+000,4.1169196794e+000,3.7682403751e+000,4.5020343203e+000,3.0638652602e+000,9.9855886170e+000,3.2523287102e+000,3.3838564508e+000,
2.6343750000e+001,3.5058280449e+000,3.4016020053e+000,4.3797813670e+000,3.3660334920e+000,3.8681821320e+000,3.7057325870e+000,3.1839875207e+000,4.0504980174e+000,3.7460587095e+000,4.4062031745e+000,3.0799444688e+000,9.7003137027e+000,3.3027903032e+000,3.5094456441e+000,
2.6437500000e+001,3.5587884231e+000,3.3786260631e+000,4.0794082103e+000,3.3741508759e+000,3.7473264956e+000,3.7549439935e+000,3.0264269811e+000,4.0879342843e+000,3.7388108848e+000,4.1980429604e+000,3.1671438147e+000,8.9995002807e+000,3.4666323917e+000,3.5806417526e+000,
2.6531250000e+001,3.4917405488e+000,3.3397864794e+000,4.0771704230e+000,3.3924849071e+000,3.5967607582e+000,3.7225045439e+000,3.0437099904e+000,4.0841075404e+000,3.7223630625e+000,4.1331722147e+000,3.1926771495e+000,8.9066737740e+000,3.5685917164e+000,3.6735588944e+000,
2.6625000000e+001,3.3286533294e+000,3.1880156888e+000,3.9512031510e+000,3.3324491016e+000,3.6296102925e+000,3.6576201141e+000,2.9299512746e+000,4.0423495740e+000,3.6306795515e+000,4.0929714812e+000,3.1252719329e+000,8.3949650762e+000,3.5318443254e+000,3.6787098316e+000,
2.6718750000e+001,3.1747948644e+000,3.0389977901e+000,3.8793224623e+000,3.1669054277e+000,3.6718833806e+000,3.5507684390e+000,2.8504719515e+000,3.9691679451e+000,3.6070357519e+000,4.0581240925e+000,3.0775429793e+000,7.8225724867e+000,3.4615164363e+000,3.6547072616e+000,
2.6812500000e+001,3.1050593532e+000,2.9767911926e+000,3.9251495104e+000,3.1646357173e+000,3.6289695053e+000,3.5332863092e+000,2.7569329359e+000,3.9342024354e+000,3.5365888536e+000,4.0967833395e+000,3.0947012733e+000,7.6804198168e+000,3.4812492041e+000,3.6823775188e+000,
2.6906250000e+001,3.0462691479e+000,3.1282707396e+000,3.9317703395e+000,3.2063505274e+000,3.6594606619e+000,3.5311382540e+000,2.8084305311e+000,3.9056987591e+000,3.5128795648e+000,4.0050378239e+000,3.2768920986e+000,7.4159690432e+000,3.4382332589e+000,3.6637944494e+000,
2.7000000000e+001,3.0437345252e+000,3.0821525080e+000,3.7956736175e+000,3.2504564671e+000,3.9338709235e+000,3.5108967946e+000,2.8557160495e+000,3.8545156534e+000,3.3934185369e+000,4.0539390117e+000,3.1974027279e+000,7.0273012218e+000,3.3475328039e+000,3.6392070254e+000,
2.7093750000e+001,2.9957558928e+000,3.0308429389e+000,3.8054244207e+000,3.2157475822e+000,3.9888077635e+000,3.4682291533e+000,2.8565972418e+000,3.7854035443e+000,3.3824200087e+000,4.0668487291e+000,3.1842539308e+000,6.7291538718e+000,3.3024972451e+000,3.5915562357e+000,
2.7187500000e+001,3.2027506043e+000,3.1315919860e+000,3.9168892710e+000,3.2708583205e+000,3.9225530692e+000,3.5022256640e+000,2.8973684360e+000,3.6954077407e+000,3.4375222481e+000,4.0319640566e+000,3.1372869312e+000,6.8000096604e+000,3.3150077316e+000,3.5282683617e+000,
2.7281250000e+001,3.2656027275e+000,3.1425557586e+000,3.8725678956e+000,3.3003004138e+000,3.9219735930e+000,3.6000059600e+000,2.8859239949e+000,3.7021912440e+000,3.4477879599e+000,4.0955265110e+000,3.1686607155e+000,6.9518497289e+000,3.3367512437e+000,3.2858854639e+000,
2.7375000000e+001,3.2535534796e+000,3.1251928819e+000,3.7468029424e+000,3.3388584167e+000,3.9137063764e+000,3.6250513421e+000,2.9561177157e+000,3.7546494336e+000,3.5226107643e+000,4.1328219875e+000,3.1173904622e+000,6.9266478923e+000,3.3297897248e+000,3.2126409963e+000,
2.7468750000e+001,3.3122769465e+000,3.1855124737e+000,3.7530610723e+000,3.3872834106e+000,3.9069320029e+000,3.6755695265e+000,2.9619006120e+000,3.7524187979e+000,3.4888952764e+000,4.2282726156e+000,3.0657982155e+000,6.7906808713e+000,3.1500829761e+000,3.1324788918e+000,
2.7562500000e+001,3.2893881433e+000,3.4027867898e+000,3.7075873104e+000,3.5150903094e+000,3.8637324869e+000,3.8299716934e+000,3.0070609753e+000,3.7845224789e+000,3.5109556883e+000,4.2879741071e+000,3.0701777940e+000,6.8031118959e+000,3.2215430097e+000,3.2734379150e+000,
2.7656250000e+001,3.3403937527e+000,3.5201839092e+000,3.7964535898e+000,3.6585339557e+000,3.7487386676e+000,4.0104187740e+000,3.0987338342e+000,3.9320847674e+000,3.5730288122e+000,4.4983157301e+000,3.1906942980e+000,6.7986962214e+000,3.2308937237e+000,3.6098180693e+000,
2.7750000000e+001,3.3981327221e+000,3.6166629943e+000,3.8701783899e+000,3.6744207621e+000,4.1771973294e+000,4.0332374260e+000,3.1651241414e+000,3.9521806620e+000,3.7103925502e+000,4.4804332526e+000,3.1644017295e+000,6.7594636370e+000,3.2146833155e+000,3.6752211523e+000,
2.7843750000e+001,3.3878505118e+000,3.5997431530e+000,3.8691142205e+000,3.6768201953e+000,4.1669168750e+000,4.0924098987e+000,3.2223564310e+000,3.9607571332e+000,3.6928663020e+000,4.5972188956e+000,3.1128307933e+000,6.6678531077e+000,3.1912829125e+000,3.6718152372e+000,
2.7937500000e+001,3.4091788769e+000,3.5845545185e+000,3.7767854782e+000,3.6609332148e+000,4.0209109587e+000,4.0849589000e+000,3.1861561514e+000,3.9747854590e+000,3.7436172451e+000,4.5617413743e+000,3.0606607630e+000,6.6628428816e+000,3.2201666287e+000,3.6819534692e+000,
2.8031250000e+001,3.4068799336e+000,3.6529071487e+000,3.7808299711e+000,3.6450901280e+000,3.8132584909e+000,4.0414495342e+000,3.1319896531e+000,3.9485299550e+000,3.7578566530e+000,4.5919904426e+000,3.0448299886e+000,6.6090570902e+000,3.2375278537e+000,3.7097472796e+000,
2.8125000000e+001,3.5045799400e+000,3.6573852194e+000,3.7275660894e+000,3.6523368303e+000,3.8375834864e+000,4.0335635831e+000,3.1292323951e+000,3.9756512148e+000,3.7015558914e+000,4.5880183850e+000,3.0435219462e+000,6.4618877202e+000,3.3340635652e+000,3.7290073484e+000,
2.8218750000e+001,3.3304950322e+000,3.5552321438e+000,3.6185336996e+000,3.4967474686e+000,3.8558183323e+000,4.0177486082e+000,3.1257764940e+000,3.9674639341e+000,3.6856621259e+000,4.6622378499e+000,2.9598878980e+000,6.2213478688e+000,3.3085210582e+000,3.8922324257e+000,
2.8312500000e+001,3.3524229739e+000,3.5363475786e+000,3.5801297228e+000,3.4893001081e+000,4.1283792156e+000,3.9393026906e+000,3.1337248586e+000,3.9871096759e+000,3.7035774307e+000,4.6823213604e+000,3.0231864863e+000,6.0599996801e+000,3.3160185024e+000,3.9774435168e+000,
2.8406250000e+001,3.4860353236e+000,3.4802330747e+000,3.6458770064e+000,3.5769019180e+000,4.1198709142e+000,3.9361294388e+000,3.1522618579e+000,4.0819048558e+000,3.6310998303e+000,4.6753592197e+000,3.0200700024e+000,6.0291537214e+000,3.3141506326e+000,3.9893563239e+000,
2.8500000000e+001,3.3597315079e+000,3.5007044498e+000,3.5997347285e+000,3.5158899353e+000,4.1266373771e+000,3.9056254301e+000,3.1411995525e+000,4.0890593061e+000,3.7562317334e+000,4.6535363573e+000,3.1098213030e+000,5.9870821880e+000,3.3509058809e+000,4.0024879768e+000,
2.8593750000e+001,3.4411448755e+000,3.3414992474e+000,3.6376442370e+000,3.3926961466e+000,4.1070649182e+000,3.8112353491e+000,3.1180411688e+000,4.0638305095e+000,3.8282585014e+000,4.5421464245e+000,3.1037021825e+000,5.9390558607e+000,3.2977838133e+000,3.9158564320e+000,
2.8687500000e+001,3.4060343812e+000,3.3607166030e+000,3.7810598779e+000,3.3412662419e+000,4.0353668944e+000,3.7108332170e+000,3.2414865533e+000,4.0578677069e+000,4.6212869922e+000,4.4596030705e+000,3.1815459463e+000,5.6700298311e+000,3.2563237578e+000,3.7298493668e+000,
2.8781250000e+001,3.4484628865e+000,3.2720595822e+000,3.8181447712e+000,3.3239464205e+000,3.6958395517e+000,3.6320712417e+000,3.2272780546e+000,4.0703033679e+000,5.0531012155e+000,4.3895592433e+000,3.2185823318e+000,5.7837633604e+000,3.2139765179e+000,3.6671118937e+000,
2.8875000000e+001,3.4598493176e+000,3.3600405328e+000,3.9708492022e+000,3.4564050186e+000,3.7989025369e+000,3.6816174271e+000,3.3001188585e+000,4.1671741543e+000,5.0525334053e+000,4.4857314821e+000,3.1185112534e+000,5.8531595886e+000,3.2380972597e+000,3.6976775574e+000,
2.8968750000e+001,3.4711589293e+000,3.3743584191e+000,3.9680863831e+000,3.4725124502e+000,3.8462967793e+000,3.6797596147e+000,3.3691768315e+000,4.1442533599e+000,5.0625694762e+000,4.5068278877e+000,3.1087942143e+000,5.8804909517e+000,3.2274471172e+000,3.7316944358e+000,
2.9062500000e+001,3.3203198026e+000,3.2637585570e+000,3.9481160278e+000,3.3708605344e+000,3.8089082072e+000,3.5941079064e+000,3.3891692058e+000,4.1548005682e+000,5.0580015880e+000,4.4503695615e+000,3.1584052747e+000,5.9290279975e+000,3.1446323280e+000,3.6730741507e+000,
2.9156250000e+001,3.2464069484e+000,3.2508965690e+000,3.9925422497e+000,3.3363770083e+000,3.8101914334e+000,3.4910661963e+000,3.4503191529e+000,4.1881165826e+000,5.0855719318e+000,4.3762646819e+000,3.2260251676e+000,5.9784924769e+000,3.1829253716e+000,3.6287920504e+000,
2.9250000000e+001,3.2488890973e+000,3.3373009544e+000,4.0620870809e+000,3.5008537419e+000,3.8116890793e+000,3.5649598385e+000,3.4831846952e+000,4.1958899996e+000,5.0948254641e+000,4.3126285026e+000,3.2123187165e+000,6.1973605463e+000,3.0880251411e+000,3.3991066229e+000,
2.9343750000e+001,3.2411077781e+000,3.4832056736e+000,4.0650509639e+000,3.5311690125e+000,3.8300964942e+000,3.5402835363e+000,3.4766803180e+000,4.1360845643e+000,5.0939319271e+000,4.2885183100e+000,3.1695706438e+000,6.5061737500e+000,3.1372595936e+000,3.3116893440e+000,
2.9437500000e+001,3.3679628739e+000,3.6508061651e+000,4.1888161639e+000,3.6821382253e+000,3.9138326495e+000,3.7472547697e+000,3.5267535178e+000,4.2048335975e+000,5.1191184114e+000,4.4784850417e+000,3.1276219919e+000,6.7161883170e+000,3.0895409416e+000,3.4573636103e+000,
2.9531250000e+001,3.4953062306e+000,3.6305606986e+000,4.1961392236e+000,3.6543911874e+000,3.9520934036e+000,3.7602570916e+000,3.5445825579e+000,4.2111342547e+000,5.0965097674e+000,4.6336700864e+000,3.0882900892e+000,6.7630155945e+000,3.0681236191e+000,3.5119978230e+000,
2.9625000000e+001,3.4841105143e+000,3.6156600199e+000,4.2165067003e+000,3.6861094563e+000,4.0375706569e+000,3.7651039394e+000,3.5617994120e+000,4.2836307552e+000,5.0756475770e+000,4.6105467298e+000,3.2121955060e+000,6.7512888726e+000,3.2687190852e+000,3.5229215103e+000,
2.9718750000e+001,3.5671735598e+000,3.5391077804e+000,4.1073747976e+000,3.5854759448e+000,4.0776400912e+000,3.7415221083e+000,3.4865362521e+000,4.2422424045e+000,4.1857573552e+000,4.5155113831e+000,3.1611487040e+000,6.7750898303e+000,3.3188988386e+000,3.5386845715e+000,
2.9812500000e+001,3.5635016758e+000,3.5412993836e+000,4.0983645933e+000,3.5456314483e+000,4.0944401600e+000,3.7008130131e+000,3.4683445822e+000,4.2134115593e+000,3.9652680706e+000,4.4256277925e+000,3.0524244620e+000,6.6936011901e+000,3.3033060524e+000,3.5895590856e+000,
2.9906250000e+001,3.5891461653e+000,3.5104733816e+000,3.9396061870e+000,3.5010924460e+000,4.1112767441e+000,3.7687036295e+000,3.4125863557e+000,4.1931347220e+000,3.9796186750e+000,4.3236884122e+000,3.1167723031e+000,6.6762531405e+000,3.3043408376e+000,3.5401592918e+000,
3.0000000000e+001,3.6134118209e+000,3.5432136001e+000,3.9461017622e+000,3.5042952767e+000,4.1342626010e+000,3.7996230644e+000,3.4525081824e+000,4.2437073635e+000,4.0102632500e+000,4.2633692908e+000,3.1914553044e+000,6.6579043038e+000,3.2896392295e+000,3.5848576330e+000,
3.0093750000e+001,3.6316161772e+000,3.6209489110e+000,3.9180792230e+000,3.6079709096e+000,4.1882295665e+000,3.8875394106e+000,3.4342646161e+000,4.2423336060e+000,4.0371843708e+000,4.2096550351e+000,3.1044978362e+000,6.7256979773e+000,3.2228677271e+000,3.5718924669e+000,
3.0187500000e+001,3.6440609435e+000,3.6252018470e+000,3.8367264032e+000,3.6038253892e+000,4.1689571140e+000,4.0066126199e+000,3.4214987138e+000,4.1828462907e+000,4.0054599392e+000,4.2966948868e+000,3.1469496246e+000,6.6752729379e+000,3.1764677054e+000,3.5926228439e+000,
3.0281250000e+001,3.7834053498e+000,3.5934901076e+000,3.9175130920e+000,3.6710215886e+000,4.0873219133e+000,4.0905233787e+000,3.4071256713e+000,4.2090640653e+000,3.9960255087e+000,4.4537595059e+000,3.1515424347e+000,6.3958281556e+000,3.2701167570e+000,3.6907538693e+000,
3.0375000000e+001,3.7078253685e+000,3.4444398278e+000,3.8248766170e+000,3.5383965069e+000,4.0816572365e+000,4.1101704742e+000,3.3505716137e+000,4.1920604546e+000,3.9418139326e+000,4.4110877430e+000,3.0670736430e+000,6.0097456099e+000,3.2378331123e+000,3.7168131939e+000,
3.0468750000e+001,3.7366898514e+000,3.4707813778e+000,3.8568698868e+000,3.5349986070e+000,4.2805988384e+000,4.2584061438e+000,3.4715504424e+000,4.1397422904e+000,3.9081510444e+000,4.1884579763e+000,3.0689390859e+000,6.1012099181e+000,3.3022749655e+000,3.7556045013e+000,
3.0562500000e+001,3.8457993910e+000,3.5168796826e+000,3.8432062073e+000,3.6324854314e+000,4.2869829648e+000,4.3066686063e+000,3.4973333847e+000,4.1653271837e+000,3.9015950961e+000,4.1323205877e+000,3.0950832891e+000,6.0013720830e+000,3.1776234408e+000,3.6971784401e+000,
3.0656250000e+001,3.7954033455e+000,3.6458642682e+000,3.8182443377e+000,3.6875286777e+000,4.2340003985e+000,4.3292699789e+000,3.4437782209e+000,4.1218494266e+000,3.8275541137e+000,4.1409903268e+000,2.9268797085e+000,6.0195782232e+000,3.1329262175e+000,3.6775145499e+000,
3.0750000000e+001,3.7798201917e+000,3.7122319007e+000,3.8899419164e+000,3.7538360337e+000,4.3895415842e+000,4.3454493753e+000,3.4956242068e+000,4.0754412633e+000,3.7584810548e+000,4.1997783377e+000,2.9275666159e+000,6.8211356231e+000,3.1154040818e+000,3.6378574659e+000,
3.0843750000e+001,3.7530690951e+000,3.8683648829e+000,3.9394648623e+000,3.8281693359e+000,4.3799988497e+000,4.3565733566e+000,3.5570926290e+000,4.1269566970e+000,3.7254187867e+000,4.2148406258e+000,3.0233514590e+000,7.2894002315e+000,3.2180200788e+000,3.6387051863e+000,
3.0937500000e+001,3.8929443461e+000,3.8704322922e+000,4.0055478040e+000,3.8134458711e+000,4.3748996014e+000,4.3042676327e+000,3.5793121431e+000,4.0393589907e+000,3.7490021079e+000,4.1602824110e+000,2.9775829125e+000,7.4210000989e+000,3.1574253884e+000,3.6015732906e+000,
3.1031250000e+001,3.8779258655e+000,3.8297310711e+000,4.0096685454e+000,3.7664196671e+000,4.3324379565e+000,4.2717636049e+000,3.5304139995e+000,4.0299513680e+000,3.6336399346e+000,4.1218994520e+000,2.9190580660e+000,7.4692970056e+000,3.1516186064e+000,3.5255087921e+000,
3.1125000000e+001,3.8708644294e+000,3.7530623681e+000,4.1051378418e+000,3.7434434405e+000,4.2489930378e+000,4.2122437602e+000,3.4329002071e+000,3.9592785038e+000,3.5851977995e+000,4.0780680717e+000,2.8359001843e+000,7.6936009865e+000,3.1125041078e+000,3.5544293391e+000,
3.1218750000e+001,3.7615331385e+000,3.6916052412e+000,4.1233652230e+000,3.6694217926e+000,4.1018021030e+000,4.0701246542e+000,3.3518584949e+000,3.9062807059e+000,3.5708654667e+000,3.9872423575e+000,2.8744830008e+000,7.8733555090e+000,3.0044204593e+000,3.4327454964e+000,
3.1312500000e+001,3.7267924611e+000,3.6415457642e+000,4.1106188017e+000,3.5191258743e+000,4.1243193181e+000,3.9101029257e+000,3.2642946795e+000,3.8081360538e+000,3.5938009857e+000,3.7849121415e+000,2.9069109487e+000,7.9868350756e+000,2.9517170179e+000,3.2730255226e+000,
3.1406250000e+001,3.6678748854e+000,3.6776844544e+000,4.1154181867e+000,3.5854196228e+000,4.1376991692e+000,3.8829992618e+000,3.2951652155e+000,3.8712801574e+000,3.6097740693e+000,3.9151833485e+000,3.0323773046e+000,8.1566590559e+000,3.1161753801e+000,3.3002445003e+000,
3.1500000000e+001,3.5166897524e+000,3.6192203446e+000,4.0376331905e+000,3.4283854715e+000,3.9606619721e+000,3.7046418020e+000,3.2142845742e+000,3.9303711413e+000,3.7201628107e+000,3.9112834346e+000,3.0652307449e+000,8.2579091608e+000,3.1603358006e+000,3.2148901754e+000,
3.1593750000e+001,3.4114351504e+000,3.6045216353e+000,4.0339292879e+000,3.4176133294e+000,3.8822641890e+000,3.4922948671e+000,3.1568089413e+000,3.8635949494e+000,3.6460531486e+000,3.8346526945e+000,2.9426590298e+000,8.4639642342e+000,3.1484544675e+000,3.2384943521e+000,
3.1687500000e+001,3.3551267410e+000,3.4390351101e+000,3.9254621242e+000,3.3510122207e+000,3.9062181192e+000,3.4335193547e+000,3.1905581409e+000,3.8096770028e+000,3.6906301710e+000,3.8640696893e+000,2.9310966411e+000,8.6344032976e+000,3.1368018493e+000,3.3068148427e+000,
3.1781250000e+001,3.5769769329e+000,3.4577829582e+000,3.8328354922e+000,3.3824272271e+000,3.6185138521e+000,3.6148873282e+000,3.1870423241e+000,3.8630105144e+000,3.7249484379e+000,3.8642505226e+000,2.8825967433e+000,8.6316733246e+000,3.0717852340e+000,3.3510110393e+000,
3.1875000000e+001,3.4162694188e+000,3.1750194064e+000,3.7945194426e+000,3.2202330196e+000,3.7511646642e+000,3.5507641865e+000,3.0273989894e+000,3.7908968639e+000,3.7753901913e+000,3.9309573384e+000,2.9133977571e+000,8.6472253195e+000,3.1083702756e+000,3.3371742573e+000,
3.1968750000e+001,3.4121343307e+000,3.2338393786e+000,3.8295533579e+000,3.2930204215e+000,3.8036743521e+000,3.5313506120e+000,3.0282995413e+000,3.8004932768e+000,3.8356298306e+000,3.9866159023e+000,2.9278289485e+000,8.6686690425e+000,3.1178306649e+000,3.2748472723e+000,
3.2062500000e+001,3.4428497631e+000,3.3475667899e+000,3.7906225940e+000,3.3173679826e+000,3.8393708682e+000,3.6096453193e+000,3.0438783555e+000,3.8202962260e+000,3.8604363372e+000,4.1020987790e+000,2.9545553872e+000,8.6731069829e+000,3.2172889758e+000,3.3796244718e+000,
3.2156250000e+001,3.4754698118e+000,3.3693430121e+000,3.5522187396e+000,3.3035614740e+000,3.8554150207e+000,3.6198493619e+000,3.1280193794e+000,3.8253169043e+000,3.8603020457e+000,4.1007483537e+000,2.9986456892e+000,8.6022001627e+000,3.2237101123e+000,3.3305044237e+000,
3.2250000000e+001,3.4543467921e+000,3.3228188010e+000,3.5550539810e+000,3.2354643198e+000,4.0864186828e+000,3.6733092665e+000,3.0805787004e+000,3.7661362475e+000,3.8026129492e+000,4.0352692176e+000,2.8466532068e+000,8.5446315651e+000,3.1940026662e+000,3.2830156233e+000,
3.2343750000e+001,3.5054876052e+000,3.2994891880e+000,3.7311095681e+000,3.2008821615e+000,3.9150954196e+000,3.6334364572e+000,3.0731963014e+000,3.6761583915e+000,3.7867311646e+000,4.0093293013e+000,2.9342863869e+000,8.5168714432e+000,3.1275971831e+000,3.1353496181e+000,
3.2437500000e+001,3.5613161358e+000,3.3066106319e+000,3.7341118575e+000,3.2167447972e+000,3.8939692828e+000,3.6237382254e+000,3.0696356384e+000,3.6415349264e+000,3.7950660112e+000,3.9121056589e+000,2.9534236611e+000,8.6873813861e+000,3.1145926080e+000,3.0899741751e+000,
3.2531250000e+001,3.5485184837e+000,3.1820424584e+000,3.8043711868e+000,3.1761448177e+000,3.8712406193e+000,3.6445362438e+000,3.0314132069e+000,3.5358022953e+000,3.7106622376e+000,3.9453823769e+000,2.8793450933e+000,8.6228868789e+000,2.9770323146e+000,3.0280065559e+000,
3.2625000000e+001,3.5376266304e+000,3.2641176920e+000,3.8469552456e+000,3.1747849111e+000,3.8847105793e+000,3.6906037648e+000,2.9649801314e+000,3.6674731849e+000,3.7526580726e+000,3.8881314620e+000,2.9568880378e+000,8.4449891285e+000,3.0825389663e+000,2.9301626704e+000,
3.2718750000e+001,3.3794152673e+000,3.2444787213e+000,3.8022212542e+000,3.0086736731e+000,3.8068844908e+000,3.5469410984e+000,2.8897922235e+000,3.5738868711e+000,3.6448831413e+000,3.9019357061e+000,2.8964046656e+000,8.3386606378e+000,2.9417857661e+000,2.5443681022e+000,
3.2812500000e+001,3.3269992042e+000,3.2089474516e+000,3.8932694483e+000,3.0314494048e+000,3.8259969749e+000,3.5648199763e+000,2.7861251473e+000,3.5003034315e+000,3.5783642876e+000,3.9801464342e+000,2.9573449466e+000,8.3552598240e+000,2.9954159827e+000,2.6851290101e+000,
3.2906250000e+001,3.3272110674e+000,3.2683803458e+000,3.9152989178e+000,3.1004820697e+000,3.8460571242e+000,3.6662893362e+000,2.7715520471e+000,3.7641741287e+000,3.5346362996e+000,3.9909142425e+000,2.9124524785e+000,8.2917029571e+000,3.0138677459e+000,2.8148289229e+000,
3.3000000000e+001,3.3010802780e+000,3.1566763033e+000,3.8102049492e+000,3.0257829494e+000,3.7804592441e+000,3.6518299170e+000,2.7775903769e+000,3.7532344566e+000,4.8069722626e+000,3.9755414883e+000,2.9341238067e+000,8.2430072512e+000,3.0117882519e+000,2.7962967750e+000,
3.3093750000e+001,3.2723753107e+000,3.1415917672e+000,3.8343051550e+000,3.1028897831e+000,3.8907013865e+000,3.7120242659e+000,2.8393843414e+000,3.7638030060e+000,4.9289430759e+000,3.9653918315e+000,2.9655702621e+000,8.2440943845e+000,3.1049210671e+000,2.8830277430e+000,
3.3187500000e+001,3.2211516906e+000,3.3099728170e+000,3.8954940313e+000,3.3301025141e+000,3.8069571368e+000,3.7511532502e+000,2.9398495065e+000,3.8764702970e+000,4.9274022080e+000,4.0518509440e+000,3.0307726465e+000,8.2531406814e+000,3.1550548878e+000,3.0352292129e+000,
3.3281250000e+001,3.2217787703e+000,3.4125349454e+000,3.8535788101e+000,3.4006521695e+000,3.9029847202e+000,3.7747306144e+000,3.0011568321e+000,3.9789700309e+000,4.9254354330e+000,4.1186979688e+000,3.0005195239e+000,8.2948792081e+000,3.1915198424e+000,3.1770707679e+000,
3.3375000000e+001,3.1612332299e+000,3.4704819961e+000,3.8540056108e+000,3.4750045971e+000,4.0051880683e+000,3.7749472117e+000,3.1121065664e+000,4.0521089423e+000,4.9469923853e+000,4.2521496586e+000,3.0655847624e+000,8.1625356243e+000,3.1996559319e+000,3.2336496588e+000,
3.3468750000e+001,3.1402900203e+000,3.4917740068e+000,3.8147199716e+000,3.4253013339e+000,4.0301785593e+000,3.7781831478e+000,3.1589783846e+000,4.0851984714e+000,4.9382574538e+000,4.3125910002e+000,3.0424811319e+000,8.0567461593e+000,3.2218214996e+000,3.3115110775e+000,
3.3562500000e+001,3.0457195047e+000,3.5088696055e+000,3.8697688933e+000,3.4254986444e+000,4.0384211052e+000,3.7142748753e+000,3.1930893751e+000,4.0772337889e+000,4.9589020784e+000,4.2897956356e+000,3.0817357160e+000,8.0139573839e+000,3.2219325159e+000,3.3216235048e+000,
3.3656250000e+001,3.0787406711e+000,3.4724939348e+000,3.9670907425e+000,3.4513778265e+000,4.1903488011e+000,3.6835561532e+000,3.2096327735e+000,4.0628415268e+000,4.9521203309e+000,4.3688821979e+000,3.0374440844e+000,7.8861755825e+000,3.1188768629e+000,3.3703815818e+000,
3.3750000000e+001,3.1733481357e+000,3.4866405623e+000,3.9536257904e+000,3.5112874919e+000,4.2154631015e+000,3.7342609116e+000,3.2000633664e+000,4.1625490891e+000,4.9601117344e+000,4.3024591994e+000,3.1305136083e+000,7.8116448952e+000,3.2034184324e+000,3.4016786450e+000,
3.3843750000e+001,3.1577703114e+000,3.4901795107e+000,3.9439391874e+000,3.5335286977e+000,4.1762863530e+000,3.5965418720e+000,3.2170382743e+000,4.1149613037e+000,4.9777823670e+000,4.2495263120e+000,3.1650445125e+000,7.6226175799e+000,3.1927436459e+000,3.3664593275e+000,
3.3937500000e+001,3.2522616790e+000,3.5037982916e+000,3.8971902238e+000,3.5250700210e+000,4.1136485956e+000,3.5712927905e+000,3.2131946850e+000,4.0505229760e+000,4.7151388960e+000,4.2789721070e+000,3.2373284292e+000,7.5570212011e+000,3.3197036523e+000,3.3926758022e+000,
3.4031250000e+001,3.3261652885e+000,3.5845157093e+000,3.9198035282e+000,3.5343735292e+000,4.1214269262e+000,3.5563460284e+000,3.2045110770e+000,4.1265818745e+000,3.7634032785e+000,4.3770905940e+000,3.2030623674e+000,7.4465889859e+000,3.3129319314e+000,3.4431602342e+000,
3.4125000000e+001,3.3287136370e+000,3.4501680060e+000,3.9518900873e+000,3.3196848583e+000,3.9297756819e+000,3.4983202693e+000,3.0432424458e+000,4.0751914705e+000,3.6478776298e+000,4.3750303869e+000,3.2474517412e+000,7.4136305284e+000,3.2594177088e+000,3.4137760812e+000,
3.4218750000e+001,3.3894610752e+000,3.3462384850e+000,3.9599278288e+000,3.3328707870e+000,3.8758840267e+000,3.4580872413e+000,3.0798930363e+000,4.0296422474e+000,3.6647288933e+000,4.3809535321e+000,3.1951158033e+000,7.3285981345e+000,3.2779693430e+000,3.3493582171e+000,
3.4312500000e+001,3.3923213341e+000,3.3217867143e+000,3.9477925575e+000,3.2574493280e+000,3.7857147583e+000,3.4544010449e+000,3.0684031525e+000,3.9921755654e+000,3.6549690011e+000,4.3726710158e+000,3.1240930106e+000,7.0242826059e+000,3.2389453340e+000,3.2537163768e+000,
3.4406250000e+001,3.3593526238e+000,3.2737218904e+000,3.8210652733e+000,3.2149988559e+000,3.7483023929e+000,3.4495402711e+000,2.9716435242e+000,3.9571614810e+000,3.6564506067e+000,4.2598620496e+000,2.9767128591e+000,6.9226832955e+000,3.1785156101e+000,3.2665153513e+000,
3.4500000000e+001,3.3031300628e+000,3.2446291067e+000,3.7575139781e+000,3.2175411454e+000,3.6904113919e+000,3.3649853437e+000,2.9457832877e+000,3.9748321478e+000,3.6159618422e+000,4.1834629724e+000,3.0147326358e+000,6.2433283708e+000,3.1433262738e+000,3.5208957839e+000,
3.4593750000e+001,3.4100732350e+000,3.3849500334e+000,3.7103094010e+000,3.3814633098e+000,3.7333334608e+000,3.4623507584e+000,3.0587572686e+000,4.0320198356e+000,3.5801705406e+000,4.2263185164e+000,3.0319705273e+000,6.0931313557e+000,3.2210604166e+000,3.7121067348e+000,
3.4687500000e+001,3.3738354710e+000,3.3685351354e+000,3.6422853432e+000,3.3478423320e+000,3.3891565545e+000,3.5034345024e+000,3.0898351474e+000,3.9289154810e+000,3.5540248123e+000,4.2387039768e+000,3.1163532584e+000,6.0287627033e+000,3.2646563693e+000,3.6560888826e+000,
3.4781250000e+001,3.3560549739e+000,3.3143779364e+000,3.6289814572e+000,3.2480493210e+000,3.5208172077e+000,3.3986535524e+000,3.1314381495e+000,3.9208985095e+000,3.5046456442e+000,4.2563286628e+000,3.0577193875e+000,5.8947780365e+000,3.1691419253e+000,3.6193332704e+000,
3.4875000000e+001,3.3349337608e+000,3.2870608073e+000,3.7007721015e+000,3.2426573672e+000,3.3720083251e+000,3.4454123419e+000,3.1382258805e+000,3.8577433572e+000,3.4469371328e+000,4.2921362253e+000,3.0958611418e+000,7.0954472623e+000,3.0861366649e+000,3.6606352377e+000,
3.4968750000e+001,3.1648019516e+000,3.2442511589e+000,3.8433114417e+000,3.2209269329e+000,3.3751842990e+000,3.3761175437e+000,3.1329031878e+000,3.7827946680e+000,3.5655895589e+000,4.2443723674e+000,3.0435812497e+000,7.6067358702e+000,2.8526709502e+000,3.6089761279e+000,
3.5062500000e+001,3.1062841763e+000,3.3522755477e+000,3.8317343394e+000,3.2473990841e+000,3.7365246415e+000,3.4248900234e+000,3.1406991818e+000,3.7839729510e+000,3.6506569860e+000,4.1776476006e+000,3.0833742832e+000,7.6263040697e+000,2.9262730639e+000,3.5529764265e+000,
3.5156250000e+001,3.0949542250e+000,3.5179275875e+000,3.7612748768e+000,3.2852759060e+000,4.0441004327e+000,3.5434299194e+000,3.2111867370e+000,3.8089182470e+000,3.7810136438e+000,4.2685966833e+000,3.0932745998e+000,7.6190530381e+000,2.9733888449e+000,3.6311906540e+000,
3.5250000000e+001,3.1686484071e+000,3.5500733957e+000,3.7031114813e+000,3.2811122991e+000,4.0539357160e+000,3.6068686639e+000,3.1578812951e+000,3.8061429383e+000,3.8346474163e+000,4.2381550631e+000,3.1732754084e+000,7.6035351405e+000,3.0714007553e+000,3.6483698188e+000,
3.5343750000e+001,3.2523281079e+000,3.6072772563e+000,3.6955763159e+000,3.3427850117e+000,4.0396502763e+000,3.6229058353e+000,3.1521679338e+000,3.8365388544e+000,3.7910161512e+000,4.2525809749e+000,3.1852889983e+000,7.5869536444e+000,3.0721787747e+000,3.6763252872e+000,
3.5437500000e+001,3.3477237789e+000,3.7013121192e+000,3.6710375075e+000,3.3956241008e+000,4.0201184691e+000,3.6419842387e+000,3.1463143227e+000,3.9105191834e+000,3.8472138798e+000,4.2630809728e+000,3.1939978095e+000,7.5736209741e+000,3.0922251975e+000,3.7068608357e+000,
3.5531250000e+001,3.3403330479e+000,3.7088171370e+000,3.6845834591e+000,3.3959563812e+000,4.0311749295e+000,3.6378703661e+000,3.0851870603e+000,3.8844783207e+000,3.9133412934e+000,4.2770541868e+000,3.1608315857e+000,7.5487791309e+000,3.0595045216e+000,3.3761679159e+000,
3.5625000000e+001,3.2686095659e+000,3.7207914163e+000,3.7074926572e+000,3.3233408595e+000,4.0433612002e+000,3.5847998837e+000,3.0723024375e+000,3.9569029982e+000,3.8935147791e+000,4.2053099690e+000,3.1077678308e+000,7.5364049398e+000,3.0613815240e+000,3.3853490347e+000,
3.5718750000e+001,3.2412395842e+000,3.6829507148e+000,3.7200722641e+000,3.3162682393e+000,3.9964464054e+000,3.5628911573e+000,3.0563694743e+000,4.0070125268e+000,3.9648489255e+000,4.1474264045e+000,3.1367604121e+000,7.5302337230e+000,3.1260755765e+000,3.4516009800e+000,
3.5812500000e+001,3.2384259032e+000,3.7274786453e+000,3.7532974712e+000,3.4082740473e+000,3.9999308703e+000,3.6812923737e+000,3.0437482198e+000,4.0821522633e+000,4.0572541428e+000,4.1287220978e+000,3.0571771809e+000,7.5075335858e+000,3.1365617488e+000,3.4979152738e+000,
3.5906250000e+001,3.2598712680e+000,3.6620375663e+000,3.7655586703e+000,3.4409516117e+000,4.0437168056e+000,3.7967365851e+000,3.0104259464e+000,4.1840218211e+000,4.0735606373e+000,4.0085196568e+000,2.9460852700e+000,6.6225498014e+000,3.1347189762e+000,3.4553783595e+000,
3.6000000000e+001,3.2965765495e+000,3.6571305005e+000,3.6374463525e+000,3.4150758865e+000,4.0046765653e+000,3.8381876519e+000,3.1480719711e+000,4.1700621637e+000,4.0176245351e+000,3.9715055677e+000,2.9104398989e+000,4.8036622698e+000,3.1768394882e+000,3.4680372039e+000,
3.6093750000e+001,3.2864213432e+000,3.5205024237e+000,3.5704841194e+000,3.3528604949e+000,3.5039202196e+000,3.7321223112e+000,3.1061589630e+000,4.1265746011e+000,3.8870854430e+000,3.8195824513e+000,2.6984762920e+000,4.6721922083e+000,3.0024895473e+000,3.3346228556e+000,
3.6187500000e+001,3.3626186729e+000,3.4731422055e+000,3.5916630292e+000,3.3794731874e+000,3.4416327618e+000,3.7234894636e+000,3.1329202665e+000,4.1155517462e+000,3.8865480486e+000,3.8425430676e+000,2.8239876523e+000,4.8478512994e+000,3.0374324958e+000,3.3301545089e+000,
3.6281250000e+001,3.2509223421e+000,3.4159111750e+000,3.6685661932e+000,3.3877088788e+000,3.4096328108e+000,3.7061253839e+000,3.0752196230e+000,4.1111499087e+000,3.8438123455e+000,3.8579028578e+000,2.9215586395e+000,5.0281047072e+000,3.0702314567e+000,3.3574094708e+000,
3.6375000000e+001,3.3388386185e+000,3.5328889952e+000,3.8516546878e+000,3.5423967208e+000,3.5464021228e+000,3.7734680234e+000,3.1684936764e+000,4.2061567668e+000,3.8222313951e+000,3.9796880829e+000,2.9375278895e+000,5.1331374198e+000,3.1020272967e+000,3.3249559665e+000,
3.6468750000e+001,3.2372391497e+000,3.3887509466e+000,3.9031976289e+000,3.4719794295e+000,3.6247501852e+000,3.6842142480e+000,3.1984198920e+000,4.1214368985e+000,3.8853897451e+000,4.0651327392e+000,2.8663937847e+000,5.1605185172e+000,3.1875865228e+000,3.2642781452e+000,
3.6562500000e+001,3.2803404346e+000,3.2768901249e+000,3.9955623052e+000,3.3915831796e+000,3.8024568893e+000,3.6926790723e+000,3.2498317234e+000,4.0784921854e+000,3.8384879598e+000,4.0792083957e+000,2.8475356222e+000,5.1613830049e+000,3.1813608626e+000,3.2021676146e+000,
3.6656250000e+001,3.2728289615e+000,3.1724609598e+000,3.9436959129e+000,3.4832655169e+000,3.8195253656e+000,3.8365445453e+000,3.2648139122e+000,4.1144354073e+000,3.8306941295e+000,4.2352491533e+000,2.8420571371e+000,5.1477971929e+000,3.3209296037e+000,3.3290699024e+000,
3.6750000000e+001,3.3122448538e+000,3.2342292993e+000,3.8849663806e+000,3.4625696916e+000,3.9407070412e+000,3.8122911777e+000,3.2839923645e+000,4.0537929061e+000,3.7188318242e+000,4.2460699917e+000,2.7684551930e+000,5.2087413804e+000,3.3085998375e+000,3.2858140962e+000,
3.6843750000e+001,3.2444164354e+000,3.1858953225e+000,3.8062337546e+000,3.3690319734e+000,3.9940388284e+000,3.7335680595e+000,3.3199206662e+000,3.9968316625e+000,3.7421047568e+000,4.2494594406e+000,2.9464283489e+000,5.1854125913e+000,3.2592439812e+000,3.1379101903e+000,
3.6937500000e+001,3.2495360490e+000,3.1812334628e+000,3.6935058778e+000,3.3070797834e+000,3.9849322648e+000,3.5630386363e+000,3.3394923056e+000,3.9440033889e+000,3.7504578199e+000,4.2207733006e+000,2.9644505046e+000,5.1217724821e+000,3.2348781225e+000,3.1386185737e+000,
3.7031250000e+001,3.2502366111e+000,3.1431289663e+000,3.6746832722e+000,3.3033694180e+000,4.0009284152e+000,3.5777128584e+000,3.2294560084e+000,3.9303101952e+000,3.7727497900e+000,4.2249252036e+000,2.9288032262e+000,5.0923187072e+000,3.1940072361e+000,3.1399433765e+000,
3.7125000000e+001,3.1468033677e+000,3.0753946432e+000,3.6458561252e+000,3.2377148220e+000,3.9748170292e+000,3.4804606639e+000,3.2482426047e+000,3.8887231035e+000,3.8029245510e+000,4.2115103974e+000,3.0501487359e+000,5.0461237106e+000,3.2010415423e+000,3.1826293333e+000,
3.7218750000e+001,3.1557149170e+000,3.1056849521e+000,3.5901176808e+000,3.1990107536e+000,4.0013288055e+000,3.4823976420e+000,3.2494551681e+000,3.8318682287e+000,3.7624162318e+000,4.2351683465e+000,2.9253410457e+000,5.0913989480e+000,3.2027094754e+000,3.3171205494e+000,
3.7312500000e+001,3.1361393975e+000,3.1233274912e+000,3.4136318348e+000,3.0485629574e+000,3.9440442709e+000,3.3223906483e+000,3.2206406081e+000,3.8070974679e+000,3.8938481717e+000,4.2019296053e+000,2.7141489001e+000,4.9876552639e+000,3.0933185478e+000,3.2992202102e+000,
3.7406250000e+001,2.9980116638e+000,3.0235801286e+000,3.2730372922e+000,2.9856535001e+000,3.9585815450e+000,3.2978165576e+000,3.1491618364e+000,3.7629900962e+000,4.6432081620e+000,4.1543295590e+000,2.7097793304e+000,4.9231414993e+000,3.0215496056e+000,3.2559559035e+000,
3.7500000000e+001,3.0434867085e+000,3.0732180560e+000,2.9933349098e+000,2.9392767848e+000,3.9875288445e+000,3.3258927738e+000,3.1486527491e+000,3.6979806945e+000,4.8638842210e+000,4.1352680926e+000,2.7941805387e+000,4.9826361148e+000,2.9949898371e+000,3.2323490428e+000,
3.7593750000e+001,3.0951689294e+000,3.0879364171e+000,2.7230352661e+000,2.9507485776e+000,3.8195294525e+000,3.3246569373e+000,3.0520346106e+000,3.5269547191e+000,4.8984432884e+000,4.0750430159e+000,2.7912415279e+000,4.9974961058e+000,2.8217919518e+000,3.1167866115e+000,
3.7687500000e+001,3.1841612944e+000,3.0759151506e+000,2.7046113091e+000,2.8817996770e+000,3.8132075235e+000,3.4077142431e+000,3.0091723127e+000,3.3200987123e+000,4.8972153526e+000,4.0068011676e+000,2.7957518384e+000,4.9756295143e+000,2.8576482457e+000,3.0394538126e+000,
3.7781250000e+001,3.1976970438e+000,3.0985900303e+000,2.7145728247e+000,2.9395525189e+000,3.6304425273e+000,3.3925606315e+000,2.9539331183e+000,3.4439979526e+000,4.9143560139e+000,4.0751476888e+000,2.6282326812e+000,4.9318772415e+000,2.7889048921e+000,3.0604815357e+000,
3.7875000000e+001,3.2663693629e+000,3.1803701799e+000,2.8079454850e+000,2.9755400227e+000,3.6431517116e+000,3.5092205718e+000,3.0250732320e+000,3.3233250600e+000,4.9337839045e+000,4.1379847404e+000,2.6116778306e+000,4.8472672821e+000,2.8984686851e+000,3.0797062657e+000,
3.7968750000e+001,3.2649063948e+000,3.2799704994e+000,2.9408389487e+000,3.0717783339e+000,3.6040810398e+000,3.6723894571e+000,3.0548155621e+000,3.5278664721e+000,4.9360862529e+000,4.2044412319e+000,2.6545136832e+000,4.9389002001e+000,2.9876002189e+000,3.1158411873e+000,
3.8062500000e+001,3.2835994172e+000,3.3036689095e+000,2.9509236638e+000,3.1506033637e+000,3.8919697164e+000,3.6955884467e+000,3.0401138803e+000,3.5691630372e+000,4.9104327547e+000,4.1780135763e+000,2.7312649049e+000,5.0000076415e+000,3.0366122656e+000,3.1740704688e+000,
3.8156250000e+001,3.2780535331e+000,3.3160130371e+000,2.8792711692e+000,3.1647426594e+000,3.9630827841e+000,3.7209964146e+000,2.9279267586e+000,3.6512832865e+000,4.8999004570e+000,4.2222195956e+000,2.6109122235e+000,5.0255754190e+000,3.0426840014e+000,3.1101643554e+000,
3.8250000000e+001,3.2316209571e+000,3.3111229703e+000,2.9653885457e+000,3.1803159799e+000,4.0231327760e+000,3.7621390780e+000,2.9685485059e+000,3.6156558897e+000,4.9297114179e+000,4.1545228604e+000,2.8316387815e+000,4.8886221279e+000,3.0098842933e+000,3.0592968673e+000,
3.8343750000e+001,3.2113260856e+000,3.1488642768e+000,2.9009581360e+000,3.0821480534e+000,4.0015477450e+000,3.7746168597e+000,3.1326180106e+000,3.4544838648e+000,4.6295680452e+000,4.0678881420e+000,2.8434752887e+000,5.0516128157e+000,3.0324496934e+000,2.9826421778e+000,
3.8437500000e+001,3.2022084897e+000,3.0465679089e+000,2.8903336196e+000,3.0516918697e+000,3.9115778241e+000,3.7615402781e+000,3.1559077548e+000,3.4879087915e+000,4.1150835885e+000,4.0369245994e+000,2.8532410468e+000,5.0695310969e+000,3.0577127580e+000,2.9643186431e+000,
3.8531250000e+001,3.1948933678e+000,3.0012780312e+000,2.8950628155e+000,3.0834878742e+000,3.8398930548e+000,3.7178286204e+000,3.1994860310e+000,3.6278651482e+000,3.8187165997e+000,3.9298678026e+000,2.7728734563e+000,5.1315361978e+000,2.8966574127e+000,2.8630929618e+000,
3.8625000000e+001,3.1494616604e+000,3.0102583857e+000,2.9405292095e+000,3.0300655346e+000,3.8310546103e+000,3.6386780384e+000,3.3657978649e+000,3.7847837900e+000,3.7491261407e+000,3.9599189174e+000,2.8635418027e+000,5.1341748306e+000,2.8875898602e+000,2.7284492643e+000,
3.8718750000e+001,2.9813879539e+000,2.9038506989e+000,2.8889004732e+000,2.9817383838e+000,3.9113835295e+000,3.5787792589e+000,3.3994332805e+000,3.7223585390e+000,3.7784663030e+000,3.8450124690e+000,2.8621912263e+000,5.1266948303e+000,2.7693193791e+000,2.6566893291e+000,
3.8812500000e+001,3.0053258775e+000,2.7554457545e+000,2.9221102256e+000,2.9217464599e+000,3.8779763727e+000,3.6291078872e+000,3.3748988345e+000,3.7632089211e+000,3.7317786335e+000,3.7357018145e+000,2.9062331745e+000,5.1465111844e+000,2.7720494363e+000,2.5483616561e+000,
3.8906250000e+001,2.9699088421e+000,2.8771737352e+000,2.8657197916e+000,3.0151412349e+000,3.8614039633e+000,3.5797199500e+000,3.3689704851e+000,3.7253863289e+000,3.6088910560e+000,3.6916031390e+000,2.9111410895e+000,5.2750939027e+000,2.6984009204e+000,2.6013600924e+000,
3.9000000000e+001,2.9320475557e+000,2.9370137594e+000,2.8059841746e+000,2.9219882623e+000,3.8099899446e+000,3.5694800234e+000,3.3616720018e+000,3.7194886291e+000,3.5827025373e+000,3.6070687557e+000,2.8197920806e+000,5.1516684393e+000,2.6521851297e+000,2.5123617376e+000,
3.9093750000e+001,2.8513537677e+000,3.1140320665e+000,2.9366338147e+000,2.9656384433e+000,3.4979527079e+000,3.5704047932e+000,3.4241612924e+000,3.7685238239e+000,3.6174936784e+000,3.6421339950e+000,2.9117441466e+000,5.1124958256e+000,2.6720732254e+000,2.5480432413e+000,
3.9187500000e+001,2.7481668937e+000,3.0927149436e+000,2.8904186248e+000,2.9538042412e+000,3.3624971139e+000,3.6111199740e+000,3.4265474390e+000,3.8083688829e+000,3.4970049968e+000,3.4758442986e+000,2.7889784620e+000,5.0884466333e+000,2.5124629622e+000,2.4410223566e+000,
3.9281250000e+001,2.7830420765e+000,3.1480607130e+000,2.8122121239e+000,3.0202033997e+000,3.3106643918e+000,3.6548640078e+000,3.3523326319e+000,3.8875736633e+000,3.4109816450e+000,3.7422612661e+000,2.6372219949e+000,5.2083104846e+000,2.5461328688e+000,2.3583330146e+000,
3.9375000000e+001,2.7396542877e+000,3.2411344871e+000,2.8755054736e+000,3.0593423058e+000,3.3719895672e+000,3.6873198227e+000,3.2977317797e+000,3.8918544473e+000,3.3886051521e+000,3.7792324267e+000,2.7618612221e+000,5.0954805998e+000,2.5560317454e+000,2.5832559155e+000,
3.9468750000e+001,2.7617340752e+000,3.3291802595e+000,2.8934275947e+000,3.1339340329e+000,3.5053388139e+000,3.6872531904e+000,3.2847279504e+000,3.8765799447e+000,3.4681995207e+000,3.9230563540e+000,2.7788636535e+000,5.0981943615e+000,2.6065567467e+000,2.6196858920e+000,
3.9562500000e+001,2.6725642726e+000,3.3337015588e+000,2.9705065775e+000,3.0979669313e+000,3.4902592789e+000,3.7448648720e+000,3.2399859644e+000,3.8222764478e+000,3.4804641187e+000,4.0635645048e+000,2.6226146722e+000,5.1389023639e+000,2.7081262132e+000,2.6566928931e+000,
3.9656250000e+001,2.6633043719e+000,3.3823829578e+000,2.9243475318e+000,3.1413158634e+000,3.4972671509e+000,3.7052135270e+000,3.0220772633e+000,3.9839548940e+000,3.4594673740e+000,4.0393896693e+000,2.6335458280e+000,5.1984844062e+000,2.8074125247e+000,2.7255459113e+000,
3.9750000000e+001,2.7468160296e+000,3.4700652500e+000,2.9723607236e+000,3.1870465668e+000,3.4127798419e+000,3.7203692262e+000,3.1487115242e+000,3.9455447634e+000,3.5208013952e+000,4.0456658304e+000,2.7264951773e+000,5.2519686069e+000,2.9174347868e+000,2.8194780506e+000,
3.9843750000e+001,2.6897902504e+000,3.4855413330e+000,3.0496320499e+000,3.1377326741e+000,3.3930351820e+000,3.6849102533e+000,3.0913278550e+000,3.9288519916e+000,3.5395190616e+000,4.0643857236e+000,2.7860235625e+000,5.2026796660e+000,2.9521730633e+000,2.9700198581e+000,
3.9937500000e+001,2.8985390470e+000,3.4888293797e+000,3.3366488017e+000,3.1839447213e+000,3.4977499376e+000,3.7614849740e+000,3.2023948709e+000,3.9947871704e+000,3.5739542388e+000,4.0919182675e+000,2.8222671919e+000,5.1987352089e+000,3.0477407757e+000,3.3687021552e+000,
4.0031250000e+001,2.8674586795e+000,3.3826078735e+000,3.4161890343e+000,3.1052542208e+000,3.5443197586e+000,3.6707501057e+000,3.2671268568e+000,3.9618862941e+000,3.5690115865e+000,4.1116751648e+000,2.8022297995e+000,5.2579130214e+000,3.0213693308e+000,3.2920555253e+000,
4.0125000000e+001,2.9572359641e+000,3.3901998367e+000,3.3729644255e+000,3.0841202144e+000,3.5526986031e+000,3.6329735219e+000,3.1489478784e+000,3.9508314013e+000,3.5371208799e+000,4.1793468097e+000,2.9062511406e+000,5.4250978660e+000,2.8726490014e+000,3.2371355646e+000,
4.0218750000e+001,3.0270126350e+000,3.3179550204e+000,3.3434738176e+000,3.0425938456e+000,3.5541894492e+000,3.5400155297e+000,3.1620953571e+000,3.9033442724e+000,3.5903939082e+000,4.1977369815e+000,2.9179253850e+000,5.3571195791e+000,2.8952185896e+000,3.2874299309e+000,
4.0312500000e+001,3.1152423246e+000,3.2950624998e+000,3.3626323119e+000,3.0102013429e+000,3.6536429110e+000,3.5460125802e+000,3.1871382516e+000,3.8763242159e+000,3.6187365996e+000,4.0071550322e+000,3.0435582855e+000,5.3656264399e+000,2.9281987369e+000,3.2954702590e+000,
4.0406250000e+001,3.1648123980e+000,3.3079643976e+000,3.3477476508e+000,3.0395436380e+000,3.6698576251e+000,3.5951285676e+000,3.0260828448e+000,3.8970357834e+000,3.5514340803e+000,4.0438226712e+000,2.9957586306e+000,5.4705115229e+000,2.9076860130e+000,3.2802513824e+000,
4.0500000000e+001,3.2165784851e+000,3.2406494583e+000,3.3648906336e+000,2.9997884164e+000,3.5553866300e+000,3.6447424609e+000,2.9892722378e+000,3.9680477857e+000,3.5415223227e+000,3.9731201366e+000,3.0322619595e+000,5.4524903751e+000,2.9879739203e+000,3.3553917121e+000,
4.0593750000e+001,3.3005698602e+000,3.3958659192e+000,3.3895925422e+000,3.2400759755e+000,3.7237806290e+000,3.6961381405e+000,3.1605582320e+000,4.0157339737e+000,3.6308827994e+000,4.0331079015e+000,3.1693963995e+000,5.5459467936e+000,3.0224671518e+000,3.6169369865e+000,
4.0687500000e+001,3.3274063178e+000,3.3099066955e+000,3.4574047373e+000,3.1572800832e+000,3.8029250145e+000,3.7251891984e+000,3.2657913301e+000,3.9191106378e+000,3.7867622776e+000,3.9973968147e+000,3.2339329996e+000,5.5447620584e+000,3.0453741808e+000,3.6019867852e+000,
4.0781250000e+001,3.3506219683e+000,3.2761401745e+000,3.3822486497e+000,3.1401091617e+000,3.7576313868e+000,3.7491205578e+000,3.2077823320e+000,3.9232378422e+000,3.6666204558e+000,4.0363674757e+000,3.2091777706e+000,5.5873653847e+000,3.0803906187e+000,3.6865709385e+000,
4.0875000000e+001,3.2820823480e+000,3.1967403238e+000,3.2737396355e+000,3.2415269368e+000,3.7124739556e+000,3.8256195614e+000,3.2033240768e+000,4.0469715699e+000,3.7222052555e+000,4.0738223764e+000,3.1801399163e+000,5.5888611025e+000,3.2237514242e+000,3.6985752839e+000,
4.0968750000e+001,3.2355898743e+000,3.2632426945e+000,2.9475164510e+000,3.2035278226e+000,3.8235962223e+000,3.8605445837e+000,3.1350343359e+000,4.0270047634e+000,3.7073939850e+000,4.1996687783e+000,3.1328917842e+000,5.6549072500e+000,3.2147947505e+000,3.5761450966e+000,
4.1062500000e+001,3.2824332234e+000,3.2675888405e+000,2.8890309006e+000,3.2321840978e+000,3.8407040401e+000,3.8375173638e+000,3.0994530339e+000,4.0347016989e+000,3.7232912361e+000,4.1931303107e+000,3.0478796887e+000,5.6709914851e+000,3.2300954927e+000,3.6216918390e+000,
4.1156250000e+001,3.2822237014e+000,3.3813108366e+000,2.9039166467e+000,3.3044756550e+000,3.8880752097e+000,3.8295606487e+000,3.1300622949e+000,4.1251220872e+000,3.7051170245e+000,4.1454497270e+000,3.0419575277e+000,5.6640944683e+000,3.2831501911e+000,3.6615473800e+000,
