Time (s),AF3,AF4,F3,F4,F7,F8,FC5,FC6,T7,T8,P7,P8,O1,O2,Sampling Rate
0.0000000000e+000,3.5993930870e+000,3.5801578559e+000,3.1136693949e+000,3.8884512005e+000,3.6869288576e+000,3.5474226931e+000,3.2061390263e+000,3.3893720600e+000,3.0463985411e+000,5.2336885533e+000,2.4366855638e+000,3.7325566589e+000,3.1745798015e+000,4.3515294830e+000,1
9.3750000000e-002,3.4422451988e+000,3.4235366190e+000,3.2296205258e+000,3.8553404675e+000,3.6869779201e+000,3.4865465018e+000,3.2517442598e+000,3.3564138080e+000,3.0943313437e+000,5.1677794506e+000,2.4596291478e+000,3.5775244717e+000,3.1192657276e+000,4.0693990315e+000,
1.8750000000e-001,3.3906395735e+000,3.4825558784e+000,3.2909255246e+000,3.9051218678e+000,3.6446665595e+000,3.4401512481e+000,3.3301603408e+000,3.3941470783e+000,3.1430032751e+000,5.1751673455e+000,2.4418265071e+000,3.5506647989e+000,3.1254012001e+000,4.1278339328e+000,
2.8125000000e-001,3.4596625699e+000,3.5426877963e+000,3.2332618985e+000,3.9138082533e+000,3.7264032309e+000,3.5335249153e+000,3.3599186080e+000,3.4358151798e+000,3.1030617416e+000,5.1876581481e+000,2.4524521768e+000,3.6298276503e+000,3.0099070912e+000,4.1441588060e+000,
3.7500000000e-001,3.3215239577e+000,3.3498970945e+000,3.1354436902e+000,3.7329204731e+000,3.6335706962e+000,3.4736850626e+000,3.2307647148e+000,3.3373106607e+000,3.0379262640e+000,5.1863965106e+000,2.3320123029e+000,3.6145174688e+000,3.0333882848e+000,4.2091046132e+000,
4.6875000000e-001,3.2385157477e+000,3.1774241536e+000,3.1141884965e+000,3.6138963087e+000,3.5559532855e+000,3.3573696860e+000,3.1438573116e+000,3.2535338587e+000,2.8856709662e+000,6.5428257342e+000,2.3568195109e+000,3.5968119586e+000,3.1309669040e+000,4.1496779456e+000,
5.6250000000e-001,3.2523627326e+000,3.1552319033e+000,3.1245791905e+000,3.6042579053e+000,3.4805650421e+000,3.3701493194e+000,3.1373549869e+000,3.2422631034e+000,2.8988689846e+000,6.6298115382e+000,2.3815890035e+000,3.5930462916e+000,3.1417400103e+000,4.1376434792e+000,
6.5625000000e-001,3.1460750317e+000,3.0512043974e+000,3.0424047861e+000,3.5400055541e+000,3.4463987885e+000,3.3655128105e+000,3.1148350097e+000,3.1655268511e+000,2.8788661302e+000,6.6266680171e+000,2.2263546740e+000,3.5067749023e+000,3.1303881007e+000,4.0645334222e+000,
7.5000000000e-001,3.2720023314e+000,3.1988280833e+000,3.1463500174e+000,3.6194774114e+000,3.4693979012e+000,3.4265226637e+000,3.1597675479e+000,3.1938952470e+000,2.9595537190e+000,6.5387675981e+000,2.1049354005e+000,3.5499983415e+000,3.0922419374e+000,4.1973736144e+000,
8.4375000000e-001,3.2057431688e+000,3.2574798643e+000,3.1901031351e+000,3.6884798695e+000,3.4202301038e+000,3.5244139064e+000,3.1373556123e+000,3.2380887156e+000,2.9425943950e+000,6.8471032007e+000,2.2592408022e+000,3.6524714255e+000,3.0966643801e+000,4.2349969916e+000,
9.3750000000e-001,3.3292842346e+000,3.3487556248e+000,3.1868266383e+000,3.6838547300e+000,3.4723186980e+000,3.5669017131e+000,3.0497090303e+000,3.2605868433e+000,2.9856126295e+000,6.8652839265e+000,2.6323134804e+000,3.6860831989e+000,3.1626332409e+000,4.2858697298e+000,
1.0312500000e+000,3.3392117488e+000,3.3639089793e+000,3.0364832453e+000,3.6007241548e+000,3.4931317572e+000,3.5648739778e+000,2.9257017307e+000,3.2363636582e+000,2.9284359556e+000,6.9250506944e+000,2.6425993079e+000,3.8175492721e+000,3.2132691927e+000,4.2772962339e+000,
1.1250000000e+000,3.2654323291e+000,3.2885923383e+000,2.8056387965e+000,3.3394230357e+000,3.4923577088e+000,3.4956140172e+000,2.7155343658e+000,3.0069420937e+000,2.7607514346e+000,7.0235902466e+000,2.8087911728e+000,3.7877253418e+000,3.2990055729e+000,4.2347386551e+000,
1.2187500000e+000,3.2654336967e+000,3.2392276747e+000,2.8265016661e+000,3.2641004579e+000,3.4975822166e+000,3.4498336854e+000,2.6172333275e+000,2.9563461114e+000,2.7193029707e+000,7.0332851536e+000,2.9328656720e+000,3.7514646525e+000,3.2861771359e+000,4.2575684157e+000,
1.3125000000e+000,3.1296410233e+000,3.2762306317e+000,2.7946067036e+000,3.1949627516e+000,3.3547484393e+000,3.3547893228e+000,2.5788655709e+000,2.9022704944e+000,2.6346406079e+000,7.0279377566e+000,2.9296674798e+000,3.6952417030e+000,3.2625331040e+000,4.2571334616e+000,
1.4062500000e+000,3.2193375167e+000,3.3298939264e+000,2.8878333360e+000,3.2950058393e+000,3.6030609480e+000,3.4483429171e+000,2.7120549602e+000,2.9533363916e+000,2.7113495656e+000,6.9701925952e+000,2.8904309960e+000,3.7582566063e+000,3.1615951532e+000,4.2488766656e+000,
1.5000000000e+000,3.2134459492e+000,3.3269396806e+000,2.8612079787e+000,3.3229895209e+000,3.6017645164e+000,3.4425433933e+000,2.7025400951e+000,2.9374371153e+000,2.7214423370e+000,6.3568273720e+000,2.8966445630e+000,3.7686705833e+000,3.0843860288e+000,4.2377355352e+000,
1.5937500000e+000,3.2585740788e+000,3.4425046108e+000,2.9081105318e+000,3.4363971133e+000,3.6815978238e+000,3.4911508536e+000,2.7816515802e+000,3.0505981528e+000,2.7100780031e+000,6.3205408444e+000,2.9862146384e+000,3.8455168208e+000,3.1399390455e+000,4.2613507747e+000,
1.6875000000e+000,3.2234396862e+000,3.3782411887e+000,2.8499624276e+000,3.3611155923e+000,3.7710952641e+000,3.5072246366e+000,2.8322322132e+000,3.0834703055e+000,2.6330213849e+000,6.3271235982e+000,2.9684941325e+000,3.7584807674e+000,3.1599662559e+000,4.2327069952e+000,
1.7812500000e+000,3.3482142374e+000,3.4670752539e+000,2.9603796615e+000,3.4820772393e+000,3.8632996185e+000,3.5162119532e+000,2.9201185619e+000,3.1740355744e+000,2.6798160106e+000,6.0758281451e+000,2.9668604132e+000,3.7473473714e+000,3.1376555908e+000,4.1941751037e+000,
1.8750000000e+000,3.4022235923e+000,3.5032270633e+000,2.8820081499e+000,3.4326294386e+000,3.9012974309e+000,3.6151109012e+000,2.9507077598e+000,3.3030423262e+000,2.7054476414e+000,5.6450479754e+000,2.9038909599e+000,3.6911588520e+000,3.1416608308e+000,4.1298826898e+000,
1.9687500000e+000,3.2729353024e+000,3.3883371525e+000,2.8135792630e+000,3.3806415208e+000,3.8352215667e+000,3.5404675032e+000,2.9815353461e+000,3.2782862661e+000,2.6659229795e+000,5.5832970799e+000,2.6937365178e+000,3.7369936545e+000,3.1604891525e+000,4.2497114307e+000,
2.0625000000e+000,3.5741405931e+000,3.5982957509e+000,3.1310589919e+000,3.6866825704e+000,3.9532967122e+000,3.5845043610e+000,3.1425810145e+000,3.3059899455e+000,2.6596402977e+000,4.8423871427e+000,2.6934063169e+000,3.5979334696e+000,3.1674659332e+000,4.2796262058e+000,
2.1562500000e+000,3.5792989641e+000,3.6013660733e+000,3.1788495914e+000,3.6947309074e+000,3.9054763766e+000,3.5886950351e+000,3.1225002689e+000,3.3111761593e+000,2.6522944172e+000,4.3070021596e+000,2.5186675666e+000,3.6207902055e+000,3.0930007917e+000,4.3322550855e+000,
2.2500000000e+000,3.5290975031e+000,3.5243317380e+000,3.1511260530e+000,3.6675142454e+000,3.8713161911e+000,3.5898241709e+000,3.1185851575e+000,3.2775197256e+000,2.7029726029e+000,4.2580603963e+000,2.3786563662e+000,3.5647276096e+000,3.0740943333e+000,4.2126042465e+000,
2.3437500000e+000,3.5403961168e+000,3.4981342195e+000,3.2321957965e+000,3.6943807259e+000,3.8353557106e+000,3.5909211773e+000,3.1055596754e+000,3.3214759853e+000,2.7298178259e+000,4.4009582941e+000,2.4854294139e+000,3.7859982627e+000,3.1427906429e+000,4.3405203314e+000,
2.4375000000e+000,3.6101639353e+000,3.6084427025e+000,3.3348049365e+000,3.7765571515e+000,3.7550724186e+000,3.5976682855e+000,3.1158628623e+000,3.3805976009e+000,2.8359732101e+000,4.5107360599e+000,2.5189943859e+000,3.8417354496e+000,3.1958677655e+000,4.3625289818e+000,
2.5312500000e+000,3.6083664610e+000,3.6926178636e+000,3.4401183402e+000,3.8452889825e+000,3.7354680501e+000,3.6937311188e+000,3.1262042976e+000,3.4088131619e+000,2.9729786042e+000,4.3989903477e+000,2.5889407805e+000,3.8134209462e+000,3.2228614793e+000,4.4596819405e+000,
2.6250000000e+000,3.6130189882e+000,3.8153790913e+000,3.4854275778e+000,3.8344437113e+000,3.6101182565e+000,3.7157212424e+000,3.0963101718e+000,3.3583404740e+000,3.1280802353e+000,4.3463119866e+000,2.7417582292e+000,3.7401551756e+000,3.2461245789e+000,4.4323269256e+000,
2.7187500000e+000,3.6332273032e+000,3.8250434086e+000,3.5220761646e+000,3.8899821465e+000,3.5463656945e+000,3.7501845058e+000,3.0899592632e+000,3.3455701852e+000,3.1582784074e+000,4.3283157374e+000,3.3777525686e+000,4.1368775646e+000,3.3349439066e+000,4.5562858202e+000,
2.8125000000e+000,3.6168826256e+000,3.7908753148e+000,3.5687411680e+000,3.8914556179e+000,3.5323627060e+000,3.6763724889e+000,3.0836921208e+000,3.1978106724e+000,3.1410006293e+000,4.3341248327e+000,3.4123546170e+000,4.2149454992e+000,3.3434632341e+000,4.5760038115e+000,
2.9062500000e+000,3.6055295404e+000,3.8060373351e+000,3.5837926512e+000,3.9157130349e+000,3.4823913011e+000,3.5827908757e+000,3.0571338749e+000,3.1274806699e+000,3.1474727823e+000,4.3580189058e+000,3.5298112806e+000,4.3441311583e+000,3.2881399905e+000,4.6195570187e+000,
3.0000000000e+000,3.5271531114e+000,3.7266725786e+000,3.5696394048e+000,3.8631692849e+000,3.4271494903e+000,3.5269237823e+000,3.0227036448e+000,3.1215607629e+000,3.1531043764e+000,4.3542074298e+000,3.5782027324e+000,4.3452683410e+000,3.3560820758e+000,4.5224602546e+000,
3.0937500000e+000,3.2072451198e+000,3.6123435346e+000,3.3313825426e+000,3.6641489505e+000,3.1030637917e+000,3.4736910503e+000,2.8359627592e+000,3.0869585406e+000,3.1602859851e+000,4.3860939213e+000,3.6496737846e+000,4.4008921592e+000,3.3865730199e+000,4.5226343460e+000,
3.1875000000e+000,3.3135874987e+000,3.6336976392e+000,3.3877203727e+000,3.7089262398e+000,3.1205581203e+000,3.4180776733e+000,2.9612571825e+000,3.0778341210e+000,3.1489468913e+000,4.3703448629e+000,3.6935544206e+000,4.4258797833e+000,3.4743290943e+000,4.5444803755e+000,
3.2812500000e+000,3.3549671984e+000,3.6971852516e+000,3.4540359730e+000,3.7438172064e+000,3.1636360485e+000,3.5235621305e+000,3.0906459037e+000,3.1774541543e+000,3.1450591256e+000,4.3567198542e+000,3.7399846219e+000,4.4316250801e+000,3.5442131203e+000,4.6245449908e+000,
3.3750000000e+000,3.1955498456e+000,3.6110240823e+000,3.2315081078e+000,3.6396181963e+000,3.0784865676e+000,3.4880519712e+000,3.0064061989e+000,3.0582690964e+000,3.0706600363e+000,4.1095730996e+000,3.7670241203e+000,4.3808815017e+000,3.5477032837e+000,4.6219211107e+000,
3.4687500000e+000,3.2799677390e+000,3.5830212425e+000,3.1886946438e+000,3.5689699965e+000,3.1596530324e+000,3.4700953760e+000,3.0759519969e+000,3.0211890647e+000,3.1375080205e+000,4.0252854505e+000,3.7704065097e+000,4.3849422647e+000,3.4799740208e+000,4.6400222642e+000,
3.5625000000e+000,3.3172067476e+000,3.5243421966e+000,3.0985971447e+000,3.5524137678e+000,3.1970680833e+000,3.3622469230e+000,3.0763911334e+000,3.0136434981e+000,2.9967036946e+000,4.1440200435e+000,3.7934919340e+000,4.4259694230e+000,3.4494087262e+000,4.5496490917e+000,
3.6562500000e+000,3.2528808330e+000,3.2595985325e+000,3.0978686134e+000,3.5160122398e+000,3.2211012433e+000,3.2108535053e+000,3.0492051167e+000,2.9880471334e+000,2.7660584921e+000,4.1859442607e+000,3.5593609171e+000,4.3478395088e+000,3.4084524622e+000,4.4626495848e+000,
3.7500000000e+000,3.2626368497e+000,3.2635333626e+000,3.1667188042e+000,3.5055994813e+000,3.1236567512e+000,3.2170430782e+000,3.0310803021e+000,3.0556305781e+000,2.8098723252e+000,4.0868911417e+000,3.2637800454e+000,4.1291242211e+000,3.4733800653e+000,4.3480289373e+000,
3.8437500000e+000,3.4301551493e+000,3.3353296688e+000,3.2914670230e+000,3.5794833344e+000,3.2911712793e+000,3.2567604352e+000,3.1307092028e+000,3.1209895540e+000,2.8377951922e+000,4.1273360697e+000,3.2541631785e+000,4.0535875494e+000,3.6165439684e+000,4.3307077402e+000,
3.9375000000e+000,3.5531553154e+000,3.3930956375e+000,3.4838726602e+000,3.5828549419e+000,3.3778395545e+000,3.3230635451e+000,3.2158925212e+000,3.1015618193e+000,2.8099903431e+000,4.0375921985e+000,3.1251948744e+000,3.8951295722e+000,3.5678335180e+000,4.2678072889e+000,
4.0312500000e+000,3.5660768563e+000,3.3394500783e+000,3.5222841503e+000,3.5838772045e+000,3.3791815967e+000,3.3221474901e+000,3.2524557394e+000,3.0423876253e+000,2.7587438124e+000,4.0119140409e+000,3.0336845126e+000,3.7882479726e+000,3.5153886622e+000,4.2750879118e+000,
4.1250000000e+000,3.5872801653e+000,3.3128395002e+000,3.5228047435e+000,3.5711116150e+000,3.4586126915e+000,3.3315884056e+000,3.3002248864e+000,3.0510676444e+000,2.9113799897e+000,4.2905635331e+000,2.9341975493e+000,3.8800754628e+000,3.5144377672e+000,4.1904428010e+000,
4.2187500000e+000,3.6332195761e+000,3.3176996742e+000,3.5644797367e+000,3.6073477847e+000,3.4964172895e+000,3.3365802860e+000,3.2607969400e+000,3.0931339193e+000,2.9977088542e+000,4.3861003841e+000,2.8842476263e+000,3.9074202469e+000,3.5959880227e+000,4.2610954020e+000,
4.3125000000e+000,3.6620707712e+000,3.2410710565e+000,3.5445861502e+000,3.5807601812e+000,3.5392939395e+000,3.2499517511e+000,3.2948463228e+000,3.0193515504e+000,2.9925806631e+000,4.4160032366e+000,2.7160770612e+000,3.9045093513e+000,3.6175789376e+000,4.1277634318e+000,
4.4062500000e+000,3.6604364937e+000,3.2104174710e+000,3.5528445615e+000,3.5800023532e+000,3.5348314751e+000,3.3379535953e+000,3.2829390802e+000,3.0857177996e+000,2.9817632117e+000,4.5745008855e+000,2.7275775569e+000,3.8692226893e+000,3.5907821757e+000,4.1669909839e+000,
4.5000000000e+000,3.6319273650e+000,3.3480433040e+000,3.6426159869e+000,3.8428590712e+000,3.7192719939e+000,3.5649846631e+000,3.2501490924e+000,3.3259987455e+000,3.0883369317e+000,4.6979109823e+000,2.6759644613e+000,3.9295672118e+000,3.6489422871e+000,4.2030308381e+000,
4.5937500000e+000,3.6312266469e+000,3.4531573864e+000,3.7378754715e+000,4.0843691309e+000,3.8074124342e+000,3.8141030553e+000,3.2350843536e+000,3.5306817422e+000,3.1179431574e+000,4.6420299273e+000,2.5215074106e+000,4.0244868221e+000,3.6627513873e+000,4.2116064621e+000,
4.6875000000e+000,3.6291870321e+000,3.4481346048e+000,3.7227606462e+000,4.0645381931e+000,3.8272854778e+000,3.8249349034e+000,3.2344143025e+000,3.5069494146e+000,3.1386071180e+000,4.6222503586e+000,2.5375561934e+000,4.0308030389e+000,3.5634102349e+000,4.1710372913e+000,
4.7812500000e+000,3.6954658492e+000,3.5794915571e+000,3.6508497670e+000,4.1040746450e+000,3.8381559268e+000,3.9781136921e+000,3.1942470916e+000,3.6088857426e+000,3.1413454188e+000,4.7006719495e+000,2.6357284507e+000,4.0448883172e+000,3.5451985763e+000,4.2182128887e+000,
4.8750000000e+000,3.5978528682e+000,3.5439267700e+000,3.5149742869e+000,4.0626416743e+000,3.8788844464e+000,4.0087917673e+000,3.1944578951e+000,3.6178204862e+000,3.2214462872e+000,4.7218741805e+000,2.4990941449e+000,4.0730343560e+000,3.4470035544e+000,4.2253235651e+000,
4.9687500000e+000,3.6632817606e+000,3.5326424080e+000,3.5088133210e+000,4.1384126131e+000,3.9350212688e+000,4.0799685388e+000,3.1609730846e+000,3.7163420900e+000,3.2692891281e+000,4.8471346080e+000,2.6798550576e+000,4.1917039879e+000,3.5670966463e+000,4.2846496453e+000,
5.0625000000e+000,3.6640737165e+000,3.5534510810e+000,3.4980268937e+000,4.1519886753e+000,3.9340304176e+000,4.0548283450e+000,3.1126378869e+000,3.6900273528e+000,3.2101237513e+000,4.8356916003e+000,2.6474479320e+000,4.1985357122e+000,3.5817857064e+000,4.2769501980e+000,
5.1562500000e+000,3.7715086894e+000,3.7022613017e+000,3.5543507231e+000,4.1841728715e+000,3.9985996455e+000,4.1811016740e+000,3.2192298516e+000,3.7308573449e+000,3.2186792930e+000,4.7059077899e+000,2.5277318930e+000,4.1225951433e+000,3.6014722056e+000,4.4059334602e+000,
5.2500000000e+000,3.8117975664e+000,3.8077106057e+000,3.5155354011e+000,4.1739928074e+000,3.9992494991e+000,4.2272769902e+000,3.2400572573e+000,3.7686330989e+000,3.1432989771e+000,4.6867707525e+000,2.5917769365e+000,4.0677082455e+000,3.4912411325e+000,4.2818404989e+000,
5.3437500000e+000,3.9023390398e+000,3.7928898232e+000,3.5971243886e+000,4.1756197126e+000,4.1112994679e+000,4.1755413071e+000,3.2681499057e+000,3.7199065702e+000,3.1660266800e+000,4.5709641151e+000,2.6678083269e+000,3.9973509521e+000,3.4160037408e+000,4.1821137874e+000,
5.4375000000e+000,3.8959498204e+000,3.8368164767e+000,3.5613889894e+000,4.1779111553e+000,4.1718686249e+000,4.1720353206e+000,3.3166449850e+000,3.7092071931e+000,3.1392242651e+000,4.5241531827e+000,2.6352803889e+000,4.0532977748e+000,3.4252318895e+000,4.2033899671e+000,
5.5312500000e+000,4.0886183586e+000,3.8435902791e+000,3.6332611446e+000,3.9436726042e+000,4.2305950627e+000,4.0272159642e+000,3.5440221695e+000,3.5218981633e+000,3.1476012188e+000,4.3537890268e+000,2.6644199159e+000,3.8939502845e+000,3.4479836017e+000,4.2566983509e+000,
5.6250000000e+000,4.1073156667e+000,3.8114269726e+000,3.5707818055e+000,3.7845521331e+000,4.2160287404e+000,3.8708037764e+000,3.5783440068e+000,3.3500987059e+000,3.2281676569e+000,4.3281995085e+000,2.8439118421e+000,3.9104519976e+000,3.5502134845e+000,4.4031662186e+000,
5.7187500000e+000,4.1794415563e+000,3.9164842338e+000,3.5516486335e+000,3.8240767757e+000,4.4277791787e+000,3.8881878909e+000,3.6788095705e+000,3.4153471398e+000,3.2783091138e+000,4.4646173823e+000,2.7969042239e+000,4.0474688673e+000,3.5468513344e+000,4.5541801744e+000,
5.8125000000e+000,4.4628022919e+000,3.9267289419e+000,3.6345151462e+000,3.7756688252e+000,4.8281062959e+000,3.8501612877e+000,3.8789712486e+000,3.3416541390e+000,3.3591840801e+000,4.4178548261e+000,2.7233651600e+000,4.0710965738e+000,3.5453458318e+000,4.5636920722e+000,
5.9062500000e+000,4.4687724605e+000,3.9932282640e+000,3.6590763692e+000,3.7716583136e+000,4.8097762843e+000,3.9212387747e+000,3.8745178862e+000,3.3368000739e+000,3.2629312080e+000,4.4412297022e+000,2.9008344662e+000,3.9915729201e+000,3.6146515666e+000,4.6308459346e+000,
6.0000000000e+000,4.4176458683e+000,3.9993480525e+000,3.6147985820e+000,3.6797271248e+000,4.7889961775e+000,3.8881447463e+000,3.8583796176e+000,3.2491318904e+000,3.2333535511e+000,4.2398159187e+000,3.0028864264e+000,4.0242873725e+000,3.5176059914e+000,4.6791858011e+000,
6.0937500000e+000,4.4537167307e+000,3.9635527398e+000,3.6249938641e+000,3.7021514270e+000,4.7942083372e+000,3.8687320144e+000,3.8620947193e+000,3.2839033556e+000,3.2415445858e+000,4.2602208000e+000,3.0640119987e+000,4.0425691551e+000,3.5798087920e+000,4.7182653570e+000,
6.1875000000e+000,4.3600606686e+000,3.8557411585e+000,3.5740959708e+000,3.6520348822e+000,4.7510172967e+000,3.7693035993e+000,3.7903212495e+000,3.1895546079e+000,3.1733352729e+000,4.2023714960e+000,3.1173873673e+000,3.9791679555e+000,3.5103092555e+000,4.6408556451e+000,
6.2812500000e+000,4.3280713404e+000,3.8686735085e+000,3.6196878125e+000,3.7339187506e+000,4.7664749505e+000,3.8332500471e+000,3.8390817981e+000,3.2681622572e+000,3.3516189304e+000,4.2889151744e+000,3.2024198929e+000,4.0094039017e+000,3.5206040141e+000,4.6988625017e+000,
6.3750000000e+000,4.2805369234e+000,3.8944655255e+000,3.5532728585e+000,3.7575776076e+000,4.7053617681e+000,3.8413654766e+000,3.7783858249e+000,3.3920057359e+000,3.3267180825e+000,4.3964449493e+000,3.1634533882e+000,4.0251469184e+000,3.4892385344e+000,4.7229086535e+000,
6.4687500000e+000,4.2653270828e+000,3.8597925853e+000,3.5739456594e+000,3.7473740884e+000,4.6730751983e+000,3.8173260964e+000,3.7255582327e+000,3.3461190602e+000,3.3272802674e+000,4.3746653781e+000,3.2542299699e+000,4.0369514431e+000,3.5271558008e+000,4.8316011124e+000,
6.5625000000e+000,4.2473000231e+000,3.8710515266e+000,3.4832936623e+000,3.7857767427e+000,4.6183174763e+000,3.8983164835e+000,3.6304598332e+000,3.4139388489e+000,3.3013360551e+000,4.4752851176e+000,3.2617724069e+000,4.0242889410e+000,3.3890314168e+000,4.7365772263e+000,
6.6562500000e+000,4.3239682340e+000,3.9154631957e+000,3.6521706498e+000,3.8915560793e+000,4.6258996206e+000,3.9357243513e+000,3.6651138839e+000,3.4318601393e+000,3.2106068779e+000,4.4674482062e+000,3.2724225891e+000,4.0406939056e+000,3.3460383697e+000,4.7182207726e+000,
6.7500000000e+000,4.1280564237e+000,3.8633602693e+000,3.6673245148e+000,3.8692758878e+000,4.2439696755e+000,3.9314383596e+000,3.4516741118e+000,3.4141303278e+000,3.0736253780e+000,6.8189200535e+000,3.2797209683e+000,4.0770632153e+000,3.2660679585e+000,4.7287462604e+000,
6.8437500000e+000,3.8374566112e+000,3.8094337179e+000,3.6460841381e+000,3.9020467801e+000,3.7018743302e+000,3.8228158265e+000,3.2665761245e+000,3.4337732716e+000,3.1391682138e+000,7.4033342806e+000,3.2909651162e+000,4.1285400861e+000,3.2612768194e+000,4.7529266357e+000,
6.9375000000e+000,3.8553513705e+000,3.7504499715e+000,3.6920843510e+000,4.0387913952e+000,3.7569249190e+000,3.9037033683e+000,3.3887465686e+000,3.5752926375e+000,3.4595087198e+000,7.4707347705e+000,3.1591214567e+000,4.4153152800e+000,3.4044486807e+000,4.8657186733e+000,
7.0312500000e+000,3.8229611251e+000,3.7266065306e+000,3.7025648487e+000,4.0571898265e+000,3.7117812263e+000,3.8769284717e+000,3.3877200919e+000,3.6134792760e+000,3.5315346382e+000,7.4728012176e+000,3.1684166927e+000,4.3862544647e+000,3.3646668994e+000,4.8337128175e+000,
7.1250000000e+000,3.7816678932e+000,3.7394864513e+000,3.6826663308e+000,4.0692770452e+000,3.7004021415e+000,3.9012800468e+000,3.3320233620e+000,3.6612704449e+000,3.5531416449e+000,7.4821065017e+000,3.1878427026e+000,4.4819888604e+000,3.3527437176e+000,4.8714415398e+000,
7.2187500000e+000,3.8060757559e+000,3.7363772104e+000,3.6704005365e+000,4.0512829231e+000,3.6666492431e+000,3.8570118644e+000,3.3039426302e+000,3.6513037998e+000,3.4965386997e+000,7.4823777040e+000,3.0712502357e+000,4.5073769680e+000,3.2833373043e+000,4.8466556840e+000,
7.3125000000e+000,3.8160712205e+000,3.6931176197e+000,3.6428509192e+000,4.0220060037e+000,3.6670716721e+000,3.8093474516e+000,3.2395519671e+000,3.5825002916e+000,3.4090284882e+000,7.4797755973e+000,3.0426718239e+000,4.5474928570e+000,3.3296785524e+000,4.8924247253e+000,
7.4062500000e+000,3.8954702626e+000,3.7298903688e+000,3.6501279315e+000,4.0834661879e+000,3.7270915803e+000,3.8547585685e+000,3.3606447439e+000,3.6290551316e+000,3.4667951447e+000,7.4820832703e+000,2.9819018527e+000,4.5864578463e+000,3.3784920362e+000,4.8592259106e+000,
7.5000000000e+000,3.9295549006e+000,3.7871032071e+000,3.7700161349e+000,4.1839685729e+000,3.8295313579e+000,3.9393252658e+000,3.4338875362e+000,3.7768647076e+000,3.5405026177e+000,7.4888709625e+000,2.9577484240e+000,4.6804051577e+000,3.3281946458e+000,4.9047629415e+000,
7.5937500000e+000,3.7233660222e+000,3.6103064705e+000,3.6702669715e+000,4.0357355495e+000,3.7025752478e+000,3.7918983492e+000,3.2995722478e+000,3.6976399482e+000,3.5146145887e+000,7.4896884006e+000,2.8453802523e+000,4.6834303490e+000,3.3415142527e+000,4.9786284311e+000,
7.6875000000e+000,3.6623050454e+000,3.5151099880e+000,3.5415838773e+000,4.0011313707e+000,3.6867796729e+000,3.7500955940e+000,3.2703267199e+000,3.6914557821e+000,3.5875674538e+000,7.4941025011e+000,2.9095556106e+000,4.5764073945e+000,3.3491143323e+000,4.8759117569e+000,
7.7812500000e+000,3.7762940379e+000,3.4780265620e+000,3.5601495932e+000,3.9894183648e+000,3.9781559013e+000,3.7598808720e+000,3.4365931486e+000,3.6934258707e+000,3.6698298954e+000,6.3623212770e+000,3.0017144819e+000,4.5592741486e+000,3.3669712452e+000,4.8420066423e+000,
7.8750000000e+000,4.0164876220e+000,3.5729586842e+000,3.7062471567e+000,4.1252776263e+000,4.2449069424e+000,3.8660317084e+000,3.6966761114e+000,3.7612914627e+000,3.6895476232e+000,5.1841564167e+000,3.1510544414e+000,4.5542541413e+000,3.3007607835e+000,4.8051949984e+000,
7.9687500000e+000,4.0936646009e+000,3.7083630480e+000,3.7645065429e+000,4.1775963518e+000,4.2416292440e+000,3.8387530999e+000,3.6652101517e+000,3.7750959179e+000,3.4925828590e+000,4.9750326478e+000,3.1039760742e+000,4.3191037912e+000,3.0255068678e+000,4.6079346262e+000,
8.0625000000e+000,4.3365300655e+000,4.4403424289e+000,4.2198791307e+000,4.9541321035e+000,4.2913590490e+000,4.5734832016e+000,3.7294484210e+000,4.4912195743e+000,3.5705762203e+000,5.3588228667e+000,3.2898279389e+000,4.6487281501e+000,3.1725011862e+000,4.7836608596e+000,
8.1562500000e+000,4.5633587603e+000,4.8289385705e+000,4.4640395019e+000,5.3268071054e+000,4.5551494710e+000,4.9545456141e+000,4.0043626069e+000,4.7868941532e+000,3.6997684103e+000,5.6923689830e+000,3.3347137109e+000,5.0452862599e+000,3.2532286616e+000,4.9205419597e+000,
8.2500000000e+000,4.6921041239e+000,5.0304186227e+000,4.7065672249e+000,5.5832878789e+000,4.6157094985e+000,5.0943264389e+000,4.0927436112e+000,4.9512963712e+000,3.7562838012e+000,5.8267626837e+000,3.6072266860e+000,5.2187727902e+000,3.7253316597e+000,5.1371249189e+000,
8.3437500000e+000,4.7514463834e+000,5.1157889028e+000,4.7708625203e+000,5.6796441742e+000,4.6779633836e+000,5.2097395198e+000,4.1626109929e+000,5.0441977967e+000,3.8316652278e+000,5.8881200347e+000,3.7846255037e+000,5.2884195556e+000,3.8117750352e+000,5.2045481753e+000,
8.4375000000e+000,4.7324470085e+000,5.1215927042e+000,4.7597818972e+000,5.6864190797e+000,4.6508713209e+000,5.2018832552e+000,4.1374550707e+000,5.0336454155e+000,3.8708658676e+000,5.9184850957e+000,3.8369268846e+000,5.4679520479e+000,3.8943621274e+000,5.2996677144e+000,
8.5312500000e+000,4.7902099621e+000,5.1341742414e+000,4.7434596774e+000,5.6818981217e+000,4.8562575060e+000,5.2315129114e+000,4.2135544326e+000,5.0374496812e+000,3.9599044555e+000,5.9254429000e+000,3.9389668155e+000,5.5214320862e+000,4.1864896006e+000,5.3661019770e+000,
8.6250000000e+000,4.8400061268e+000,5.1393385192e+000,4.7600532112e+000,5.6870339783e+000,5.0350762995e+000,5.2890186551e+000,4.3403331729e+000,5.0642551354e+000,4.0129984872e+000,5.9722638947e+000,3.9685575743e+000,5.5492805532e+000,4.2030672501e+000,5.3937275526e+000,
8.7187500000e+000,4.8822405441e+000,5.1908608565e+000,4.7675270475e+000,5.7097075234e+000,5.0721334533e+000,5.3259413525e+000,4.3566513873e+000,5.0921022852e+000,4.0445509206e+000,6.0121724157e+000,3.9490434859e+000,5.5757859185e+000,4.2004812434e+000,5.4132355574e+000,
8.8125000000e+000,4.8740679185e+000,5.1942034721e+000,4.8102907395e+000,5.7212075138e+000,4.9806063034e+000,5.3161269337e+000,4.2992989588e+000,5.0827001139e+000,3.9525654446e+000,6.0273352257e+000,3.8654592330e+000,5.5767601925e+000,4.1822683231e+000,5.4033803206e+000,
8.9062500000e+000,4.7611986073e+000,5.1637360100e+000,4.7422828134e+000,5.6827144978e+000,4.8852136515e+000,5.2893080877e+000,4.1709070087e+000,5.0548963768e+000,3.9366820197e+000,6.0091545512e+000,3.8260684771e+000,5.5620318584e+000,4.2051978436e+000,5.4105580180e+000,
9.0000000000e+000,4.7254142521e+000,5.1340803115e+000,4.6937493914e+000,5.6388880142e+000,4.8390596150e+000,5.2821666780e+000,4.0966433925e+000,5.0428471931e+000,3.8398321446e+000,5.9929661792e+000,3.8417697708e+000,5.5763205264e+000,4.1906221730e+000,5.4164611307e+000,
9.0937500000e+000,4.5871605882e+000,4.7925938837e+000,4.4132635328e+000,5.2406799741e+000,4.8289011237e+000,4.9514494906e+000,4.0654556839e+000,4.5316704857e+000,3.8196960094e+000,5.5882094741e+000,3.6671887803e+000,5.4357524381e+000,4.1548371418e+000,5.2918185146e+000,
9.1875000000e+000,4.3231408233e+000,4.3195805246e+000,4.0603132041e+000,4.7084018520e+000,4.6426073435e+000,4.5745691284e+000,3.7890407097e+000,4.2583226786e+000,3.7141973562e+000,5.4133908021e+000,3.3758172330e+000,5.0944704562e+000,3.8544396985e+000,5.0801446948e+000,
9.2812500000e+000,4.3370399266e+000,4.2245911995e+000,3.8721568896e+000,4.3939879641e+000,4.6447040922e+000,4.5059173212e+000,3.7939875949e+000,4.0707747587e+000,3.8266146833e+000,5.3189913063e+000,3.3569891131e+000,4.9768188743e+000,3.7912408152e+000,4.9889609340e+000,
9.3750000000e+000,4.3319246983e+000,4.1206297139e+000,3.9258727553e+000,4.3033553891e+000,4.6294724550e+000,4.4086912279e+000,3.8178586527e+000,3.9198823900e+000,3.7095919592e+000,5.1710903682e+000,3.1988992920e+000,4.8658946670e+000,3.8014675541e+000,4.9263333930e+000,
9.4687500000e+000,4.4125156253e+000,4.1398524498e+000,4.0726214851e+000,4.2994618886e+000,4.6649280600e+000,4.4373849106e+000,3.8500080199e+000,3.9586765457e+000,3.5894616587e+000,5.1313085106e+000,3.1500273266e+000,4.5892439106e+000,3.5689590735e+000,4.6682153874e+000,
9.5625000000e+000,4.3563768695e+000,4.2347250144e+000,3.9527584839e+000,4.2463476565e+000,4.0770528595e+000,4.6515252317e+000,3.4515553390e+000,3.9819954980e+000,3.3219207291e+000,5.0973597038e+000,3.0465785357e+000,4.4285707245e+000,3.3231774045e+000,4.6127202634e+000,
9.6562500000e+000,4.4108388622e+000,4.2815953467e+000,3.9854706319e+000,4.2713718464e+000,4.0722215266e+000,4.5924200296e+000,3.5284026880e+000,3.8974783999e+000,3.3220848108e+000,4.8059218164e+000,3.2184785866e+000,4.3275526148e+000,3.7898447639e+000,4.7386388878e+000,
9.7500000000e+000,4.4375844214e+000,4.3058297886e+000,4.0768448377e+000,4.2721273137e+000,4.0971732088e+000,4.6284281007e+000,3.6742390556e+000,3.9231867723e+000,3.3851178690e+000,4.8347581450e+000,3.2009464110e+000,4.1978195797e+000,3.8393423106e+000,4.7349268581e+000,
9.8437500000e+000,4.4453854593e+000,4.3014454749e+000,4.0294924608e+000,4.2464158686e+000,4.1049799672e+000,4.6428099862e+000,3.6895293952e+000,3.9395984147e+000,3.4133028404e+000,4.8004474023e+000,3.2917067459e+000,4.1618117597e+000,3.9064004390e+000,4.7454399083e+000,
9.9375000000e+000,4.4419255193e+000,4.2924295506e+000,4.0428726738e+000,4.2412234647e+000,4.1137752339e+000,4.6268659202e+000,3.6850380683e+000,3.8851974286e+000,3.3864050730e+000,4.7516579867e+000,3.3708900665e+000,4.2799183263e+000,3.9311093441e+000,4.8020962645e+000,
1.0031250000e+001,4.3938540527e+000,4.2676914127e+000,4.0330523706e+000,4.2843518654e+000,4.0812446694e+000,4.5847255671e+000,3.6936202606e+000,3.8384906928e+000,3.3496882038e+000,4.7027920236e+000,3.3650879387e+000,4.2801181954e+000,3.9511291191e+000,4.8232901654e+000,
1.0125000000e+001,4.3986198707e+000,4.2606765223e+000,4.0529203153e+000,4.2722987581e+000,4.1151138840e+000,4.5150763814e+000,3.6990469401e+000,3.7962370703e+000,3.3369707877e+000,4.6396835911e+000,3.4171465773e+000,4.3435242458e+000,3.9088795472e+000,4.8683274742e+000,
1.0218750000e+001,4.3652177627e+000,4.2446437988e+000,4.0648444332e+000,4.2974626981e+000,4.1147593759e+000,4.4812910621e+000,3.6754165912e+000,3.7796874786e+000,3.1622957321e+000,4.5435527203e+000,3.4518065610e+000,4.2732944747e+000,3.9328105049e+000,4.8236000325e+000,
1.0312500000e+001,4.2470807983e+000,4.1208222032e+000,3.8905413153e+000,4.1015395135e+000,3.9705513418e+000,4.3960467208e+000,3.5263186960e+000,3.6796618283e+000,3.0799641713e+000,4.5328312914e+000,3.4823195234e+000,4.2677792487e+000,3.8950126976e+000,4.8093572949e+000,
1.0406250000e+001,4.2494022885e+000,4.1077384045e+000,3.8259450701e+000,4.0598557795e+000,3.9404474185e+000,4.3850009443e+000,3.4820933284e+000,3.6529458392e+000,3.0727063777e+000,4.5281830370e+000,3.4220704630e+000,4.1215385556e+000,3.8884559035e+000,4.7643559349e+000,
1.0500000000e+001,4.1163594133e+000,3.9433922937e+000,3.7444837120e+000,4.0383922320e+000,3.7941318036e+000,4.0600222000e+000,3.4054267701e+000,3.4977838061e+000,3.0005572531e+000,4.5413983813e+000,3.3730009990e+000,4.2168204772e+000,3.8872085873e+000,4.8369253240e+000,
1.0593750000e+001,3.9635155114e+000,3.7785922190e+000,3.7732025515e+000,4.0436816565e+000,3.8020141238e+000,3.7490148041e+000,3.4399584558e+000,3.4385688233e+000,3.0250864579e+000,4.5236398021e+000,3.2665049071e+000,4.3297777662e+000,3.7624966855e+000,4.8911782857e+000,
1.0687500000e+001,3.7771687393e+000,3.6053311115e+000,3.5775895743e+000,3.9325271853e+000,3.6649856536e+000,3.5642466991e+000,3.2550079508e+000,3.2746000436e+000,2.9355755328e+000,4.4812770041e+000,3.1128691555e+000,4.3648999660e+000,3.3185399937e+000,4.8193153518e+000,
1.0781250000e+001,3.5676318371e+000,3.4105730786e+000,3.6385524526e+000,3.7998871197e+000,3.4571736465e+000,3.3719934543e+000,2.9465264066e+000,3.1389677350e+000,2.7941475585e+000,4.3715120766e+000,3.2058156421e+000,4.3737386939e+000,3.3261041581e+000,4.8648162470e+000,
1.0875000000e+001,3.7297491878e+000,3.5619602200e+000,3.8061719902e+000,4.0900045561e+000,3.5721422653e+000,3.5603659673e+000,3.1355990798e+000,3.3716507267e+000,2.8653901049e+000,4.4598069894e+000,3.3460185385e+000,4.4328321576e+000,3.4005000685e+000,4.8897171213e+000,
1.0968750000e+001,3.8368653959e+000,3.6571586263e+000,3.8561181932e+000,4.1254514682e+000,3.6835588278e+000,3.6025843516e+000,3.2287712100e+000,3.3754663047e+000,2.8772785455e+000,4.4356117564e+000,3.3799049259e+000,4.3333264757e+000,3.3349754706e+000,4.7918122608e+000,
1.1062500000e+001,4.1283568535e+000,3.9024168254e+000,4.0056645449e+000,4.2873568137e+000,3.8867043929e+000,3.8123283263e+000,3.3852178834e+000,3.4985186231e+000,2.9773137895e+000,4.4717094380e+000,3.4736554425e+000,4.2994090649e+000,3.4040566000e+000,4.7371529104e+000,
1.1156250000e+001,4.1089899922e+000,3.9358811395e+000,4.0230654930e+000,4.3321038673e+000,3.8344836188e+000,3.7864335743e+000,3.3974521673e+000,3.5368226196e+000,2.9703427624e+000,4.4448024340e+000,3.4261511553e+000,4.2289828692e+000,3.4298724338e+000,4.7526903201e+000,
1.1250000000e+001,4.0491350679e+000,3.8762470108e+000,3.9787599579e+000,4.2832206905e+000,3.8488557897e+000,3.7863408187e+000,3.3299736779e+000,3.5272967797e+000,2.9484674136e+000,4.3451094589e+000,3.3935972464e+000,4.1786109173e+000,3.4325864995e+000,4.7432885435e+000,
1.1343750000e+001,4.1408993567e+000,4.0433848520e+000,4.0530276604e+000,4.3879015776e+000,3.9484840205e+000,3.9467009256e+000,3.4914261200e+000,3.7485340330e+000,3.1020612249e+000,4.6593660578e+000,3.4804546984e+000,4.2806331515e+000,3.5360748162e+000,4.7568303532e+000,
1.1437500000e+001,4.1798734833e+000,4.0573265918e+000,4.0619572305e+000,4.3914054928e+000,3.9889687923e+000,4.0186608478e+000,3.5802784140e+000,3.7976069003e+000,3.2490499030e+000,4.6717690606e+000,3.5403775755e+000,4.2076096448e+000,3.4109909512e+000,4.6835817618e+000,
1.1531250000e+001,4.1307595205e+000,4.0295794192e+000,4.0011830552e+000,4.3114402117e+000,3.9673054457e+000,4.0324971630e+000,3.5440880803e+000,3.7822585042e+000,3.2466904224e+000,4.6996338819e+000,3.5882432365e+000,4.0479104153e+000,3.5181099446e+000,4.5119548915e+000,
1.1625000000e+001,4.1327596982e+000,3.9811956892e+000,4.0023450397e+000,4.3090843471e+000,3.9924396537e+000,4.0589044927e+000,3.5359779575e+000,3.7926912607e+000,3.1921260159e+000,5.1017042171e+000,3.6138319236e+000,3.8852511047e+000,3.5951943509e+000,4.2667003199e+000,
1.1718750000e+001,4.1347489224e+000,3.9732844586e+000,3.9907138512e+000,4.3271530601e+000,4.0233742798e+000,4.0559147253e+000,3.6147446486e+000,3.8448530450e+000,3.2636710339e+000,5.2369011047e+000,3.5994371813e+000,3.9870867232e+000,3.6075620436e+000,4.2351381103e+000,
1.1812500000e+001,4.0675284722e+000,3.9659431289e+000,3.8147172338e+000,4.3269288905e+000,4.0008483550e+000,4.0694072433e+000,3.5906328295e+000,3.8715649224e+000,3.2047898352e+000,5.2620881507e+000,3.5681405875e+000,4.1300124844e+000,3.6287468749e+000,4.4136154804e+000,
1.1906250000e+001,4.0294153085e+000,3.9982852358e+000,3.7701310318e+000,4.2828906648e+000,4.1222005206e+000,4.0814740657e+000,3.5164922178e+000,3.8861703198e+000,3.2261536047e+000,5.2979743858e+000,3.3596341733e+000,4.1347506216e+000,3.6604786693e+000,4.4837377607e+000,
1.2000000000e+001,3.7597537093e+000,3.8131536251e+000,3.5836673808e+000,4.1157142275e+000,3.9625358985e+000,3.9187022187e+000,3.3574635206e+000,3.8065573554e+000,3.1775386659e+000,5.2704708620e+000,3.3699483978e+000,4.1497850636e+000,3.6931612311e+000,4.5620938483e+000,
1.2093750000e+001,3.5695966129e+000,3.7371570209e+000,3.5717003852e+000,4.1176468483e+000,3.9891051592e+000,4.0317861421e+000,3.3361579442e+000,3.8518634385e+000,3.2007005590e+000,5.2658211673e+000,3.3583932422e+000,4.2618315505e+000,3.7228089703e+000,4.6256761436e+000,
1.2187500000e+001,3.8166806435e+000,4.0823589011e+000,3.6245300186e+000,4.2167723274e+000,3.9879835896e+000,4.4322943137e+000,3.3329473965e+000,4.0447805201e+000,3.2375831593e+000,5.2623056441e+000,3.3732840813e+000,4.2737932806e+000,3.6929228411e+000,4.5936512354e+000,
1.2281250000e+001,3.8671526632e+000,4.1166142189e+000,3.6742722589e+000,4.2139294816e+000,4.0840646558e+000,4.4536489021e+000,3.4955514288e+000,4.0415694432e+000,3.2429326944e+000,5.2712647907e+000,3.3965376014e+000,4.2639133584e+000,3.7007408736e+000,4.6151496467e+000,
1.2375000000e+001,3.7895271913e+000,4.0048973732e+000,3.6001110247e+000,4.1122873253e+000,4.0027939516e+000,4.3423690829e+000,3.2988933630e+000,3.8577866952e+000,3.0205653060e+000,5.1212318512e+000,3.3173926021e+000,4.1844437546e+000,3.7094269146e+000,4.6339445512e+000,
1.2468750000e+001,3.8033169549e+000,4.0545351038e+000,3.6223055292e+000,4.2053347989e+000,3.9713174331e+000,4.3599541816e+000,3.2081404293e+000,3.8813813800e+000,2.9177980300e+000,5.0712083791e+000,3.2102881591e+000,4.3116765078e+000,3.7322540167e+000,4.7537847793e+000,
1.2562500000e+001,3.8033384842e+000,4.0539938086e+000,3.6384315480e+000,4.2179469801e+000,3.9837827397e+000,4.3760750972e+000,3.2259838786e+000,3.8679479510e+000,2.9677394857e+000,5.0822911444e+000,3.1995268329e+000,4.2988336498e+000,3.6797465069e+000,4.7558652424e+000,
1.2656250000e+001,3.8394159034e+000,4.0558733414e+000,3.6673219385e+000,4.2240561626e+000,4.0118313953e+000,4.3755651442e+000,3.1869908575e+000,3.8432047936e+000,2.9834013859e+000,4.6821298087e+000,3.1081586594e+000,4.2983100147e+000,3.5655520941e+000,4.7482180047e+000,
1.2750000000e+001,3.8307496641e+000,4.0373940245e+000,3.6597479850e+000,4.1796107335e+000,4.0131607782e+000,4.3703950182e+000,3.1193299697e+000,3.7910489329e+000,2.9846104707e+000,4.4409112636e+000,3.0135424194e+000,4.2280765714e+000,3.5572115346e+000,4.7614302964e+000,
1.2843750000e+001,3.7629034759e+000,3.9549414380e+000,3.5489028034e+000,4.0639647470e+000,3.8983517888e+000,4.2533381332e+000,3.1246924169e+000,3.6500762453e+000,3.0808127619e+000,4.3353546072e+000,3.1270393927e+000,4.1171103928e+000,3.5743846735e+000,4.6100903648e+000,
1.2937500000e+001,3.7117389629e+000,3.9316320455e+000,3.4908697282e+000,4.0060044118e+000,3.8224789719e+000,4.2548484647e+000,3.0516333904e+000,3.6528908801e+000,3.0265175321e+000,4.3038735623e+000,3.1175139326e+000,4.1060367718e+000,3.5224106280e+000,4.6615969035e+000,
1.3031250000e+001,3.8103944847e+000,3.9925188350e+000,3.5248186800e+000,4.0483283171e+000,3.8814463496e+000,4.2148364343e+000,3.0757863494e+000,3.6343863516e+000,3.0053526773e+000,4.2978373797e+000,3.1590611103e+000,4.0286356310e+000,3.4803430452e+000,4.6093201526e+000,
1.3125000000e+001,3.8837083524e+000,3.9327554767e+000,3.5393699101e+000,4.0335323566e+000,4.0108094650e+000,4.0686568734e+000,3.3002309767e+000,3.5790461326e+000,3.0595268721e+000,4.3728558721e+000,3.1145494260e+000,4.0210806740e+000,3.4105012644e+000,4.6550995717e+000,
1.3218750000e+001,3.7906106539e+000,3.6808859085e+000,3.5154905734e+000,4.0435903026e+000,4.0249658728e+000,3.6519867913e+000,3.2867881698e+000,3.4130957644e+000,3.1096567368e+000,4.4221438436e+000,3.0510989640e+000,4.0105164576e+000,3.4197723831e+000,4.6157275632e+000,
1.3312500000e+001,3.9721086598e+000,3.8021737639e+000,3.5859205172e+000,4.1023231065e+000,3.9870503531e+000,3.7543556407e+000,3.2129751344e+000,3.4768828187e+000,3.1923544499e+000,4.5630606862e+000,3.0443435849e+000,4.0609176263e+000,3.4138298191e+000,4.5424647843e+000,
1.3406250000e+001,3.9752755100e+000,3.7897943344e+000,3.4571285508e+000,3.9657063078e+000,4.1054653038e+000,3.7310326221e+000,3.2482440477e+000,3.3871134730e+000,3.2799381282e+000,4.5617094954e+000,3.0586321566e+000,3.9613109110e+000,3.7491353304e+000,4.4624086068e+000,
1.3500000000e+001,4.0281411265e+000,3.7979674024e+000,3.5687132104e+000,4.0061376579e+000,4.1695617861e+000,3.6495446395e+000,3.3469719262e+000,3.3406738805e+000,3.3802306488e+000,4.5526187324e+000,3.1743164522e+000,3.9264846103e+000,3.8258594536e+000,4.4931742693e+000,
1.3593750000e+001,4.0970707404e+000,3.8625996793e+000,3.7387714395e+000,4.1925175252e+000,4.1963610452e+000,3.6616116935e+000,3.4821789115e+000,3.5444191245e+000,3.3703206294e+000,4.5937448625e+000,3.2296125245e+000,4.1017114164e+000,3.8177234665e+000,4.5683494565e+000,
1.3687500000e+001,4.1181520839e+000,3.9159928307e+000,3.7785857360e+000,4.2821811873e+000,4.1749474639e+000,3.9159001619e+000,3.5004218541e+000,3.7397776266e+000,3.3536402117e+000,4.7115017874e+000,3.2963458578e+000,4.2031134351e+000,3.8638752941e+000,4.7131446347e+000,
1.3781250000e+001,4.1341462096e+000,3.9402200857e+000,3.7999097567e+000,4.3032132573e+000,4.2301139381e+000,3.9693919187e+000,3.5342399760e+000,3.8091838285e+000,3.4220210071e+000,4.7615162761e+000,3.3246221060e+000,4.1811336504e+000,3.8436353658e+000,4.7699533838e+000,
1.3875000000e+001,4.2063691424e+000,4.0517012779e+000,3.8852474025e+000,4.3865918221e+000,4.2207418657e+000,4.0160424743e+000,3.5027525693e+000,3.8505228150e+000,3.3291511885e+000,4.8621655109e+000,3.2506551124e+000,4.1472827490e+000,3.7475993165e+000,4.6292677158e+000,
1.3968750000e+001,4.1470184831e+000,3.9944868230e+000,3.8391441384e+000,4.3096378563e+000,4.1864401276e+000,3.9899205270e+000,3.4986629681e+000,3.7986374328e+000,3.3434426563e+000,4.8546560381e+000,3.2288165308e+000,4.1753761724e+000,3.7211143558e+000,4.6019062517e+000,
1.4062500000e+001,4.0873573017e+000,3.9001608411e+000,3.7722070684e+000,4.2617011496e+000,4.1727294984e+000,3.9551638966e+000,3.4378954382e+000,3.7793789537e+000,3.3426528153e+000,4.8380053459e+000,3.0850666848e+000,4.1830994565e+000,3.7140969151e+000,4.5984451688e+000,
1.4156250000e+001,4.0638234443e+000,3.8366881863e+000,3.6921756591e+000,4.1577389646e+000,4.1421789858e+000,3.9465318869e+000,3.3252083262e+000,3.6564684421e+000,3.3402720609e+000,4.7312496272e+000,2.9867969398e+000,4.3055124465e+000,3.7429128329e+000,4.5673549728e+000,
1.4250000000e+001,3.8951772730e+000,3.7463974004e+000,3.5697600487e+000,4.1112627868e+000,4.0417870032e+000,3.8830293072e+000,3.2756143972e+000,3.6359917730e+000,3.3096879125e+000,4.6973869840e+000,2.9360288669e+000,4.3022562691e+000,3.6275913112e+000,4.6203580247e+000,
1.4343750000e+001,3.8308491988e+000,3.6791263905e+000,3.5772705559e+000,4.1974996834e+000,3.9029763664e+000,3.8065157101e+000,3.1955111541e+000,3.6444007084e+000,3.2596839027e+000,4.5809177370e+000,2.8633982288e+000,4.3292604591e+000,3.4600315786e+000,4.6832037211e+000,
1.4437500000e+001,3.9742897949e+000,3.8386686484e+000,3.6310335698e+000,4.2749780337e+000,4.0662178001e+000,4.0094144196e+000,3.4834006861e+000,3.8469196742e+000,3.2600597776e+000,4.6572364912e+000,2.8593331430e+000,4.4573474760e+000,3.3318561958e+000,4.6706738125e+000,
1.4531250000e+001,4.0051020709e+000,3.9180168776e+000,3.5010279716e+000,4.1595260560e+000,4.1393557717e+000,4.1078545322e+000,3.4996773520e+000,3.8415212818e+000,3.2113669648e+000,4.6192934841e+000,2.8213852542e+000,4.4694236210e+000,3.4729410196e+000,4.6658460166e+000,
1.4625000000e+001,4.1229371296e+000,4.0048923591e+000,3.4900523390e+000,4.0777480568e+000,4.2606737937e+000,4.1741782458e+000,3.6540530551e+000,3.7721947049e+000,3.2662467877e+000,4.6390665888e+000,2.6902288731e+000,4.3021334738e+000,3.5986614802e+000,4.5049618180e+000,
1.4718750000e+001,4.2441842719e+000,4.1400827957e+000,3.5952462951e+000,4.1659697100e+000,4.3612684944e+000,4.1536859774e+000,3.8349226693e+000,3.7363156628e+000,3.3096749037e+000,4.5415775933e+000,2.6282866643e+000,4.3331794901e+000,3.5348442632e+000,4.5523198669e+000,
1.4812500000e+001,4.3322647284e+000,4.1817809346e+000,3.6649730148e+000,4.1501294195e+000,4.4307146180e+000,4.1807814951e+000,3.8662700686e+000,3.7263953122e+000,3.3372481672e+000,4.6679640533e+000,2.8866171125e+000,4.3951272244e+000,3.5428829675e+000,4.5085392844e+000,
1.4906250000e+001,4.5654395120e+000,4.2335559510e+000,3.8853331330e+000,4.2195751104e+000,4.6659975606e+000,4.3231114426e+000,4.0655943321e+000,3.8310074565e+000,3.3328118956e+000,4.7954159049e+000,3.0372223082e+000,4.4079459991e+000,3.5985998046e+000,4.5066266905e+000,
1.5000000000e+001,4.7564948647e+000,4.3722326399e+000,4.1950323076e+000,4.4057648887e+000,4.7819166284e+000,4.4639230760e+000,4.1921923466e+000,4.0128298081e+000,3.3786079651e+000,4.9453653473e+000,3.1511648924e+000,4.4234437255e+000,3.5938091103e+000,4.5026023339e+000,
1.5093750000e+001,4.7961569759e+000,4.3996709169e+000,4.2908963265e+000,4.4599075802e+000,4.7824260004e+000,4.4777717568e+000,4.2476894784e+000,4.0482944248e+000,3.3277476404e+000,5.0234456025e+000,3.1729855047e+000,4.4414823298e+000,3.6826036880e+000,4.5066734034e+000,
1.5187500000e+001,4.9312940559e+000,4.5096074314e+000,4.5497502179e+000,4.6918822729e+000,4.8830545960e+000,4.5611357998e+000,4.3966836364e+000,4.1592207145e+000,3.3555185317e+000,5.2370588687e+000,3.2999073731e+000,4.3331895246e+000,3.8627411983e+000,4.4454059100e+000,
1.5281250000e+001,5.0190027381e+000,4.6126305685e+000,4.6865162443e+000,4.8025395750e+000,4.9966701466e+000,4.6611189261e+000,4.5056986010e+000,4.2456701134e+000,3.4702503378e+000,5.3498806068e+000,3.4579169179e+000,4.3581100583e+000,3.9288028267e+000,4.4077155872e+000,
1.5375000000e+001,4.9858068233e+000,4.5735222857e+000,4.7186672146e+000,4.7814549657e+000,5.0130247179e+000,4.6475224626e+000,4.5320496592e+000,4.2091020127e+000,3.5613796007e+000,5.4125550359e+000,3.5575180499e+000,4.3395426881e+000,3.9158582605e+000,4.4777373248e+000,
1.5468750000e+001,4.9544615089e+000,4.5276373758e+000,4.7482663908e+000,4.8325690337e+000,4.9532789568e+000,4.5968817087e+000,4.5055999748e+000,4.1983605549e+000,3.6879152705e+000,5.4172000099e+000,3.4981961147e+000,4.3168657361e+000,3.9215616625e+000,4.5598744949e+000,
1.5562500000e+001,4.9699065986e+000,4.5261977356e+000,4.7781254525e+000,4.9072346094e+000,4.9255628531e+000,4.5712289923e+000,4.4852241152e+000,4.2347248231e+000,3.6966610651e+000,5.3983140338e+000,3.4892715340e+000,4.2878070826e+000,3.9151413394e+000,4.5646357638e+000,
1.5656250000e+001,4.8293673389e+000,4.3987856501e+000,4.6848135664e+000,4.8625467097e+000,4.8023530109e+000,4.4580815703e+000,4.3194704651e+000,4.1836483214e+000,3.6027683932e+000,5.4079160200e+000,3.4981418370e+000,4.3797913052e+000,3.8303532008e+000,4.6992312282e+000,
1.5750000000e+001,4.8613946068e+000,4.4430750664e+000,4.7205191618e+000,4.8922558160e+000,4.7967207132e+000,4.4872702897e+000,4.3316540435e+000,4.2398398403e+000,3.5525577240e+000,5.5290771343e+000,3.3658754730e+000,4.4124786697e+000,3.8486939628e+000,4.7281931592e+000,
1.5843750000e+001,4.7264328481e+000,4.3871374290e+000,4.6504424789e+000,4.9016579414e+000,4.6759620754e+000,4.4186253197e+000,4.2721061904e+000,4.2293189048e+000,3.5042009869e+000,5.4708820153e+000,3.2471981207e+000,4.3827451263e+000,3.9065678158e+000,4.7582744560e+000,
1.5937500000e+001,4.6232971613e+000,4.3333498761e+000,4.6226448816e+000,4.8667251873e+000,4.5414725674e+000,4.3151291623e+000,4.2293931628e+000,4.1458828026e+000,3.5017536958e+000,5.3837508340e+000,3.2289406881e+000,4.3989703643e+000,3.9094896599e+000,4.7899386134e+000,
1.6031250000e+001,4.6314920345e+000,4.3414205850e+000,4.5723919954e+000,4.8675276767e+000,4.5209809470e+000,4.2830827149e+000,4.2344957625e+000,4.0774258445e+000,3.5407417748e+000,5.3379938772e+000,3.2071597880e+000,4.3889504327e+000,3.8754901010e+000,4.7544132558e+000,
1.6125000000e+001,4.6360927279e+000,4.3542827330e+000,4.5181217295e+000,4.8350911387e+000,4.5947080270e+000,4.3187719648e+000,4.2395124184e+000,4.0585748708e+000,3.5552049982e+000,5.3086936570e+000,3.2475552999e+000,4.3372970726e+000,3.8181217841e+000,4.7114842312e+000,
1.6218750000e+001,4.4681087208e+000,4.2552810498e+000,4.2848935095e+000,4.6702074923e+000,4.4500815564e+000,4.1976947955e+000,4.0444798680e+000,3.9452591166e+000,3.5096534771e+000,5.0747297444e+000,3.1903759028e+000,4.3436265279e+000,3.6147359999e+000,4.7127120661e+000,
1.6312500000e+001,4.4986063318e+000,4.3497348107e+000,4.1856034032e+000,4.6641723580e+000,4.2966840114e+000,4.2831472769e+000,3.8399899981e+000,3.9886611601e+000,3.3893837948e+000,4.9962140349e+000,3.0793756233e+000,4.2894082830e+000,3.6848841529e+000,4.6626005406e+000,
1.6406250000e+001,4.6746745000e+000,4.6044888967e+000,4.4127361190e+000,4.9665092298e+000,4.2518118838e+000,4.6107166568e+000,3.7414904311e+000,4.3174453135e+000,3.2450383234e+000,5.1095373162e+000,2.9002220243e+000,4.3537070015e+000,3.6909002436e+000,4.6896292118e+000,
1.6500000000e+001,4.8275509273e+000,4.6712726496e+000,4.5544610359e+000,4.9619397658e+000,4.4639355204e+000,4.6705181924e+000,4.0310311483e+000,4.3259051365e+000,3.4032419539e+000,5.1841325583e+000,2.8802401477e+000,4.2749051914e+000,3.5836557404e+000,4.6283897829e+000,
1.6593750000e+001,4.8639136559e+000,4.7281258133e+000,4.6192222880e+000,4.9856985992e+000,4.5357422697e+000,4.7290838258e+000,4.1932163185e+000,4.3454723662e+000,3.4653668612e+000,5.1423864953e+000,2.8959529804e+000,4.1298586710e+000,3.6146594987e+000,4.3914194898e+000,
1.6687500000e+001,4.9827888286e+000,4.7913102621e+000,4.7384335410e+000,5.0851352606e+000,4.6049799115e+000,4.7784646279e+000,4.3341933258e+000,4.3946793143e+000,3.6462285927e+000,5.1220259508e+000,2.9516858157e+000,4.1451402649e+000,3.6616006621e+000,4.2839812871e+000,
1.6781250000e+001,5.0768825369e+000,4.8728883045e+000,4.8339001073e+000,5.1756809212e+000,4.6390636596e+000,4.8954182098e+000,4.3420952060e+000,4.4608957761e+000,3.8580740052e+000,4.9926048265e+000,3.2027327028e+000,4.3611299387e+000,3.6414313739e+000,4.3877505368e+000,
1.6875000000e+001,5.0972995452e+000,4.9336085632e+000,4.8424745537e+000,5.2696683163e+000,4.7165548631e+000,4.9985823148e+000,4.3819707628e+000,4.5592843619e+000,3.9092061740e+000,5.1459069049e+000,3.2484031916e+000,4.6634351133e+000,3.5640825873e+000,4.7454765281e+000,
1.6968750000e+001,5.0635904840e+000,4.9298775200e+000,4.8157649416e+000,5.2933954814e+000,4.7027953028e+000,5.0341663911e+000,4.3014056916e+000,4.5860818656e+000,3.9558736593e+000,5.2342756342e+000,3.1918635064e+000,4.7720966089e+000,3.5757190471e+000,4.8895240314e+000,
1.7062500000e+001,5.0671314861e+000,4.9960115813e+000,4.8163213927e+000,5.3647257831e+000,4.6831860909e+000,5.1255425265e+000,4.2423405603e+000,4.6962041248e+000,3.9441945919e+000,5.2862081890e+000,3.1895350247e+000,4.7994996860e+000,3.6191635598e+000,4.9373388516e+000,
1.7156250000e+001,5.0239083399e+000,4.9742231770e+000,4.7876095185e+000,5.3425732391e+000,4.6025225003e+000,5.1158938399e+000,4.2057347416e+000,4.6927979816e+000,3.9718326582e+000,5.2264115172e+000,3.1720875694e+000,4.7860488564e+000,3.7167749517e+000,4.9903323873e+000,
1.7250000000e+001,4.9999610438e+000,4.9311228646e+000,4.7837485423e+000,5.3271346715e+000,4.6212235003e+000,5.0954393001e+000,4.2582967345e+000,4.6916483319e+000,3.9789725038e+000,5.2470385759e+000,3.1224941589e+000,4.8202618624e+000,3.8096275358e+000,5.0503843517e+000,
1.7343750000e+001,5.0089907645e+000,4.9696859745e+000,4.7922282128e+000,5.3109282583e+000,4.7101046276e+000,5.0354771625e+000,4.3942496588e+000,4.6716590585e+000,4.0121487057e+000,5.2947846763e+000,3.1223113961e+000,4.8193929534e+000,3.8558488784e+000,4.9974732996e+000,
1.7437500000e+001,5.0011343872e+000,4.9542150003e+000,4.7351541419e+000,5.2220722253e+000,4.7989735989e+000,4.9220801261e+000,4.4905515630e+000,4.5632047766e+000,4.0062709841e+000,5.1792018984e+000,3.1826710852e+000,4.7718354940e+000,3.9521471801e+000,5.0389103568e+000,
1.7531250000e+001,4.9029533576e+000,4.9276218098e+000,4.5919425048e+000,5.1805296943e+000,4.6687738295e+000,4.8804208750e+000,4.2590017894e+000,4.5330188241e+000,3.8972362653e+000,5.1616380406e+000,3.1145229036e+000,4.8460375016e+000,3.9107720414e+000,5.1192869397e+000,
1.7625000000e+001,4.8691947275e+000,4.9103810017e+000,4.5610435453e+000,5.1007209930e+000,4.6686466292e+000,4.8456498626e+000,4.2124866722e+000,4.4662001664e+000,3.8985245243e+000,5.1027133239e+000,3.0885786850e+000,4.8228281441e+000,3.8262622525e+000,5.1624794089e+000,
1.7718750000e+001,4.7744329741e+000,4.8116664263e+000,4.4676381471e+000,4.9747502637e+000,4.6176560729e+000,4.7341323761e+000,4.1440482369e+000,4.3431486578e+000,3.6682903128e+000,5.0221401438e+000,2.9848366694e+000,4.7408028072e+000,3.8517660216e+000,5.1654853174e+000,
1.7812500000e+001,4.6275516428e+000,4.7101868569e+000,4.3251532356e+000,4.8504106168e+000,4.5453453920e+000,4.5927241396e+000,4.0596626732e+000,4.2615649835e+000,3.5842561145e+000,4.9407602101e+000,2.9376516754e+000,4.6974173456e+000,3.9194537013e+000,5.1882473963e+000,
1.7906250000e+001,4.5718753515e+000,4.6200176366e+000,4.3327199329e+000,4.7061613696e+000,4.4480716768e+000,4.4150847401e+000,4.0072028854e+000,4.1023656049e+000,3.4897329043e+000,4.8100299775e+000,2.9497174057e+000,4.4346983949e+000,3.9536072139e+000,5.0426680333e+000,
1.8000000000e+001,4.5597720833e+000,4.5914923928e+000,4.2970674918e+000,4.6506235525e+000,4.4190124035e+000,4.2912843375e+000,4.0509236636e+000,4.0063099859e+000,3.4794832660e+000,4.6387029223e+000,2.8915522209e+000,4.3506918463e+000,4.0255518690e+000,4.9826511870e+000,
1.8093750000e+001,4.4266561511e+000,4.4415203429e+000,4.1664398071e+000,4.4071844644e+000,4.3326546263e+000,4.0544538419e+000,4.0446068269e+000,3.7800181178e+000,3.4534733910e+000,4.5387826064e+000,2.9542869397e+000,4.3905337046e+000,4.0481103719e+000,5.0186695681e+000,
1.8187500000e+001,4.3982903576e+000,4.4351529551e+000,4.1588655329e+000,4.4218539347e+000,4.2951708135e+000,4.0283858393e+000,4.0027458125e+000,3.7483109415e+000,3.3422812708e+000,4.5393642748e+000,2.8687887603e+000,4.4817275501e+000,4.0038717871e+000,5.0220608612e+000,
1.8281250000e+001,4.3541902241e+000,4.4712397791e+000,4.0611165607e+000,4.4470524453e+000,4.2389333511e+000,4.0281261062e+000,3.8553861468e+000,3.7384150987e+000,3.2796216314e+000,4.6292143606e+000,2.8356468973e+000,4.4634037257e+000,3.8646745967e+000,5.0157303162e+000,
1.8375000000e+001,4.1992197647e+000,4.1451457822e+000,3.8576011047e+000,4.2710339195e+000,4.0495979001e+000,3.7969661858e+000,3.6592500990e+000,3.4643406920e+000,3.2185697558e+000,4.5940004317e+000,2.9037137245e+000,4.5771911937e+000,3.9131141766e+000,5.0636494801e+000,
1.8468750000e+001,4.2202441464e+000,4.1461012385e+000,3.9382015812e+000,4.3903749267e+000,4.0447451321e+000,3.8825258273e+000,3.6494584823e+000,3.5657832869e+000,3.1687924496e+000,4.8363702439e+000,3.0223485225e+000,4.6289689844e+000,3.8874715682e+000,5.0404556243e+000,
1.8562500000e+001,4.1361569542e+000,4.0521766576e+000,3.8959268767e+000,4.4020464027e+000,3.9704775392e+000,3.9015816725e+000,3.5521714422e+000,3.6372622932e+000,3.0844317028e+000,4.9664758558e+000,3.0268477546e+000,4.6065499668e+000,3.9175451691e+000,4.9603179467e+000,
1.8656250000e+001,4.1163266445e+000,3.9402196898e+000,3.8188271711e+000,4.3603565928e+000,3.9595928148e+000,3.8514520253e+000,3.5691957226e+000,3.6753498875e+000,3.0819871573e+000,5.0749379297e+000,2.9664777598e+000,4.6285868103e+000,3.9235290527e+000,4.8803152719e+000,
1.8750000000e+001,4.2522081556e+000,4.0602320318e+000,4.0153925282e+000,4.5758914645e+000,4.0188103978e+000,3.9744723404e+000,3.6279246471e+000,3.7899717633e+000,3.0284136303e+000,5.2478829338e+000,2.9752411097e+000,4.6858254747e+000,3.8424963929e+000,4.7721261054e+000,
1.8843750000e+001,4.2580508686e+000,4.0937610301e+000,4.0087941090e+000,4.5927570502e+000,4.0492421575e+000,4.0367409120e+000,3.6830669941e+000,3.8041373915e+000,3.0388800178e+000,5.2301025130e+000,3.0922059164e+000,4.6855390031e+000,3.8399715080e+000,4.7103637207e+000,
1.8937500000e+001,4.3390133585e+000,4.1142761612e+000,3.9835759925e+000,4.5373785414e+000,4.0868707434e+000,4.0681765650e+000,3.7036627930e+000,3.8046585166e+000,3.0269021964e+000,5.2142029025e+000,3.1279464694e+000,4.6590696733e+000,3.8186966204e+000,4.6749689569e+000,
1.9031250000e+001,4.4160364905e+000,4.1002079235e+000,4.0348426196e+000,4.5062270836e+000,4.1164365623e+000,4.1193400723e+000,3.7337104840e+000,3.7991110007e+000,2.9926795568e+000,5.2097423853e+000,3.0971439976e+000,4.5493855202e+000,3.7760435294e+000,4.5515096982e+000,
1.9125000000e+001,4.4051782902e+000,4.1085541501e+000,4.0308289625e+000,4.4833237363e+000,4.0701680037e+000,4.0691929197e+000,3.6926729790e+000,3.7647814514e+000,3.0151785294e+000,5.1692990915e+000,3.0531421858e+000,4.3880723370e+000,3.7515694876e+000,4.4224722754e+000,
1.9218750000e+001,4.4817244817e+000,4.1227834309e+000,4.0191510846e+000,4.4316627197e+000,4.2005323517e+000,4.0707693083e+000,3.7710953025e+000,3.7593341619e+000,3.0259889308e+000,5.1764484234e+000,3.1191954479e+000,4.3697861992e+000,3.6624003423e+000,4.4271373886e+000,
1.9312500000e+001,4.4276589075e+000,3.9509862367e+000,3.9988434252e+000,4.2876598935e+000,4.1283872578e+000,3.9431056389e+000,3.7263375713e+000,3.6046587924e+000,3.0089473045e+000,5.0439921228e+000,3.1277956309e+000,4.2071674476e+000,3.6465469925e+000,4.2713198095e+000,
1.9406250000e+001,4.2539404579e+000,3.7667607574e+000,3.8727200579e+000,3.9579411637e+000,4.0931912959e+000,3.8415221370e+000,3.6571598144e+000,3.3873124845e+000,2.9720675199e+000,5.1266804871e+000,3.0771146895e+000,4.1057205333e+000,3.4311752183e+000,4.1337336277e+000,
1.9500000000e+001,4.2133672673e+000,3.7258976616e+000,3.8110058460e+000,3.8301133409e+000,4.0489744174e+000,3.7795712226e+000,3.5874434254e+000,3.2996399312e+000,2.9615600857e+000,5.0362202768e+000,2.9476409669e+000,3.9973815192e+000,3.1811061054e+000,3.9420312219e+000,
1.9593750000e+001,4.1592179931e+000,3.7038290953e+000,3.8020366092e+000,3.8055863631e+000,3.9742081242e+000,3.7093281212e+000,3.5468915460e+000,3.1798844808e+000,2.8319724738e+000,4.9272597715e+000,3.0479268741e+000,3.9049406451e+000,3.1493465911e+000,4.0411854124e+000,
1.9687500000e+001,3.8837008761e+000,3.4736931445e+000,3.4319856179e+000,3.3361533662e+000,3.8804726034e+000,3.5099504050e+000,3.2924713400e+000,2.8023374524e+000,2.8481514246e+000,4.7731170563e+000,3.1005757395e+000,3.8193350818e+000,3.1243849682e+000,4.0037191339e+000,
1.9781250000e+001,3.8886186520e+000,3.4998888798e+000,3.3713927579e+000,3.1258583601e+000,3.8839832158e+000,3.3721061582e+000,3.2497111321e+000,2.6716986873e+000,2.7861718488e+000,4.6266443102e+000,2.9182390625e+000,3.5879357283e+000,3.0955230307e+000,3.9206078200e+000,
1.9875000000e+001,3.8155030565e+000,3.4384167869e+000,3.3471342583e+000,3.0216146542e+000,3.8039150833e+000,3.2722631158e+000,3.1532029516e+000,2.6125519288e+000,2.7452655740e+000,4.6542004878e+000,2.9457853672e+000,3.5437708104e+000,3.0934074489e+000,3.9068567585e+000,
1.9968750000e+001,3.6224337782e+000,3.3389977488e+000,3.2189297585e+000,2.9801116207e+000,3.7037398922e+000,3.2310151211e+000,2.9556413472e+000,2.5731415999e+000,2.7236033143e+000,4.6585507362e+000,2.8881757410e+000,3.6438136173e+000,3.0790184678e+000,4.0310476974e+000,
2.0062500000e+001,3.5255576173e+000,3.2987583152e+000,3.1205761252e+000,2.9785827048e+000,3.6873472466e+000,3.1434512665e+000,2.8868368384e+000,2.6045121054e+000,2.6470126436e+000,4.6582111835e+000,2.9241480456e+000,3.7212570278e+000,3.0612134984e+000,4.0703010273e+000,
2.0156250000e+001,3.5589653100e+000,3.3051589272e+000,3.2151492485e+000,2.9811536695e+000,3.8872985524e+000,3.1739395317e+000,2.9126038128e+000,2.6433986959e+000,2.6054250170e+000,4.6892873531e+000,2.9611630428e+000,3.6960890466e+000,3.0790000543e+000,4.0351857042e+000,
2.0250000000e+001,3.8153798516e+000,3.3127530678e+000,3.1799444435e+000,2.9730279845e+000,4.2523717820e+000,3.2332866137e+000,3.0050631749e+000,2.7349939573e+000,2.6191741825e+000,7.0963475504e+000,2.9427790386e+000,3.6957594549e+000,3.1781150227e+000,4.1398086031e+000,
2.0343750000e+001,3.7634436598e+000,3.2518383697e+000,3.0895499783e+000,2.8943545807e+000,4.3027591070e+000,3.2558715788e+000,3.0274799690e+000,2.6877223662e+000,2.5993723331e+000,8.0608165095e+000,2.8553107889e+000,3.6777715606e+000,3.1868542597e+000,4.1472096361e+000,
2.0437500000e+001,3.8394849465e+000,3.3686658830e+000,3.2441870135e+000,3.4027493275e+000,4.2689493601e+000,3.2030322092e+000,3.0614455670e+000,2.8857466450e+000,2.6392936032e+000,8.4414017681e+000,2.8011404348e+000,3.7225086129e+000,3.2864971688e+000,4.2850517385e+000,
2.0531250000e+001,3.8807334779e+000,3.4133098676e+000,3.3119127887e+000,3.5617706112e+000,4.2996805900e+000,3.2611100304e+000,3.1470249214e+000,2.9675934230e+000,2.6128330992e+000,8.4618569066e+000,2.7066361102e+000,3.7674684818e+000,3.2503225350e+000,4.2889366409e+000,
2.0625000000e+001,3.9058668466e+000,3.4111853720e+000,3.3153073741e+000,3.5862429734e+000,4.3336354705e+000,3.2477615176e+000,3.2095213290e+000,2.9259704580e+000,2.7259325166e+000,8.4637945919e+000,2.5854487476e+000,3.7946111233e+000,3.2484351630e+000,4.2551433515e+000,
2.0718750000e+001,3.8743662205e+000,3.3641307717e+000,3.3356374933e+000,3.5992707609e+000,4.2572387563e+000,3.2612103374e+000,3.1673412491e+000,2.9171500812e+000,2.7135892173e+000,8.4656250472e+000,2.6505880342e+000,3.7285978353e+000,3.3019414396e+000,4.2393040119e+000,
2.0812500000e+001,3.8986391724e+000,3.4072733452e+000,3.4029604038e+000,3.6998083133e+000,4.2864136750e+000,3.3302421123e+000,3.1912393268e+000,3.0007286336e+000,2.8369709524e+000,8.4704570947e+000,2.5494347961e+000,3.8277647450e+000,3.2492536353e+000,4.2097102526e+000,
2.0906250000e+001,3.9453942508e+000,3.5125115210e+000,3.4142758352e+000,3.8015224305e+000,4.2940732124e+000,3.4128402053e+000,3.2094171563e+000,3.0640460411e+000,2.8404016910e+000,8.4770350914e+000,2.4808183557e+000,3.8721146267e+000,3.1649205015e+000,4.2189665171e+000,
2.1000000000e+001,4.0031063523e+000,3.5600422672e+000,3.5532088137e+000,3.9545305347e+000,4.2939028813e+000,3.3998835331e+000,3.2668699912e+000,3.1512610416e+000,2.8868391843e+000,8.4783618101e+000,2.4100041338e+000,3.8743748850e+000,3.0850451790e+000,4.2434876595e+000,
2.1093750000e+001,4.1016709889e+000,3.6411283285e+000,3.6861312757e+000,4.1431354097e+000,4.3364353662e+000,3.5309244900e+000,3.3855178047e+000,3.3164431167e+000,2.9056084322e+000,8.4813790471e+000,2.2788195496e+000,3.9154309027e+000,2.9244832363e+000,4.2985929912e+000,
2.1187500000e+001,4.0443339057e+000,3.6154614460e+000,3.7201015839e+000,4.2453889733e+000,4.0890599395e+000,3.5781693153e+000,3.3333029175e+000,3.4356691497e+000,2.9055133659e+000,8.4814299240e+000,2.1782796039e+000,4.0214602817e+000,3.0161667528e+000,4.4090583602e+000,
2.1281250000e+001,3.9856148316e+000,3.7540379377e+000,3.8256133433e+000,4.3539709269e+000,3.7918462405e+000,3.6828809321e+000,3.3240667605e+000,3.5554954267e+000,3.0206381045e+000,7.7619444410e+000,2.4760810346e+000,4.1198616503e+000,2.8671697113e+000,4.3640580275e+000,
2.1375000000e+001,4.0417220577e+000,3.8466510329e+000,3.8836853601e+000,4.4094883632e+000,3.7982980722e+000,3.7737043192e+000,3.3813945497e+000,3.6548407260e+000,3.0479698435e+000,6.8265422523e+000,2.5297361356e+000,4.0961554380e+000,2.8580131329e+000,4.2284019879e+000,
2.1468750000e+001,4.0174666588e+000,3.8047623489e+000,3.7847090338e+000,4.2568412505e+000,3.8296694728e+000,3.8100635864e+000,3.3352161052e+000,3.5937658344e+000,3.0162452811e+000,5.4028049901e+000,2.7103332600e+000,4.1634926082e+000,2.7148335794e+000,4.3127723540e+000,
2.1562500000e+001,4.0802773434e+000,3.8714485074e+000,3.7829384253e+000,4.2869782043e+000,3.8466990650e+000,3.8317349998e+000,3.3236445243e+000,3.6251624587e+000,2.9722091980e+000,5.1200247883e+000,2.9006030121e+000,4.2404063216e+000,2.7186276341e+000,4.4320703573e+000,
2.1656250000e+001,4.1022980705e+000,3.8549467042e+000,3.7878308863e+000,4.3275074635e+000,3.8282062066e+000,3.8661142017e+000,3.3117824185e+000,3.6739691677e+000,2.9064851981e+000,5.0649915972e+000,2.8822767115e+000,4.2005673703e+000,2.6030305654e+000,4.4782691176e+000,
2.1750000000e+001,4.2981948130e+000,4.0348760005e+000,3.8933263834e+000,4.5630508661e+000,3.9980906054e+000,4.0726812116e+000,3.4058264805e+000,3.8712033708e+000,2.9007510822e+000,5.0472644394e+000,2.7825483904e+000,4.2479864447e+000,2.5448428498e+000,4.4846114058e+000,
2.1843750000e+001,4.4086114233e+000,4.1337696715e+000,3.9795009260e+000,4.6724703246e+000,4.1001980073e+000,4.1823433379e+000,3.4999622146e+000,3.9698494601e+000,2.9641975362e+000,5.0028975355e+000,2.8518079745e+000,4.2596693924e+000,2.5283344734e+000,4.5600885307e+000,
2.1937500000e+001,4.4408823028e+000,4.1700496342e+000,4.0301254068e+000,4.7559079304e+000,4.2516412199e+000,4.2880229992e+000,3.6504792698e+000,4.1005475778e+000,3.0923408409e+000,4.9493650856e+000,2.9889166164e+000,4.2822712138e+000,2.9416038970e+000,4.6611929965e+000,
2.2031250000e+001,4.4323813029e+000,4.2336618847e+000,4.0100328409e+000,4.7795391623e+000,4.2961977915e+000,4.3496554549e+000,3.6694979335e+000,4.1840064691e+000,3.1197962927e+000,4.9765297204e+000,2.9533110861e+000,4.2148458669e+000,2.9677917861e+000,4.6263936722e+000,
2.2125000000e+001,4.3566089149e+000,4.1720324280e+000,3.9401669621e+000,4.6926817709e+000,4.2619585180e+000,4.2933612868e+000,3.6508765868e+000,4.1046587959e+000,3.1458009570e+000,4.8354298135e+000,3.0469069260e+000,4.2387456458e+000,3.0953135430e+000,4.5882803019e+000,
2.2218750000e+001,4.2678689059e+000,4.1304496833e+000,3.8726934028e+000,4.6263025593e+000,4.2382410656e+000,4.2327143322e+000,3.6521290963e+000,4.0389444021e+000,3.2154963068e+000,4.8656939517e+000,3.0326845262e+000,4.1947626103e+000,3.2977079047e+000,4.6622981921e+000,
2.2312500000e+001,4.1655961837e+000,3.9919122325e+000,3.7845259452e+000,4.5165846357e+000,4.1555300775e+000,4.1605116093e+000,3.5924230559e+000,3.9671449838e+000,3.2976803335e+000,4.8317517245e+000,3.0308481370e+000,4.1508421556e+000,3.3941646520e+000,4.6726513720e+000,
2.2406250000e+001,4.3410739815e+000,4.1987873565e+000,4.0858982708e+000,4.7013262981e+000,4.1967350822e+000,4.2409707362e+000,3.6327554603e+000,4.0625174833e+000,3.3545529089e+000,4.8513803798e+000,3.0378232596e+000,4.1720685876e+000,3.3701996393e+000,4.6602708337e+000,
2.2500000000e+001,4.4330230197e+000,4.2755057496e+000,4.2762896571e+000,4.8593025251e+000,4.2035567631e+000,4.2364050428e+000,3.6711260883e+000,4.1027662417e+000,3.3754780622e+000,4.9169184384e+000,3.0038665456e+000,4.1258032972e+000,3.4719939039e+000,4.6296411003e+000,
2.2593750000e+001,4.5374453514e+000,4.3724804664e+000,4.3480672329e+000,4.9221365981e+000,4.2706861058e+000,4.2842316408e+000,3.7762662932e+000,4.1400744102e+000,3.5114946987e+000,5.0243899311e+000,3.0879368541e+000,4.0802879157e+000,3.5899460220e+000,4.5076147033e+000,
2.2687500000e+001,4.9202214960e+000,4.7517090842e+000,4.6946220960e+000,5.1611110024e+000,4.6097332482e+000,4.5472850445e+000,4.1580085313e+000,4.3120536622e+000,3.6910642786e+000,5.1122030341e+000,3.1720863864e+000,4.0761743173e+000,3.6848011453e+000,4.4590087715e+000,
2.2781250000e+001,4.9722359344e+000,4.7200862584e+000,4.6966972108e+000,5.0815367804e+000,4.6607964904e+000,4.5050537179e+000,4.2335758563e+000,4.2387954366e+000,3.7322846055e+000,5.0242453716e+000,3.1098418078e+000,3.9491073442e+000,3.7475382925e+000,4.4064525796e+000,
2.2875000000e+001,4.9584496072e+000,4.7257473258e+000,4.6652893034e+000,5.0182745858e+000,4.6013851696e+000,4.4921196382e+000,4.1861750972e+000,4.1687704404e+000,3.7438859452e+000,4.9399811746e+000,3.1886976992e+000,3.8846843311e+000,3.7477093598e+000,4.2915587058e+000,
2.2968750000e+001,4.9842568930e+000,4.7236991282e+000,4.6529486211e+000,4.9782311105e+000,4.6041362774e+000,4.4701262128e+000,4.2003880752e+000,4.0979949197e+000,3.8467959570e+000,4.8980352118e+000,3.1333559122e+000,3.9328437588e+000,3.6271239171e+000,4.1350749599e+000,
2.3062500000e+001,5.0082134903e+000,4.7084672950e+000,4.6598730862e+000,4.9528676860e+000,4.6258216712e+000,4.4692356835e+000,4.2011182022e+000,4.1032619215e+000,3.8578180937e+000,5.0804265229e+000,3.2272915049e+000,4.1876298008e+000,3.6323323733e+000,4.1801035915e+000,
2.3156250000e+001,4.9991058882e+000,4.7234353263e+000,4.6588008600e+000,4.9763325758e+000,4.6102276155e+000,4.4867859872e+000,4.1527882445e+000,4.1199818731e+000,3.8295460811e+000,5.1343711762e+000,3.2183055928e+000,4.1307978413e+000,3.4962501411e+000,3.9976341060e+000,
2.3250000000e+001,5.0368694391e+000,4.7586416105e+000,4.6653769325e+000,4.9841983012e+000,4.6242182530e+000,4.5705881092e+000,4.1341563000e+000,4.1674622170e+000,3.7745964711e+000,5.1838654813e+000,3.2506662644e+000,4.2012376699e+000,3.5595446806e+000,3.7739003145e+000,
2.3343750000e+001,5.0782876826e+000,4.7596910121e+000,4.6223107093e+000,4.9590026618e+000,4.6676997245e+000,4.5729257461e+000,4.1830165919e+000,4.1445012629e+000,3.7091333632e+000,5.1599491234e+000,3.2946823884e+000,4.2256359558e+000,3.7157723806e+000,3.9801613779e+000,
2.3437500000e+001,5.0502090514e+000,4.6740236332e+000,4.5017424492e+000,4.8204546183e+000,4.6829629237e+000,4.5323435538e+000,4.1623128014e+000,4.0788161149e+000,3.6846615023e+000,5.1546474069e+000,3.3042532292e+000,4.1962653742e+000,3.7095288896e+000,3.9815134324e+000,
2.3531250000e+001,5.0109474637e+000,4.6752693915e+000,4.4281478930e+000,4.7500365352e+000,4.6587040860e+000,4.5624850076e+000,4.1306124339e+000,4.0942983216e+000,3.6402398630e+000,5.1267104793e+000,3.1768178013e+000,4.1621082194e+000,3.6448277447e+000,4.0353606941e+000,
2.3625000000e+001,4.8656358040e+000,4.5400658789e+000,4.2578058609e+000,4.6446210100e+000,4.5438220834e+000,4.4808440888e+000,3.9913552808e+000,4.0440323116e+000,3.5562494636e+000,5.0954503749e+000,3.1187012967e+000,4.2124177153e+000,3.4878985779e+000,4.1398306585e+000,
2.3718750000e+001,4.3930172848e+000,4.1315200150e+000,3.6069625639e+000,4.1928818620e+000,4.2277162292e+000,4.2784311754e+000,3.5063428540e+000,3.9002679637e+000,3.3199871836e+000,5.0962946518e+000,3.0703640907e+000,4.2215814591e+000,3.3373111332e+000,4.1423685185e+000,
2.3812500000e+001,4.3696797625e+000,4.1348267537e+000,3.5870607859e+000,4.2030627863e+000,4.2409356900e+000,4.2714845373e+000,3.4524562617e+000,3.9126916967e+000,3.2828017017e+000,5.0642666604e+000,3.3246518308e+000,4.2715977840e+000,3.3994608579e+000,4.2388997655e+000,
2.3906250000e+001,4.2616562006e+000,4.0343430827e+000,3.4550662922e+000,4.0277870696e+000,4.1770552391e+000,4.1149175328e+000,3.3347105107e+000,3.7998921510e+000,3.1105977904e+000,4.9887122120e+000,3.3402729363e+000,4.2132741334e+000,3.4447470566e+000,4.3121993255e+000,
2.4000000000e+001,4.2271069634e+000,4.0371894224e+000,3.4569608094e+000,3.9793486638e+000,4.1013315381e+000,4.1001090666e+000,3.2192952990e+000,3.7091326629e+000,2.8892645248e+000,4.8834888047e+000,3.3061230969e+000,4.1575466951e+000,3.5607580870e+000,4.3457045386e+000,
2.4093750000e+001,4.1975249440e+000,4.0286785500e+000,3.4711967234e+000,4.0224877913e+000,4.0784456603e+000,4.0564304786e+000,3.2276288681e+000,3.6961560135e+000,2.8149119009e+000,4.8154161826e+000,3.3439501709e+000,4.0818869473e+000,3.6820306359e+000,4.4510957712e+000,
2.4187500000e+001,4.1718110642e+000,3.9779492122e+000,3.4441461667e+000,3.9909696257e+000,4.0788822700e+000,3.9994861660e+000,3.2787459917e+000,3.6384215381e+000,2.9224206555e+000,4.7243241794e+000,3.3019356681e+000,3.9724782611e+000,3.6107149754e+000,4.5039687761e+000,
2.4281250000e+001,4.2124833456e+000,4.0570112038e+000,3.4665647283e+000,4.0160069553e+000,4.1007235105e+000,3.9925493133e+000,3.3662397362e+000,3.6398219546e+000,2.9558198682e+000,4.5912431349e+000,3.2900259324e+000,4.0290037110e+000,3.7854220473e+000,4.6339030327e+000,
2.4375000000e+001,4.0062200677e+000,3.9812138520e+000,3.3588467520e+000,3.9757556057e+000,3.9606539419e+000,3.9536809012e+000,3.2206544981e+000,3.6322467579e+000,2.9499712187e+000,4.6509117776e+000,3.1688622744e+000,4.0641716002e+000,3.6325717005e+000,4.6029197478e+000,
2.4468750000e+001,3.9479420208e+000,4.0089474140e+000,3.2966469895e+000,4.0039647272e+000,3.8911368880e+000,3.9786419992e+000,3.2389084795e+000,3.6432266844e+000,2.9607152640e+000,4.5927173626e+000,3.1683262435e+000,4.0787494633e+000,3.6520012849e+000,4.6084615303e+000,
2.4562500000e+001,3.9002553953e+000,3.8596481268e+000,3.2707569788e+000,3.8498629757e+000,3.8939211239e+000,3.8631452104e+000,3.2366028345e+000,3.5456663963e+000,2.9831421574e+000,4.5217455769e+000,3.1863693032e+000,4.0543814129e+000,3.6117813738e+000,4.5644010212e+000,
2.4656250000e+001,3.9288726546e+000,3.8080569111e+000,3.3117275648e+000,3.6848000067e+000,3.8434549858e+000,3.7940088017e+000,3.2362328068e+000,3.4579605348e+000,3.0131696366e+000,4.5229339105e+000,3.2424412817e+000,4.1051841882e+000,3.6710125885e+000,4.5993152074e+000,
2.4750000000e+001,3.8599005900e+000,3.7829946446e+000,3.2837556474e+000,3.5740915504e+000,3.6894512393e+000,3.7200051923e+000,3.1555116139e+000,3.2701102640e+000,2.9649853928e+000,4.4027577787e+000,3.2551160987e+000,4.2076928514e+000,3.7096495903e+000,4.6770793058e+000,
2.4843750000e+001,3.8873507744e+000,3.8259739722e+000,3.4097677896e+000,3.7196942398e+000,3.6409062799e+000,3.8219314549e+000,3.1707443596e+000,3.3434172030e+000,3.0021864453e+000,4.4881494705e+000,3.1688054150e+000,4.1686300855e+000,3.7123401285e+000,4.6573905290e+000,
2.4937500000e+001,4.0101717996e+000,3.8679079446e+000,3.5375300937e+000,3.8298019598e+000,3.7808494149e+000,3.9925202357e+000,3.3232273991e+000,3.4937235203e+000,3.0876861683e+000,4.5004875298e+000,3.1005129137e+000,4.2257482740e+000,3.6551730309e+000,4.7117883942e+000,
2.5031250000e+001,4.0986433504e+000,3.9573558195e+000,3.6853976722e+000,3.9712098218e+000,3.8589512872e+000,4.1163489715e+000,3.4403948148e+000,3.5969581073e+000,3.1648013314e+000,4.5077135012e+000,3.1644898042e+000,4.2870484577e+000,3.6273830707e+000,4.7038922237e+000,
2.5125000000e+001,4.1442991632e+000,4.0699297668e+000,3.7387470717e+000,3.9735428137e+000,3.8058098322e+000,4.2014852451e+000,3.4201557248e+000,3.5933921768e+000,3.1510353653e+000,4.4607055967e+000,3.0473655061e+000,4.2285131410e+000,3.5317916373e+000,4.5893639447e+000,
2.5218750000e+001,4.2688699624e+000,4.2081235503e+000,3.9681435762e+000,4.1459317830e+000,3.9315813731e+000,4.2283354247e+000,3.5333249810e+000,3.6250941215e+000,3.1586156286e+000,4.4793077508e+000,3.1456540430e+000,4.1762632664e+000,3.3765779697e+000,4.4671340961e+000,
2.5312500000e+001,4.2456100299e+000,4.1459056427e+000,3.9939870501e+000,4.2114052529e+000,3.9145548739e+000,4.1618913481e+000,3.5175420458e+000,3.5776246892e+000,3.1551140565e+000,4.4854220927e+000,3.0668707009e+000,4.1700919710e+000,3.1613817668e+000,4.3503783730e+000,
2.5406250000e+001,4.2969718466e+000,4.1450244582e+000,4.0332435769e+000,4.2143654483e+000,3.9856988247e+000,4.1951617847e+000,3.6292273627e+000,3.5756798138e+000,3.0976713210e+000,4.5203218121e+000,3.1044561198e+000,4.1134431682e+000,3.1389626211e+000,4.3122100628e+000,
2.5500000000e+001,4.2985251940e+000,4.1312301998e+000,4.0057573072e+000,4.1455664460e+000,3.9996873996e+000,4.1888874854e+000,3.6548169927e+000,3.6033273198e+000,3.0675505088e+000,4.5863424427e+000,3.1065391645e+000,4.1957628375e+000,3.1993042886e+000,4.3396741054e+000,
2.5593750000e+001,4.4109897837e+000,4.2111141612e+000,4.1038217034e+000,4.2126756015e+000,4.0755416730e+000,4.2744774292e+000,3.7319816251e+000,3.6821868115e+000,3.0716452841e+000,4.7000550907e+000,3.1439103844e+000,4.2743459123e+000,3.2272295771e+000,4.3869208620e+000,
2.5687500000e+001,4.5092733353e+000,4.3000576841e+000,4.1958893618e+000,4.2329245259e+000,4.1515228614e+000,4.3112565875e+000,3.8453561133e+000,3.7066535382e+000,3.0181707112e+000,4.6616044258e+000,3.0910395938e+000,4.1397299195e+000,3.2862306289e+000,4.2606155511e+000,
2.5781250000e+001,4.5657080738e+000,4.3451555819e+000,4.2235287744e+000,4.2556775200e+000,4.1991175781e+000,4.3455411489e+000,3.9132228420e+000,3.7387897596e+000,3.0442169425e+000,4.7229243874e+000,3.1596169518e+000,4.0545210049e+000,3.3091209780e+000,4.1532168792e+000,
2.5875000000e+001,4.5161879624e+000,4.3164086011e+000,4.1737448865e+000,4.2613738724e+000,4.1463044124e+000,4.2566379671e+000,3.8722820476e+000,3.7162261814e+000,3.0474012499e+000,4.7056430023e+000,3.0635707305e+000,3.9739592240e+000,3.3895080771e+000,4.0970000834e+000,
2.5968750000e+001,4.4234329078e+000,4.2795648694e+000,4.0816582967e+000,4.2127524379e+000,4.0757482077e+000,4.1553136755e+000,3.7821263591e+000,3.6126589644e+000,2.8983808993e+000,4.6960001087e+000,3.0198283241e+000,3.8624385568e+000,3.3471048476e+000,4.0224062624e+000,
2.6062500000e+001,4.3576380702e+000,4.2300400012e+000,4.0194574761e+000,4.1628913011e+000,4.0266981015e+000,4.0404140581e+000,3.7257317400e+000,3.5380810109e+000,2.8976697473e+000,4.6796428005e+000,3.1974945730e+000,3.8301501804e+000,3.3447076449e+000,4.1383522780e+000,
2.6156250000e+001,4.2823851528e+000,4.1358726416e+000,3.8677256987e+000,4.0782770727e+000,3.9356661489e+000,3.9586354382e+000,3.6367254639e+000,3.4608750679e+000,2.8636821686e+000,4.6119109734e+000,3.1812185629e+000,3.7484552780e+000,3.3007534565e+000,4.1309862734e+000,
2.6250000000e+001,4.1215275649e+000,3.9495357705e+000,3.6621783971e+000,3.8199751965e+000,3.7910186214e+000,3.8317843400e+000,3.5254367211e+000,3.3438129248e+000,2.7298884551e+000,4.5665116684e+000,3.0818188878e+000,3.7749017026e+000,3.2924425500e+000,4.1765017424e+000,
2.6343750000e+001,4.1560579132e+000,3.8947282040e+000,3.6492208408e+000,3.8368808863e+000,3.8182620112e+000,3.7476295591e+000,3.4082883863e+000,3.3814384645e+000,2.7692227914e+000,4.4728397663e+000,3.0337040734e+000,3.8866041765e+000,3.3071710202e+000,4.2779130154e+000,
2.6437500000e+001,4.1228979504e+000,3.8803321439e+000,3.6472633562e+000,3.8464837723e+000,3.8367123773e+000,3.7082641985e+000,3.3674204496e+000,3.3512661510e+000,2.7957587367e+000,4.4848907973e+000,2.9628985119e+000,3.8980555658e+000,3.2695786227e+000,4.3468121859e+000,
2.6531250000e+001,4.0594185745e+000,3.8506115559e+000,3.5998433432e+000,3.8352522637e+000,3.8229894708e+000,3.6566313565e+000,3.3138898097e+000,3.2696590126e+000,2.7934439073e+000,4.4436182424e+000,3.0763778900e+000,3.6992454243e+000,3.2856626841e+000,4.2733451816e+000,
2.6625000000e+001,3.7457619936e+000,3.5398631705e+000,3.4162298400e+000,3.8786623677e+000,3.6181004925e+000,3.3365332304e+000,3.0037961299e+000,3.1529572832e+000,2.7544468843e+000,4.2923861529e+000,3.0871566482e+000,3.6789501481e+000,3.2062308753e+000,4.2339961103e+000,
2.6718750000e+001,3.6282278043e+000,3.4732295017e+000,3.4399944955e+000,4.0291346080e+000,3.5412347228e+000,3.3684747586e+000,2.8741804600e+000,3.2979708534e+000,2.9952080377e+000,4.5091340869e+000,3.0762198793e+000,3.6718332309e+000,3.1552231053e+000,4.1823355855e+000,
2.6812500000e+001,3.6584726793e+000,3.5157285222e+000,3.5027222695e+000,4.0710213805e+000,3.5226061746e+000,3.4647645816e+000,2.9886895179e+000,3.3388161433e+000,2.9404156844e+000,4.4848379783e+000,2.9178708926e+000,3.7461791532e+000,2.9781911236e+000,4.1350025511e+000,
2.6906250000e+001,3.7510378748e+000,3.5315631912e+000,3.5996923786e+000,4.0313679693e+000,3.4856237052e+000,3.3865798253e+000,2.9864914132e+000,3.2920695883e+000,3.0762307604e+000,4.3856895742e+000,2.9471672884e+000,3.7664145345e+000,2.8183659439e+000,4.1396830133e+000,
2.7000000000e+001,3.7821454405e+000,3.5434552059e+000,3.7134195477e+000,4.0523940000e+000,3.4663681056e+000,3.3374372269e+000,3.0037321726e+000,3.2869505874e+000,3.0987969685e+000,4.3806495030e+000,2.9438368648e+000,3.7722573901e+000,2.8100939007e+000,4.0696533814e+000,
2.7093750000e+001,3.7446447043e+000,3.4302026496e+000,3.6615600595e+000,3.9870287097e+000,3.5156140080e+000,3.3071432712e+000,2.9882102137e+000,3.2832489620e+000,3.1143693684e+000,4.3768547770e+000,2.7873672185e+000,3.8207870244e+000,2.7935199209e+000,4.0047727979e+000,
2.7187500000e+001,3.7242071827e+000,3.3409321908e+000,3.6093684401e+000,3.9549798077e+000,3.6026921745e+000,3.2959530062e+000,2.9920940541e+000,3.3183702029e+000,3.1172340016e+000,4.4506105540e+000,2.7846603964e+000,3.9039582174e+000,2.9074890493e+000,4.1971681598e+000,
2.7281250000e+001,3.7895346014e+000,3.4818949869e+000,3.6172278567e+000,4.0413654269e+000,3.6931061510e+000,3.4681410165e+000,3.0174221035e+000,3.4329875649e+000,3.0990444492e+000,4.5354066537e+000,2.7708227760e+000,3.8590047791e+000,3.0003180504e+000,4.2610334749e+000,
2.7375000000e+001,3.6432372293e+000,3.4583472639e+000,3.5435425108e+000,4.0356295211e+000,3.6519124106e+000,3.5156624387e+000,2.9747984946e+000,3.4060737644e+000,3.0402600765e+000,4.4662704753e+000,2.7588201924e+000,3.7072403480e+000,2.9006835688e+000,4.1288926262e+000,
2.7468750000e+001,3.6495380726e+000,3.4694241748e+000,3.5640920066e+000,4.0624005018e+000,3.5843194775e+000,3.6152227179e+000,2.9663618897e+000,3.4796947406e+000,2.9918028062e+000,4.5063583558e+000,2.7956557844e+000,3.7912476495e+000,3.0866526700e+000,4.1698180744e+000,
2.7562500000e+001,3.7710245590e+000,3.6510174238e+000,3.7185048709e+000,4.1485765226e+000,3.7065533124e+000,3.7317945714e+000,3.0901918671e+000,3.5291178006e+000,2.9953814639e+000,4.5704543549e+000,2.5300453627e+000,3.8391535133e+000,3.1590436344e+000,4.2214665935e+000,
2.7656250000e+001,3.8939545376e+000,3.7846781140e+000,3.7141871480e+000,4.1542551134e+000,3.6829071636e+000,3.8143841474e+000,3.0727632201e+000,3.4991529608e+000,2.9150465503e+000,4.5481092401e+000,2.5286503786e+000,3.8330156847e+000,3.1678144788e+000,4.2683574230e+000,
2.7750000000e+001,3.8426452327e+000,3.7599998458e+000,3.6178483200e+000,4.0418856253e+000,3.6884547526e+000,3.7734200971e+000,2.9669249225e+000,3.4228101717e+000,2.7287460959e+000,4.4215144053e+000,2.5405351187e+000,3.8599136091e+000,3.2191283963e+000,4.3320052544e+000,
2.7843750000e+001,3.7713690418e+000,3.6580904168e+000,3.5372444401e+000,3.9995582672e+000,3.6852032956e+000,3.6690385448e+000,2.8365813059e+000,3.3675654222e+000,2.8399843747e+000,4.5281426934e+000,2.5694992074e+000,3.9684897675e+000,3.2420009176e+000,4.3458333195e+000,
2.7937500000e+001,3.6895860764e+000,3.5895879607e+000,3.3814250074e+000,3.9790608244e+000,3.7153987793e+000,3.7449889883e+000,2.8688671009e+000,3.4128153739e+000,2.8452595152e+000,4.5506791715e+000,2.5724998281e+000,3.9363674673e+000,3.2110844334e+000,4.3366194198e+000,
2.8031250000e+001,3.7768671563e+000,3.6466606467e+000,3.4724409110e+000,4.0564205826e+000,3.7532931012e+000,3.8649536918e+000,2.9702811949e+000,3.4874825990e+000,2.7655778159e+000,4.5430612820e+000,2.5723743981e+000,3.9253352028e+000,3.3928816341e+000,4.3423687157e+000,
2.8125000000e+001,3.7998037174e+000,3.6939893715e+000,3.6303854134e+000,4.0820721995e+000,3.7594335542e+000,3.8722291739e+000,3.0043816003e+000,3.4984401424e+000,2.8062717455e+000,4.5339647146e+000,2.7713998716e+000,3.9475860608e+000,3.4733787641e+000,4.3485261383e+000,
2.8218750000e+001,3.7244184106e+000,3.6764280947e+000,3.6493855065e+000,4.0498410903e+000,3.6487897048e+000,3.8423085546e+000,2.9732294186e+000,3.4123359012e+000,2.7856059581e+000,4.4675563614e+000,2.8187717395e+000,3.8367661537e+000,3.4001253386e+000,4.0449460146e+000,
2.8312500000e+001,3.7797888816e+000,3.6727597778e+000,3.7427504204e+000,4.0539272042e+000,3.6486288033e+000,3.8153557819e+000,3.0499221141e+000,3.3647614831e+000,2.8863678900e+000,4.5159608252e+000,2.9310511477e+000,3.8445245855e+000,3.3774963848e+000,4.0750041562e+000,
2.8406250000e+001,3.7772525558e+000,3.6734218196e+000,3.7030214849e+000,3.9942488696e+000,3.6089081626e+000,3.7242100518e+000,3.0706913184e+000,3.2819894265e+000,2.8698811717e+000,4.4919064828e+000,2.9568744717e+000,3.8889374180e+000,3.4065377877e+000,4.0730461676e+000,
2.8500000000e+001,3.7956445559e+000,3.6063732605e+000,3.6578723872e+000,3.9880563217e+000,3.6340634342e+000,3.6936573364e+000,3.0758214167e+000,3.2914870182e+000,2.8769211811e+000,4.6349094438e+000,3.0474134237e+000,3.8728073436e+000,3.2863775414e+000,4.0102162278e+000,
2.8593750000e+001,3.5650876506e+000,3.2628066014e+000,3.4273672287e+000,3.8035242338e+000,3.5055170766e+000,3.4738592184e+000,2.9719082657e+000,3.2209570065e+000,2.9641574382e+000,4.6064492512e+000,3.1383920762e+000,3.9288481131e+000,3.1836187834e+000,4.1156339009e+000,
2.8687500000e+001,3.5436915650e+000,3.2314590821e+000,3.4247691809e+000,3.7534617580e+000,3.5908263465e+000,3.4565851432e+000,3.1132653647e+000,3.2241473992e+000,2.9576746219e+000,4.6232416976e+000,3.1248717714e+000,3.8948486404e+000,3.1866956624e+000,4.0371325761e+000,
2.8781250000e+001,3.7424034263e+000,3.3911586635e+000,3.5675393425e+000,3.8298590819e+000,3.9145685348e+000,3.6139354672e+000,3.3403396751e+000,3.4019286783e+000,3.0976166357e+000,4.6608439701e+000,3.1391433833e+000,3.7953070010e+000,3.2289066051e+000,3.9622656345e+000,
2.8875000000e+001,3.7624340871e+000,3.4163384575e+000,3.6074375902e+000,3.8880513330e+000,3.8760672790e+000,3.6503778896e+000,3.3017441853e+000,3.4611510790e+000,3.0457340657e+000,4.5610219254e+000,3.0597146215e+000,3.7531814117e+000,3.3117799999e+000,3.9313607002e+000,
2.8968750000e+001,3.7310145161e+000,3.3608590643e+000,3.5541561186e+000,3.8963154802e+000,3.8334514782e+000,3.5895513302e+000,3.2501814750e+000,3.4189556909e+000,3.0303535295e+000,4.6235422664e+000,3.0536109867e+000,4.0217457864e+000,3.4600182113e+000,4.1924492532e+000,
2.9062500000e+001,3.9599827978e+000,3.4737548202e+000,3.6244792347e+000,3.9357067011e+000,4.0672633169e+000,3.6947267675e+000,3.5357410807e+000,3.5000927713e+000,3.0742358105e+000,4.7673928582e+000,3.1095320972e+000,4.1134325227e+000,3.4705445996e+000,4.2574291589e+000,
2.9156250000e+001,3.9732894376e+000,3.5088966288e+000,3.5400382412e+000,3.9377914858e+000,4.0705458288e+000,3.7429489249e+000,3.5473220781e+000,3.5077792793e+000,3.0435746639e+000,4.7603430053e+000,3.0137177485e+000,4.1295276467e+000,3.4278968666e+000,4.2701721305e+000,
2.9250000000e+001,3.9869449688e+000,3.5734524133e+000,3.5485214080e+000,3.9890297480e+000,4.1071464708e+000,3.8453408915e+000,3.5852813442e+000,3.5671684163e+000,3.0360496488e+000,4.7793118430e+000,3.0058632946e+000,4.1735932050e+000,3.4288743366e+000,4.2912717351e+000,
2.9343750000e+001,4.0948357293e+000,3.6525107121e+000,3.5867239968e+000,3.9804808875e+000,4.2010430894e+000,3.9328376309e+000,3.6590653315e+000,3.6508692564e+000,3.2239925431e+000,8.4036931094e+000,3.0381139967e+000,4.2806604528e+000,3.3898577770e+000,4.2809681334e+000,
2.9437500000e+001,4.0858762724e+000,3.6259495030e+000,3.6072135607e+000,4.0549904928e+000,4.2569075771e+000,3.9545362447e+000,3.6287422520e+000,3.6686341296e+000,3.3019982785e+000,9.1168579876e+000,3.0016805307e+000,4.3012641850e+000,3.3589902415e+000,4.3383938529e+000,
2.9531250000e+001,4.0534949499e+000,3.6284652664e+000,3.5775390141e+000,3.9921345740e+000,4.2557001092e+000,3.9778433525e+000,3.6265908351e+000,3.6467282670e+000,3.3169801022e+000,9.2247568081e+000,2.9147785311e+000,4.2613473444e+000,3.3453432627e+000,4.2426652169e+000,
2.9625000000e+001,4.0790864501e+000,3.6502882475e+000,3.6511523848e+000,4.0234775192e+000,4.2531303270e+000,3.9545007125e+000,3.5950199888e+000,3.6264136400e+000,3.3111902873e+000,9.2275818786e+000,2.9505813840e+000,4.2270517544e+000,3.2871556026e+000,4.1711990212e+000,
2.9718750000e+001,4.0823500698e+000,3.7648904189e+000,3.7750604499e+000,4.0467337238e+000,4.1841865658e+000,3.9944774071e+000,3.5696162731e+000,3.6381911038e+000,3.2666689171e+000,9.2278422112e+000,2.9214268335e+000,4.2796880407e+000,3.2307807718e+000,4.1936719204e+000,
2.9812500000e+001,3.9560212271e+000,3.6623509869e+000,3.7066171191e+000,3.9632960223e+000,4.0304038495e+000,3.9300606106e+000,3.4734407354e+000,3.5304931017e+000,3.3091018532e+000,9.2274638965e+000,2.9191042779e+000,4.3150903252e+000,3.1497631475e+000,4.2331602552e+000,
2.9906250000e+001,3.9977779448e+000,3.7260925747e+000,3.6857595472e+000,3.8499769012e+000,4.0631417714e+000,3.8863449425e+000,3.5182229990e+000,3.4128902388e+000,3.2684670184e+000,9.2263584298e+000,2.8867836850e+000,4.2862273730e+000,2.9413922666e+000,4.1558709431e+000,
3.0000000000e+001,4.2684042886e+000,4.0058291496e+000,3.9643563411e+000,4.0711169868e+000,4.2005683235e+000,4.0160103365e+000,3.7071912647e+000,3.5068822418e+000,3.3033256437e+000,9.2256972308e+000,2.8499951766e+000,4.1168294477e+000,2.5672792363e+000,3.9374692455e+000,
3.0093750000e+001,4.1574823506e+000,4.0050220790e+000,3.9207230914e+000,3.9906963267e+000,4.0197453620e+000,3.9312111970e+000,3.5517607060e+000,3.4248071123e+000,3.2422219486e+000,9.2249311005e+000,2.8036268766e+000,4.2126779284e+000,2.4990161131e+000,4.1533190518e+000,
3.0187500000e+001,4.1984335117e+000,3.9862478121e+000,3.9459626233e+000,3.9949786028e+000,3.9709373920e+000,3.9368163642e+000,3.6131434721e+000,3.4525136091e+000,3.2362841708e+000,9.2261008750e+000,2.9118344623e+000,4.2627090164e+000,2.3744188848e+000,4.2232411137e+000,
3.0281250000e+001,4.1209203351e+000,3.9112839921e+000,3.8565303336e+000,3.8680209141e+000,3.9348194486e+000,3.8646075027e+000,3.5294484513e+000,3.3629394210e+000,3.1773355637e+000,9.2238713981e+000,2.8139195217e+000,4.1140812790e+000,2.3654671454e+000,4.1747460106e+000,
3.0375000000e+001,4.1225087508e+000,3.9529538228e+000,3.8766292373e+000,3.8926805540e+000,3.9487194234e+000,3.9128816321e+000,3.5804203165e+000,3.3721730371e+000,3.0998628843e+000,8.5913299830e+000,2.7289547906e+000,4.0395082798e+000,2.4518832224e+000,4.2112615330e+000,
3.0468750000e+001,4.2404060999e+000,4.0383930803e+000,3.9288297211e+000,3.9160493919e+000,4.0292764518e+000,3.9453905139e+000,3.6788153072e+000,3.3593604580e+000,3.1369941660e+000,5.5566666697e+000,2.7292259010e+000,4.0097076518e+000,2.4447541245e+000,4.1325484585e+000,
3.0562500000e+001,4.2993947614e+000,4.0794899312e+000,3.9109755017e+000,3.9719430105e+000,4.1381758594e+000,3.9905754780e+000,3.7507744663e+000,3.4132303659e+000,3.1442820721e+000,4.4517577070e+000,2.6295792500e+000,4.0076960058e+000,2.7241982296e+000,4.1874181331e+000,
3.0656250000e+001,4.3385920490e+000,4.1429752320e+000,3.8928348655e+000,4.0014165917e+000,4.1631335815e+000,4.0994058427e+000,3.7457693812e+000,3.5139857693e+000,3.1876617920e+000,4.3014105861e+000,2.5813555047e+000,4.0504267976e+000,2.8374881820e+000,4.2020094597e+000,
3.0750000000e+001,4.2819957160e+000,4.0887229701e+000,3.7483315909e+000,3.9673077476e+000,4.1311296957e+000,4.0407090632e+000,3.7129979553e+000,3.5131763205e+000,3.1704455037e+000,4.4596841016e+000,2.6605964640e+000,4.0862173857e+000,2.9223645204e+000,4.2657478805e+000,
3.0843750000e+001,4.4444426195e+000,4.2152636864e+000,3.8754191205e+000,4.1140787962e+000,4.2219894383e+000,4.2322012623e+000,3.8058815484e+000,3.7277694107e+000,3.1684247314e+000,4.6374651555e+000,2.7336548448e+000,4.0689676652e+000,2.9311739781e+000,4.2471554463e+000,
3.0937500000e+001,4.5135226457e+000,4.2749731088e+000,3.8653258075e+000,4.1393943915e+000,4.2547333057e+000,4.2817919293e+000,3.8204041621e+000,3.8309187758e+000,3.2133377002e+000,4.6924642312e+000,2.8085678576e+000,4.1465034870e+000,2.9878488058e+000,4.3901572518e+000,
3.1031250000e+001,4.4435505189e+000,4.2426751994e+000,3.6585929917e+000,4.0500234937e+000,4.1506793981e+000,4.3578027500e+000,3.6845920343e+000,3.8938819373e+000,3.2687802364e+000,4.8014476970e+000,2.7241099399e+000,4.0780544768e+000,3.1750859516e+000,4.3179129113e+000,
3.1125000000e+001,4.4405093487e+000,4.2616166361e+000,3.6016049382e+000,4.0412538095e+000,4.1833509614e+000,4.3866071691e+000,3.6474424309e+000,3.9281809736e+000,3.3285642808e+000,4.9395714011e+000,2.8523639139e+000,4.2470784358e+000,3.1701176165e+000,4.2928466238e+000,
3.1218750000e+001,4.4711302185e+000,4.2832705278e+000,3.5827365628e+000,4.1388585097e+000,4.1977446173e+000,4.3331841456e+000,3.6271446180e+000,3.9642420946e+000,3.3868851735e+000,5.9059494923e+000,2.8242176561e+000,4.2829991886e+000,3.2007559076e+000,4.3268845414e+000,
3.1312500000e+001,4.6155184817e+000,4.3658586775e+000,3.7143218861e+000,4.3324135735e+000,4.4345331171e+000,4.5345756373e+000,3.8433602709e+000,4.1875645738e+000,3.7079878203e+000,6.2815496318e+000,3.0832622510e+000,4.4337213029e+000,3.3146158386e+000,4.5843480290e+000,
3.1406250000e+001,4.6205720515e+000,4.4697146943e+000,3.7336790589e+000,4.4353087370e+000,4.4431501852e+000,4.6188324560e+000,3.8878855191e+000,4.2994008128e+000,3.7131581865e+000,6.3512934320e+000,3.2458099777e+000,4.6201172870e+000,3.5208966788e+000,4.6905061977e+000,
3.1500000000e+001,4.5636470972e+000,4.4018922964e+000,3.6942374335e+000,4.3638207316e+000,4.4149052860e+000,4.5797904198e+000,3.8276628423e+000,4.2782143094e+000,3.6700549657e+000,6.3703115293e+000,3.2628769359e+000,4.6519840291e+000,3.7009505830e+000,4.7565076172e+000,
3.1593750000e+001,4.5291166569e+000,4.3887058438e+000,3.6996033084e+000,4.3252870297e+000,4.3774440450e+000,4.5371816626e+000,3.7878386033e+000,4.2714131112e+000,3.6510474401e+000,6.3773019430e+000,3.3161038137e+000,4.7124487787e+000,3.6581373757e+000,4.7880456525e+000,
3.1687500000e+001,4.5318350766e+000,4.3394298027e+000,3.7170556497e+000,4.3448237094e+000,4.3770445999e+000,4.4742085803e+000,3.7908288176e+000,4.2158361291e+000,3.6139781356e+000,6.3517313295e+000,3.3399338154e+000,4.6786107260e+000,3.6500501067e+000,4.7606884166e+000,
3.1781250000e+001,4.5955261663e+000,4.3838455054e+000,3.8193445331e+000,4.4291513737e+000,4.4403955080e+000,4.4708194794e+000,3.9107091056e+000,4.2248203247e+000,3.6305088427e+000,6.3504455142e+000,3.3515789435e+000,4.6357064562e+000,3.6667575856e+000,4.7366129371e+000,
3.1875000000e+001,4.4466130296e+000,4.2789185750e+000,3.7551810830e+000,4.3813156522e+000,4.3537403363e+000,4.3215262425e+000,3.8614973834e+000,4.0930255506e+000,3.5887430447e+000,6.3193835217e+000,3.3435592241e+000,4.6736876015e+000,3.9011343408e+000,4.8717453075e+000,
3.1968750000e+001,4.2951714101e+000,4.1269580839e+000,3.7165756807e+000,4.3335616432e+000,4.3390926755e+000,4.1814220970e+000,3.8711807275e+000,3.9919089341e+000,3.5024790527e+000,6.3098314759e+000,3.3504190553e+000,4.6773722536e+000,3.9642347378e+000,4.9017000282e+000,
3.2062500000e+001,4.3009231556e+000,4.0635394558e+000,3.8185532904e+000,4.3878915671e+000,4.3267950830e+000,4.0787695277e+000,3.8784964272e+000,3.9516065838e+000,3.4401873307e+000,6.3093907906e+000,3.4227275571e+000,4.7705867923e+000,4.1332770177e+000,5.0282551473e+000,
3.2156250000e+001,4.2886197831e+000,4.0931060276e+000,3.9292756317e+000,4.5097564166e+000,4.3082405270e+000,4.1729733182e+000,3.8765892070e+000,4.0051695111e+000,3.4521951340e+000,6.1467427755e+000,3.4895451906e+000,4.7961696757e+000,4.1360503830e+000,5.0981284333e+000,
3.2250000000e+001,4.3453393902e+000,4.1624028089e+000,4.0050017177e+000,4.6036241291e+000,4.2896532835e+000,4.1299044111e+000,3.8659703873e+000,3.9602510050e+000,3.3996451490e+000,5.6567976300e+000,3.5191477909e+000,4.8007073475e+000,4.1572850599e+000,5.0961378916e+000,
3.2343750000e+001,4.1162048577e+000,3.9551036657e+000,3.8934311329e+000,4.4747815440e+000,3.9629320181e+000,3.7602026776e+000,3.5683001853e+000,3.6761365355e+000,2.9229481389e+000,5.0188356147e+000,3.3210258792e+000,4.7519965607e+000,4.1069273409e+000,5.0446829194e+000,
3.2437500000e+001,4.1124687975e+000,3.8508701913e+000,3.8905737046e+000,4.4138989341e+000,3.8721262603e+000,3.5480068742e+000,3.5129971213e+000,3.5297544894e+000,2.9042657632e+000,4.8679228851e+000,3.2336075034e+000,4.6700396150e+000,4.0277515026e+000,4.9968304056e+000,
3.2531250000e+001,4.2485857422e+000,4.1288935112e+000,4.0856296747e+000,4.6318881176e+000,3.8822084356e+000,3.7713877320e+000,3.6399098523e+000,3.7306581963e+000,2.9890818582e+000,4.8704689924e+000,3.2592560882e+000,4.6482889684e+000,3.9117893564e+000,4.9628250246e+000,
3.2625000000e+001,4.3115609889e+000,4.1391393946e+000,4.1746099276e+000,4.7043739902e+000,3.8827093542e+000,3.8078336747e+000,3.7176839211e+000,3.7611735806e+000,3.0197227253e+000,4.8493854644e+000,3.2673948174e+000,4.5876094521e+000,3.8744394014e+000,4.9215414628e+000,
3.2718750000e+001,4.3051390094e+000,4.1512672483e+000,4.1742423324e+000,4.6922972107e+000,3.8496196394e+000,3.8790694971e+000,3.6863068295e+000,3.8228490649e+000,2.9979759151e+000,4.8269859658e+000,3.2551534014e+000,4.6125103845e+000,3.8582396881e+000,4.9860130552e+000,
3.2812500000e+001,4.2174828487e+000,4.1359970040e+000,4.1033051529e+000,4.6469158773e+000,3.7799831197e+000,3.9629309615e+000,3.5604936731e+000,3.8581133954e+000,3.0468503106e+000,4.8011869038e+000,3.2134995627e+000,4.5913248788e+000,3.7390789204e+000,4.9187963571e+000,
3.2906250000e+001,4.1966893974e+000,4.0902983658e+000,4.0487438329e+000,4.6360649546e+000,3.7136982160e+000,3.9630496802e+000,3.4533563557e+000,3.8543173838e+000,3.0682379338e+000,4.8154539411e+000,3.1104115018e+000,4.4806235691e+000,3.5108261187e+000,4.7680640904e+000,
3.3000000000e+001,4.2126399584e+000,4.0607714746e+000,4.0520483942e+000,4.6400221526e+000,3.6864784739e+000,3.9830860353e+000,3.3791605163e+000,3.8959019350e+000,3.0699800821e+000,4.8730990656e+000,3.1217730380e+000,4.4633458652e+000,3.5706566354e+000,4.7619879530e+000,
3.3093750000e+001,4.1790084914e+000,4.0040379989e+000,3.9729071846e+000,4.5359296258e+000,3.6520223305e+000,3.8965832500e+000,3.3497228212e+000,3.8076997423e+000,3.0298578419e+000,4.6359330239e+000,3.0002980725e+000,4.0884774201e+000,3.1897801953e+000,4.3841439261e+000,
3.3187500000e+001,4.0565614197e+000,3.8586632970e+000,3.8559556360e+000,4.3466460216e+000,3.6285809010e+000,3.7361655069e+000,3.2788168552e+000,3.6523015021e+000,3.0187304508e+000,4.4598936165e+000,2.8989344207e+000,4.0053284842e+000,3.2893062939e+000,4.3348954355e+000,
3.3281250000e+001,3.9706125863e+000,3.7772762876e+000,3.7943650512e+000,4.1883189673e+000,3.6119070250e+000,3.7090902910e+000,3.2758255226e+000,3.5922130020e+000,3.0231605951e+000,4.3111995009e+000,2.7422984275e+000,3.8995466478e+000,3.1682922910e+000,4.2153888351e+000,
3.3375000000e+001,4.0002188094e+000,3.8040834021e+000,3.7969236851e+000,4.1752545836e+000,3.6638701931e+000,3.6992160191e+000,3.3113375363e+000,3.5154530471e+000,3.0171780258e+000,4.2593485045e+000,2.7355654978e+000,3.7927852515e+000,3.2722070424e+000,4.1227429290e+000,
3.3468750000e+001,4.1037093589e+000,3.8508993600e+000,3.7819815155e+000,4.1730887104e+000,3.7855803338e+000,3.7973293215e+000,3.3717480101e+000,3.5206337327e+000,2.9992266340e+000,4.3320685157e+000,2.8675801165e+000,3.7576993119e+000,3.3167812076e+000,4.1665765681e+000,
3.3562500000e+001,4.0831755824e+000,3.7507755948e+000,3.5664027883e+000,3.9482300549e+000,3.8698834003e+000,3.7828413658e+000,3.3249239262e+000,3.4292539227e+000,2.9237380494e+000,4.2765869764e+000,2.7630210377e+000,3.7086492964e+000,3.2807872565e+000,4.1327938140e+000,
3.3656250000e+001,4.0876916353e+000,3.7506435434e+000,3.4867902584e+000,3.8548129832e+000,3.8745861357e+000,3.7620655605e+000,3.2496763059e+000,3.3818090952e+000,2.9327804948e+000,4.2704325028e+000,2.8178644555e+000,3.6448394021e+000,3.3144785381e+000,4.1232521888e+000,
3.3750000000e+001,4.1961896936e+000,3.7126151929e+000,3.6426449797e+000,3.9324601761e+000,4.0048716333e+000,3.7417384748e+000,3.4624661260e+000,3.3272974217e+000,2.9167925300e+000,4.2215428549e+000,2.7248156130e+000,3.5149842428e+000,3.2839641613e+000,4.0230891336e+000,
3.3843750000e+001,4.2383239496e+000,3.6667842433e+000,3.5787725374e+000,3.8342667797e+000,4.0680575313e+000,3.6740473341e+000,3.5221768907e+000,3.2324742754e+000,2.9127512945e+000,4.1930795962e+000,2.7125386027e+000,3.5262640111e+000,3.3288477032e+000,4.0162130795e+000,
3.3937500000e+001,4.2389212283e+000,3.6914259395e+000,3.6289720655e+000,3.8582067448e+000,4.0722373828e+000,3.6885213537e+000,3.5221145915e+000,3.2057510129e+000,2.8620041328e+000,4.1450756805e+000,2.7699926873e+000,3.5213515595e+000,3.2325517200e+000,4.0000269324e+000,
3.4031250000e+001,4.1660164355e+000,3.6599425782e+000,3.5660260591e+000,3.8194589671e+000,4.0754553900e+000,3.6895387990e+000,3.5709550211e+000,3.2020326123e+000,2.9051410875e+000,4.0049792795e+000,2.6052509860e+000,3.5311682599e+000,3.1248731447e+000,3.9869886520e+000,
3.4125000000e+001,4.1941371177e+000,3.7323307544e+000,3.5175396513e+000,3.8545556819e+000,4.0605415012e+000,3.7061358392e+000,3.5654282653e+000,3.2153506547e+000,2.9292871143e+000,4.0300774560e+000,2.7018464463e+000,3.5203741458e+000,3.1499546148e+000,3.9576409074e+000,
3.4218750000e+001,4.2038603814e+000,3.7499326172e+000,3.5536041395e+000,3.8836875454e+000,4.0813298089e+000,3.7152966537e+000,3.5594817796e+000,3.2299693354e+000,3.0001449308e+000,3.9778662049e+000,2.7379903797e+000,3.5837009569e+000,3.1176263658e+000,3.8460706830e+000,
3.4312500000e+001,4.1823830333e+000,3.7209893362e+000,3.5434114305e+000,3.8813895637e+000,4.0817842885e+000,3.7364068506e+000,3.5221060409e+000,3.2210691750e+000,2.9476947198e+000,4.0636892414e+000,2.7755592652e+000,3.4878516202e+000,3.0225126095e+000,3.8402455578e+000,
3.4406250000e+001,4.2026857314e+000,3.8648598827e+000,3.5709850216e+000,4.0839967996e+000,4.0716076577e+000,3.8694672600e+000,3.5640209592e+000,3.4284793669e+000,3.0712298754e+000,4.0835682629e+000,2.7833776082e+000,3.6925218012e+000,2.9991823255e+000,3.9470411593e+000,
3.4500000000e+001,4.1376666959e+000,3.8514547362e+000,3.6247133512e+000,4.0702886340e+000,4.0232296791e+000,3.7876729924e+000,3.4654359772e+000,3.3725095717e+000,3.2051009884e+000,4.0555871467e+000,2.8749763962e+000,3.7152001222e+000,3.0213904438e+000,3.9197062326e+000,
3.4593750000e+001,4.0490601803e+000,3.8813468639e+000,3.6894005278e+000,4.2587738933e+000,3.8617264026e+000,3.8771024062e+000,3.3962347541e+000,3.5121021822e+000,3.2904480085e+000,4.3035960637e+000,2.8504442313e+000,3.7640637683e+000,3.0887925419e+000,3.9559231681e+000,
3.4687500000e+001,3.9781523970e+000,3.8428821116e+000,3.6039956465e+000,4.2635076074e+000,3.9319539723e+000,3.8697356743e+000,3.3515168665e+000,3.5333953479e+000,3.3539465425e+000,6.8279347727e+000,2.8117225053e+000,3.8552307254e+000,3.2396174515e+000,4.0328513320e+000,
3.4781250000e+001,3.7967901777e+000,3.7505240519e+000,3.4788881369e+000,4.2557866225e+000,3.7574986446e+000,3.7521064032e+000,3.0692598671e+000,3.4607362551e+000,3.3039895137e+000,8.2099474850e+000,2.7481995341e+000,3.9062232069e+000,3.3453493123e+000,4.1982777301e+000,
3.4875000000e+001,3.7655157402e+000,3.7578883729e+000,3.5479712603e+000,4.2904715083e+000,3.7502570413e+000,3.7262240528e+000,3.0837412478e+000,3.4440937178e+000,3.3279023362e+000,8.5175784175e+000,2.8294347953e+000,3.9304532356e+000,3.2993480261e+000,4.2427179239e+000,
3.4968750000e+001,3.8605668270e+000,3.7744321428e+000,3.5385672623e+000,4.2622689541e+000,3.7203592092e+000,3.7466678172e+000,3.0834227720e+000,3.4757981275e+000,3.2998829423e+000,8.5360612072e+000,2.8970279180e+000,4.0115156459e+000,3.3576864707e+000,4.2712361831e+000,
3.5062500000e+001,3.8829350207e+000,3.8087273070e+000,3.6044395433e+000,4.2982842991e+000,3.7651166253e+000,3.7691621408e+000,3.0830402073e+000,3.4589279644e+000,3.2530728901e+000,8.5380171554e+000,2.8095946960e+000,4.0594032569e+000,3.3214454353e+000,4.3087147816e+000,
3.5156250000e+001,3.9676619320e+000,3.8367558065e+000,3.7592342788e+000,4.3589275598e+000,3.7922214806e+000,3.7973353014e+000,3.1740148121e+000,3.5332570161e+000,3.1468685642e+000,8.5371765613e+000,2.8297123069e+000,3.9686136557e+000,3.4428738915e+000,4.3487464616e+000,
3.5250000000e+001,3.9555587376e+000,3.8372377897e+000,3.7493881678e+000,4.3515564654e+000,3.7053088708e+000,3.8112470391e+000,3.1150542952e+000,3.5445366197e+000,3.1292798372e+000,8.5368596411e+000,2.8545063706e+000,4.0022844728e+000,3.4401336277e+000,4.3718081337e+000,
3.5343750000e+001,3.8798108001e+000,3.6226029402e+000,3.7412698660e+000,4.2684069200e+000,3.6735097199e+000,3.6555963211e+000,3.1391257699e+000,3.4613932000e+000,3.1266573463e+000,8.5361554681e+000,2.9559568987e+000,4.0666370230e+000,3.4425131132e+000,4.4641059173e+000,
3.5437500000e+001,3.6831406382e+000,3.4780576929e+000,3.6540062964e+000,4.1045740792e+000,3.3265045028e+000,3.5228271582e+000,2.8789541005e+000,3.3141191796e+000,2.9408854723e+000,8.5365434401e+000,2.8842384634e+000,3.9949962415e+000,3.4445829562e+000,4.4197925723e+000,
3.5531250000e+001,3.4753896625e+000,3.1371361659e+000,3.4499838678e+000,3.8919689101e+000,3.2615256699e+000,3.2715412545e+000,2.7999165073e+000,3.0155922173e+000,2.6393460258e+000,8.5336833441e+000,2.7842655753e+000,4.0063893930e+000,3.4089149089e+000,4.4454397517e+000,
3.5625000000e+001,3.4548606904e+000,2.9645234450e+000,3.2803977824e+000,3.5438578797e+000,3.2314751679e+000,3.0689358071e+000,2.7741295070e+000,2.7240174643e+000,2.5748769293e+000,8.5303880256e+000,2.8586840025e+000,3.9637423817e+000,3.3479503936e+000,4.4109947587e+000,
3.5718750000e+001,3.4430508368e+000,2.9496304227e+000,3.2704841758e+000,3.4856632090e+000,3.0542221510e+000,3.1742798075e+000,2.7150999385e+000,2.8064017251e+000,2.4453575126e+000,7.8858108498e+000,2.8244967648e+000,3.8107888030e+000,3.1512476521e+000,4.3050620694e+000,
3.5812500000e+001,3.4938212065e+000,3.0404949078e+000,3.3007152404e+000,3.4035460561e+000,3.0122270413e+000,3.2567237620e+000,2.7526356901e+000,2.8401932587e+000,2.4602616892e+000,6.7582684618e+000,2.8081791039e+000,3.8419506705e+000,3.0737607331e+000,4.2051214637e+000,
3.5906250000e+001,3.4215487980e+000,3.1345165089e+000,3.2870985555e+000,3.4663581072e+000,3.0736020903e+000,3.2358691018e+000,2.8601738622e+000,2.8645562335e+000,2.5271895604e+000,4.5905292472e+000,2.7577999549e+000,3.7625424005e+000,3.0323470314e+000,4.2393917545e+000,
3.6000000000e+001,3.5136896680e+000,3.2983939200e+000,3.3762052815e+000,3.7097870112e+000,3.2946263389e+000,3.4848749493e+000,2.9935811719e+000,3.0802712198e+000,2.7664490041e+000,4.3779216359e+000,2.7167761979e+000,3.8714750138e+000,2.9832469107e+000,4.2319364608e+000,
3.6093750000e+001,3.4980915599e+000,3.2471975355e+000,3.2507645279e+000,3.7688757903e+000,3.3023254406e+000,3.5756742559e+000,2.9416801312e+000,3.2512724780e+000,3.0032061328e+000,4.5503766363e+000,2.7599246219e+000,4.0439715419e+000,2.9384773022e+000,4.3169963374e+000,
3.6187500000e+001,3.4012441919e+000,3.3104305187e+000,3.0779047097e+000,3.7604271655e+000,3.3854819075e+000,3.6525629323e+000,2.9156182762e+000,3.3179304780e+000,3.0370143776e+000,4.7298920430e+000,2.8128117332e+000,4.0700083009e+000,2.9482169109e+000,4.2987675218e+000,
3.6281250000e+001,3.5282199716e+000,3.3933293211e+000,3.1218922901e+000,3.8000875932e+000,3.5207193448e+000,3.7193457501e+000,3.0371456840e+000,3.4014571336e+000,3.1039557777e+000,4.8211715052e+000,2.7707419283e+000,4.2331667859e+000,3.0353596217e+000,4.2791365850e+000,
3.6375000000e+001,3.7217871633e+000,3.5779551150e+000,3.1840460841e+000,3.8962844168e+000,3.6238662590e+000,3.8232303326e+000,3.1310294393e+000,3.4708033907e+000,3.1296508500e+000,4.8329475320e+000,2.6376064025e+000,4.2378878534e+000,3.0184587863e+000,4.3258360715e+000,
3.6468750000e+001,3.8435564377e+000,3.6538691294e+000,3.3545507692e+000,3.9537818265e+000,3.7530545946e+000,3.9226960627e+000,3.2882831297e+000,3.5443833548e+000,3.2769526447e+000,4.8775416378e+000,2.6303863188e+000,4.2019583981e+000,3.0398015661e+000,4.2880972738e+000,
3.6562500000e+001,3.8749486406e+000,3.6913556848e+000,3.4629262666e+000,3.9731040151e+000,3.8006427528e+000,3.9402248369e+000,3.3304975859e+000,3.5492202879e+000,3.2608913053e+000,4.8943746035e+000,2.5957006298e+000,4.2176963567e+000,3.0689250577e+000,4.3001745737e+000,
3.6656250000e+001,3.9111002017e+000,3.7502299271e+000,3.5585320670e+000,4.0328008470e+000,3.8532907925e+000,3.9342195337e+000,3.3748077981e+000,3.5510579242e+000,3.3198972407e+000,4.9649512174e+000,2.7725616389e+000,4.2503715428e+000,3.1270233623e+000,4.3591686520e+000,
3.6750000000e+001,4.1834583017e+000,3.9683450828e+000,3.9565299549e+000,4.3166512389e+000,4.0477956372e+000,4.1080128580e+000,3.6622745309e+000,3.7442731955e+000,3.5238282148e+000,4.9779154450e+000,2.8536174945e+000,4.2099400567e+000,3.2129885790e+000,4.3878854101e+000,
3.6843750000e+001,4.2089899620e+000,3.9969367117e+000,4.0095576655e+000,4.3400095953e+000,4.1330184631e+000,4.1680132166e+000,3.7459773367e+000,3.8193370358e+000,3.6173451672e+000,4.9680962082e+000,2.9064183051e+000,4.2582601567e+000,3.2990498301e+000,4.4160284508e+000,
3.6937500000e+001,4.1875660451e+000,3.9491571519e+000,3.9717540335e+000,4.2890174820e+000,4.1038452423e+000,4.1463953842e+000,3.6962929012e+000,3.7832231875e+000,3.5738598151e+000,4.9617850320e+000,2.9325509869e+000,4.2625035003e+000,3.4029764473e+000,4.4195930296e+000,
3.7031250000e+001,4.0735965290e+000,3.8520723342e+000,3.9145892705e+000,4.0813477287e+000,3.9766573910e+000,3.9605089555e+000,3.6187816927e+000,3.5806159845e+000,3.3813206573e+000,4.7919863017e+000,2.8816842139e+000,4.0604023276e+000,3.4903380563e+000,4.3693499782e+000,
3.7125000000e+001,4.1349001257e+000,3.8857479992e+000,3.9883253201e+000,4.0732920074e+000,3.9993015809e+000,3.9631708771e+000,3.6370328773e+000,3.5676082231e+000,3.2985312314e+000,4.7551826521e+000,2.7319817015e+000,4.0715198299e+000,3.4210524456e+000,4.3308998648e+000,
3.7218750000e+001,4.0839470559e+000,3.8035129718e+000,3.9742795387e+000,4.0246027558e+000,3.9491406373e+000,3.8894116942e+000,3.5939415360e+000,3.4470433558e+000,3.2561319208e+000,4.5207563960e+000,2.6529164592e+000,3.9473761576e+000,3.3982644058e+000,4.3474197008e+000,
3.7312500000e+001,3.9897623910e+000,3.7562882304e+000,3.9254606919e+000,4.0090438841e+000,3.8345384695e+000,3.8189226557e+000,3.4881016735e+000,3.3828844789e+000,3.2181789958e+000,4.4627518171e+000,2.6855487159e+000,3.8360919301e+000,3.4284654460e+000,4.3067149209e+000,
3.7406250000e+001,3.8524870536e+000,3.6820500200e+000,3.9265927744e+000,4.0426631294e+000,3.8255024239e+000,3.7986161597e+000,3.4964942024e+000,3.5119147959e+000,3.3363198935e+000,4.4080516829e+000,2.6929493520e+000,3.7876838474e+000,3.4589932322e+000,4.2045409411e+000,
3.7500000000e+001,3.8978047073e+000,3.7629899723e+000,4.0096781235e+000,4.2384429274e+000,3.8578988386e+000,3.8798875664e+000,3.5298665918e+000,3.6243712816e+000,3.3770945139e+000,4.4420742360e+000,2.7356239086e+000,3.8350365382e+000,3.4753933366e+000,4.2653245302e+000,
3.7593750000e+001,3.9371620546e+000,3.7957187957e+000,3.9541678949e+000,4.2336908216e+000,3.8807807656e+000,3.8953387188e+000,3.5343923195e+000,3.6383511695e+000,3.4190360808e+000,4.7082660088e+000,2.4969095400e+000,3.7836566262e+000,3.4651365488e+000,4.2271702446e+000,
3.7687500000e+001,3.8640992351e+000,3.7604929246e+000,3.8707554655e+000,4.1292548162e+000,3.8453907882e+000,3.8896772958e+000,3.4527223848e+000,3.6099922774e+000,3.2938650411e+000,4.7035818332e+000,2.5385622143e+000,3.8303763636e+000,3.4294154883e+000,4.1563958347e+000,
3.7781250000e+001,3.5082451010e+000,3.5408957730e+000,3.5107020080e+000,3.8620406544e+000,3.5902469365e+000,3.6589135378e+000,3.0475161194e+000,3.3657519883e+000,3.0061614855e+000,4.5478965263e+000,2.4539224374e+000,3.8549557064e+000,3.3868302492e+000,4.1393578498e+000,
3.7875000000e+001,3.5208755586e+000,3.5650722961e+000,3.5287312908e+000,3.8708667727e+000,3.5063813151e+000,3.6328816999e+000,2.9854120129e+000,3.3465864407e+000,2.9444999972e+000,4.5659724845e+000,2.1635098394e+000,3.7904309436e+000,3.2037100294e+000,4.1273123707e+000,
3.7968750000e+001,3.6333053019e+000,3.6484658110e+000,3.6749879575e+000,3.9881625868e+000,3.6124276039e+000,3.7086315257e+000,3.1305029693e+000,3.4172570003e+000,3.0125918287e+000,4.6440407473e+000,2.3126507929e+000,3.8642070414e+000,3.1674618554e+000,4.1756428364e+000,
3.8062500000e+001,3.5955200602e+000,3.5507766040e+000,3.6242653425e+000,3.9624197168e+000,3.5698995169e+000,3.6521219423e+000,3.0636524039e+000,3.3871800165e+000,3.0369379403e+000,4.6818469106e+000,2.4733118500e+000,3.8355097363e+000,3.0886249806e+000,4.1449934747e+000,
3.8156250000e+001,3.4595252517e+000,3.4725677492e+000,3.5338411035e+000,3.8943986728e+000,3.4674523561e+000,3.5779786076e+000,3.0125193549e+000,3.3089625205e+000,3.0553548353e+000,4.6489019007e+000,2.4862517838e+000,3.8668123430e+000,3.1333608246e+000,4.2055669773e+000,
3.8250000000e+001,3.4892653718e+000,3.4593174999e+000,3.5180558511e+000,3.8585179369e+000,3.4520449304e+000,3.5577206568e+000,3.0452528574e+000,3.3133503853e+000,3.0489953004e+000,4.6358849834e+000,2.4537208455e+000,3.8347323411e+000,3.1001972026e+000,4.1239590456e+000,
3.8343750000e+001,3.5534200661e+000,3.5562828593e+000,3.5455029435e+000,3.9506755788e+000,3.4617543461e+000,3.6492241805e+000,3.0746429986e+000,3.4125857859e+000,3.0601956106e+000,4.6962336710e+000,2.6980998825e+000,3.8317640766e+000,2.9530809159e+000,4.1322803818e+000,
3.8437500000e+001,3.5182621454e+000,3.5708187426e+000,3.4388426746e+000,3.8022150389e+000,3.3038162056e+000,3.5370083005e+000,2.9677015431e+000,3.1643663860e+000,2.7152391133e+000,4.6018210903e+000,2.8124307037e+000,3.7301408251e+000,2.8604339946e+000,4.1166042224e+000,
3.8531250000e+001,3.3848519149e+000,3.4493556440e+000,3.2527858447e+000,3.5163291319e+000,3.2886038810e+000,3.4411187263e+000,2.9146491086e+000,3.0645078273e+000,2.7884525752e+000,4.5910272526e+000,2.7955795698e+000,3.6967028969e+000,2.9517248819e+000,4.0781887651e+000,
3.8625000000e+001,3.3236824306e+000,3.3992469743e+000,3.3048526401e+000,3.5373720615e+000,3.1634831486e+000,3.3649624787e+000,2.9699100454e+000,3.0033372708e+000,2.7386604830e+000,4.3393314284e+000,2.8189788644e+000,3.8487375232e+000,3.0792218921e+000,4.2207378449e+000,
3.8718750000e+001,3.4270093015e+000,3.3362147549e+000,3.3607546311e+000,3.5442881228e+000,3.1654347194e+000,3.2281921054e+000,2.9644736933e+000,2.9095727650e+000,2.7514278173e+000,4.3839493434e+000,2.9028476603e+000,3.7900826830e+000,3.1358926719e+000,4.2328932420e+000,
3.8812500000e+001,3.5419036243e+000,3.4633653765e+000,3.4291198100e+000,3.6991663565e+000,3.2420888474e+000,3.3185128972e+000,3.0665688523e+000,3.0131176853e+000,2.6952036647e+000,4.4480585251e+000,3.0462830313e+000,3.9301608511e+000,3.2152541549e+000,4.3882544693e+000,
3.8906250000e+001,3.4582491122e+000,3.4257013360e+000,3.3282391260e+000,3.6498043968e+000,3.2772408311e+000,3.3010775756e+000,3.0582845886e+000,2.9865646241e+000,2.6992920896e+000,4.4064760018e+000,3.0732725358e+000,3.9899581276e+000,3.2241807688e+000,4.4962757317e+000,
3.9000000000e+001,3.5716209938e+000,3.4338816182e+000,3.4287002343e+000,3.6743141225e+000,3.3050669814e+000,3.3654121657e+000,3.1010084201e+000,3.0665160497e+000,2.8338760021e+000,4.3786228586e+000,3.0584201244e+000,3.9693422852e+000,3.3330120304e+000,4.5228936972e+000,
3.9093750000e+001,3.5788711011e+000,3.4574698335e+000,4.2115696914e+000,3.6762560530e+000,3.3841888471e+000,3.4145082721e+000,3.1642835956e+000,3.1349614579e+000,2.9437224583e+000,4.3933462179e+000,3.0507466144e+000,3.9794511271e+000,3.4299951044e+000,4.6343388206e+000,
3.9187500000e+001,3.6974463040e+000,3.5567988010e+000,4.2518258752e+000,3.7143479173e+000,3.4838655834e+000,3.5379091473e+000,3.2231172602e+000,3.2184632460e+000,3.0314378703e+000,4.4359229004e+000,3.1041019995e+000,3.9822844820e+000,3.3997061802e+000,4.6613851385e+000,
3.9281250000e+001,3.7274092477e+000,3.5375696612e+000,4.2735415722e+000,3.6947801566e+000,3.5220850263e+000,3.5278310992e+000,3.2028704262e+000,3.1525334413e+000,3.0512651219e+000,4.4767946921e+000,3.0559379762e+000,4.0099595678e+000,3.4156381129e+000,4.6797451038e+000,
3.9375000000e+001,3.6797256403e+000,3.4030997014e+000,4.2523009537e+000,3.5977355011e+000,3.5649295951e+000,3.4240842042e+000,3.1968292939e+000,3.0761598953e+000,3.0593031211e+000,4.5258733855e+000,2.9424174169e+000,4.0659364085e+000,3.4446246854e+000,4.6888901202e+000,
3.9468750000e+001,3.7391197208e+000,3.4895869697e+000,4.2870279934e+000,3.7272034343e+000,3.5375144381e+000,3.4842242072e+000,3.2072743036e+000,3.0898347992e+000,3.0290767132e+000,4.5452272718e+000,2.8517240451e+000,4.0959986216e+000,3.5405971324e+000,4.6659067243e+000,
3.9562500000e+001,3.7392585418e+000,3.4750787777e+000,4.2730631605e+000,3.6839915578e+000,3.5578954973e+000,3.5000877850e+000,3.1668061565e+000,3.1023339154e+000,2.9648886766e+000,4.4835267199e+000,2.9893210017e+000,4.1375301785e+000,3.4919843311e+000,4.6516492548e+000,
3.9656250000e+001,3.6951999471e+000,3.4791282795e+000,4.2609659247e+000,3.7132487649e+000,3.5102870553e+000,3.5470431419e+000,3.0877521568e+000,3.1325883238e+000,2.9335247108e+000,4.4614084084e+000,2.9804770852e+000,4.1042295047e+000,3.6416373505e+000,4.7136681351e+000,
3.9750000000e+001,3.6099900561e+000,3.4781689732e+000,4.2450535677e+000,3.7515303043e+000,3.4877269702e+000,3.6122126905e+000,3.0581878805e+000,3.2686088763e+000,2.9017438744e+000,4.4704632299e+000,2.9788816474e+000,4.1329131169e+000,3.6189888106e+000,4.7338452598e+000,
3.9843750000e+001,3.5233743543e+000,3.3461943004e+000,4.2061401888e+000,3.5743456622e+000,3.5694688817e+000,3.7040570182e+000,3.0586186919e+000,3.3602025226e+000,3.1114641369e+000,4.5994459518e+000,2.8313180494e+000,4.1230943606e+000,3.6438192693e+000,4.7228344120e+000,
3.9937500000e+001,3.4933408523e+000,3.3765059266e+000,4.2194158990e+000,3.5712306665e+000,3.6664670590e+000,3.7629449439e+000,3.0790234128e+000,3.4045533001e+000,3.1008296756e+000,4.7093558278e+000,2.8498477739e+000,4.0917712835e+000,3.6818597624e+000,4.6438373370e+000,
4.0031250000e+001,3.5502420210e+000,3.5091996851e+000,3.6778280682e+000,3.5501991184e+000,3.8346292491e+000,3.8421146307e+000,3.0867839017e+000,3.4422212580e+000,3.0254959486e+000,4.7008433404e+000,2.7899680800e+000,4.0796126831e+000,3.5763816127e+000,4.5649573056e+000,
4.0125000000e+001,3.7021560639e+000,3.6623234952e+000,3.4762808619e+000,3.7110861909e+000,3.9031679968e+000,3.9768890318e+000,3.2041242418e+000,3.6170766789e+000,3.0700559652e+000,4.6812257360e+000,2.7534492065e+000,4.0938867358e+000,3.4971155591e+000,4.4516421113e+000,
4.0218750000e+001,3.7218490160e+000,3.7386427398e+000,3.4573081989e+000,3.7736509473e+000,3.9473006648e+000,4.0238755900e+000,3.2216300034e+000,3.6420434622e+000,3.0596418315e+000,4.7863933174e+000,2.7113840620e+000,4.2025515851e+000,3.5102772913e+000,4.4546667947e+000,
4.0312500000e+001,3.9070000619e+000,3.9259824411e+000,3.5769027352e+000,3.9666330670e+000,4.0440289391e+000,4.1422291519e+000,3.4220530447e+000,3.7786378137e+000,3.1527363207e+000,4.7940186357e+000,2.6665296253e+000,4.1886424420e+000,3.4904943801e+000,4.4721172609e+000,
4.0406250000e+001,4.0515144958e+000,4.0258592200e+000,3.6240103417e+000,4.0331842473e+000,4.1231835792e+000,4.2213154197e+000,3.5113428400e+000,3.8645397307e+000,3.2051937435e+000,4.8959831267e+000,2.6762813778e+000,4.2478395119e+000,3.4412728079e+000,4.4766405329e+000,
4.0500000000e+001,4.1240505591e+000,4.0419872916e+000,3.5869748558e+000,4.0725497756e+000,4.1640203964e+000,4.2716914731e+000,3.5428062632e+000,3.9489075887e+000,3.2294352520e+000,5.0294752373e+000,2.7204303320e+000,4.2581381345e+000,3.4090345300e+000,4.5039478810e+000,
4.0593750000e+001,4.1113813549e+000,4.0371257042e+000,3.6101532721e+000,4.0718498211e+000,4.1365597481e+000,4.2553949325e+000,3.5035709072e+000,3.9457190661e+000,3.1748523039e+000,5.0529700090e+000,2.5684451678e+000,4.1882847922e+000,3.3107078417e+000,4.3960852240e+000,
4.0687500000e+001,4.1190612401e+000,4.0601445837e+000,3.6343052770e+000,4.1276864768e+000,4.2229097991e+000,4.2434631412e+000,3.5019758881e+000,3.9785013856e+000,3.2129076430e+000,5.0479030099e+000,2.5409612550e+000,4.0917879081e+000,3.1085617105e+000,4.2712492331e+000,
4.0781250000e+001,4.1576126035e+000,4.1225983140e+000,3.7652522796e+000,4.2970267895e+000,4.2200337249e+000,4.2583726451e+000,3.4942772521e+000,3.9977327435e+000,3.2229810108e+000,5.0429629085e+000,2.4790699286e+000,4.0676097071e+000,3.1546852367e+000,4.1879660297e+000,
4.0875000000e+001,4.1831234109e+000,4.1064024694e+000,3.8474955265e+000,4.3337716982e+000,4.1618498521e+000,4.1490165400e+000,3.5116189509e+000,3.9204377328e+000,3.1124188673e+000,4.9398711957e+000,2.6185156909e+000,3.9729972974e+000,3.0893378979e+000,4.0433068864e+000,
4.0968750000e+001,4.1179503645e+000,4.0638555769e+000,3.7932536962e+000,4.3173445436e+000,4.0913696262e+000,4.0718917369e+000,3.4467505363e+000,3.8544919200e+000,3.1304861218e+000,4.8978849094e+000,2.5487413412e+000,4.1414646218e+000,3.2126732270e+000,4.2157869765e+000,
4.1062500000e+001,4.0625614037e+000,3.9791919712e+000,3.7175578685e+000,4.2714198964e+000,3.9602810340e+000,3.9786371009e+000,3.3648701117e+000,3.7776611114e+000,3.0548710954e+000,4.9006980470e+000,2.5710732633e+000,4.1385448796e+000,3.3476080087e+000,4.2557248975e+000,
4.1156250000e+001,3.9617947312e+000,3.8623156208e+000,3.6360323241e+000,4.2244005383e+000,3.8682223760e+000,3.8731394249e+000,3.3137004142e+000,3.6541882794e+000,2.9194709639e+000,4.9008307851e+000,2.5400179357e+000,4.0371714103e+000,3.3612531971e+000,4.2362379654e+000,
