Time (s),AF3,AF4,F3,F4,F7,F8,FC5,FC6,T7,T8,P7,P8,O1,O2,Sampling Rate
0.0000000000e+000,3.4971628992e+000,3.4963285362e+000,2.6766166910e+000,3.0475381664e+000,3.8020805765e+000,3.6843802036e+000,3.2851934180e+000,4.0255415865e+000,5.3519768026e+000,3.4855237950e+000,2.8054005329e+000,3.4003309962e+000,3.4171274650e+000,4.3128665100e+000,1
9.3750000000e-002,3.3063822754e+000,3.3606858803e+000,2.6567969154e+000,2.9749586749e+000,3.6865837465e+000,3.6047343026e+000,3.1712734173e+000,4.0455688845e+000,5.2845694083e+000,3.4776082879e+000,2.7596314221e+000,3.4161938119e+000,3.2920778485e+000,4.3195470475e+000,
1.8750000000e-001,3.2672701213e+000,3.3736547209e+000,2.6340649501e+000,3.0066270486e+000,3.4914726125e+000,3.5858841043e+000,3.1341981698e+000,4.0328935920e+000,5.1758278862e+000,3.4616765051e+000,2.7292227090e+000,3.4725948249e+000,3.2203251298e+000,4.3279892152e+000,
2.8125000000e-001,3.3171638033e+000,3.4454891725e+000,2.7478006699e+000,3.0388114302e+000,3.4843104767e+000,3.6262165180e+000,3.2004535188e+000,3.9862711279e+000,5.2149213555e+000,3.4773724964e+000,2.7611099165e+000,3.4484762685e+000,3.1592943444e+000,4.3051106235e+000,
3.7500000000e-001,3.2317312805e+000,3.4429372786e+000,2.6610186937e+000,3.0775099857e+000,3.3968988680e+000,3.6360879608e+000,3.0445517147e+000,3.9738645042e+000,5.2127542928e+000,3.5143737890e+000,2.8360864441e+000,3.4339583665e+000,3.0325860184e+000,4.4502577286e+000,
4.6875000000e-001,3.2319534081e+000,3.5086022234e+000,2.6467237727e+000,3.0980501707e+000,3.3139257929e+000,3.6790660106e+000,3.0715134849e+000,3.9519157765e+000,5.1849611802e+000,3.6600116948e+000,2.8010307203e+000,3.4451811999e+000,3.0212579999e+000,4.4864638552e+000,
5.6250000000e-001,3.2990604472e+000,3.5227213890e+000,2.7348385086e+000,3.1793668405e+000,3.3351693753e+000,3.6873446045e+000,3.0543158536e+000,3.8556999156e+000,5.3841157961e+000,3.6864045377e+000,3.0061493729e+000,3.4985712478e+000,3.2805948589e+000,4.5823866171e+000,
6.5625000000e-001,3.3747628522e+000,3.5868085150e+000,2.8930988227e+000,3.2373545040e+000,3.3701657213e+000,3.7084610612e+000,3.0078566892e+000,4.1250375907e+000,5.3424467768e+000,3.7954909118e+000,3.0125576616e+000,3.7179309225e+000,3.4111543421e+000,4.7108811102e+000,
7.5000000000e-001,3.3611629028e+000,3.5563846162e+000,3.0537479459e+000,3.2698849984e+000,3.2809732921e+000,3.7022320296e+000,2.9902462326e+000,4.1178608237e+000,5.3157930087e+000,3.8522750372e+000,3.0588518439e+000,3.8211226139e+000,3.3560564542e+000,4.6845175164e+000,
8.4375000000e-001,3.3416272297e+000,3.5266377262e+000,3.0430749226e+000,3.2389530174e+000,3.2244111781e+000,3.6701497538e+000,2.9352750655e+000,4.0886608713e+000,5.2519571055e+000,3.7929722124e+000,2.9955465578e+000,3.8792093142e+000,3.1709647795e+000,4.7066493210e+000,
9.3750000000e-001,3.2995625844e+000,3.4158685057e+000,3.0099045189e+000,3.2105651751e+000,3.2024277511e+000,3.6216838066e+000,2.9495322422e+000,4.0761941126e+000,5.3552285208e+000,3.8754258901e+000,2.9849180672e+000,3.9217070453e+000,3.2137772034e+000,4.8003836863e+000,
1.0312500000e+000,3.2872210751e+000,3.3021348768e+000,3.0112747102e+000,3.0879918281e+000,3.1551751281e+000,3.3670569254e+000,3.0268593412e+000,4.0348686258e+000,5.3283015613e+000,3.7937719200e+000,3.0522650528e+000,3.9133747830e+000,3.3630999668e+000,4.8306424859e+000,
1.1250000000e+000,3.2984121486e+000,3.3022002051e+000,3.0412652730e+000,3.1491354170e+000,3.1738267748e+000,3.3595683707e+000,3.0671771260e+000,4.0531678929e+000,5.3591320225e+000,3.8062140707e+000,3.0530684084e+000,3.8653818604e+000,3.4246389909e+000,4.8546807397e+000,
1.2187500000e+000,3.3713218005e+000,3.3286040717e+000,3.1385841519e+000,3.1951238964e+000,3.3392506246e+000,3.3121104057e+000,3.0209198197e+000,4.0178750525e+000,5.3250363046e+000,3.7777637624e+000,3.1402522418e+000,3.8374273204e+000,3.4295756708e+000,4.8637857788e+000,
1.3125000000e+000,3.4866349531e+000,3.3700331945e+000,3.0890571840e+000,3.3437042829e+000,3.3371944067e+000,3.3725918697e+000,3.0629473709e+000,4.0510273180e+000,5.3068184372e+000,3.8003109096e+000,3.0956088355e+000,3.8674747942e+000,3.4760055518e+000,4.8901625572e+000,
1.4062500000e+000,3.5380070535e+000,3.3517558685e+000,3.2029585078e+000,3.2198284877e+000,3.6095127318e+000,3.5153040916e+000,3.0171830218e+000,3.9866058904e+000,5.2765988542e+000,3.7673695080e+000,3.1097062499e+000,3.8810488674e+000,3.5867535459e+000,4.8607758221e+000,
1.5000000000e+000,3.6196523530e+000,3.4508405531e+000,3.2794295547e+000,3.3131505668e+000,3.6456306591e+000,3.6681846633e+000,3.0976416737e+000,3.9514904037e+000,5.1792974105e+000,3.7070540316e+000,3.0542128293e+000,3.8710901173e+000,3.5255092536e+000,4.8339825221e+000,
1.5937500000e+000,3.6899073840e+000,3.5978023267e+000,3.3036340176e+000,3.3337944716e+000,3.6989287059e+000,3.7041446286e+000,3.1060986004e+000,3.9220398110e+000,5.0743314364e+000,3.6557143800e+000,3.0094830032e+000,3.8426668640e+000,3.4579467795e+000,4.7331516252e+000,
1.6875000000e+000,3.7261233129e+000,3.6428513898e+000,3.2454848458e+000,3.3528182561e+000,3.7235786842e+000,3.7388503876e+000,3.1407980157e+000,3.7899625285e+000,5.0393545507e+000,3.5829707889e+000,2.9330255007e+000,3.6862183542e+000,3.4851799030e+000,4.6575723095e+000,
1.7812500000e+000,3.7201832540e+000,3.7821833836e+000,3.1013757428e+000,3.5486459944e+000,3.7047314891e+000,3.7764313336e+000,3.0917346245e+000,3.9611161070e+000,5.0390046439e+000,3.7495594517e+000,2.9558910969e+000,3.9467361793e+000,3.5944400153e+000,4.6288680941e+000,
1.8750000000e+000,3.8409075900e+000,3.8557422236e+000,3.2143038617e+000,3.6393653232e+000,3.6955405532e+000,3.7755284847e+000,3.1254320314e+000,3.9500217185e+000,5.0266219899e+000,3.6706821747e+000,3.0519541993e+000,3.8691777437e+000,3.6451331230e+000,4.5742609071e+000,
1.9687500000e+000,3.8696046650e+000,3.9118279529e+000,3.2634951179e+000,3.6979976663e+000,3.7279845611e+000,3.7923187572e+000,3.1356444334e+000,3.9005738965e+000,4.9310422759e+000,3.6139881572e+000,3.0662350140e+000,3.8498811327e+000,3.5744939325e+000,4.5244459794e+000,
2.0625000000e+000,3.9853515305e+000,4.0035867173e+000,3.3626577308e+000,3.7704770995e+000,3.7714479931e+000,3.8322749299e+000,3.0692307305e+000,3.8858844068e+000,5.0903801557e+000,3.6345117070e+000,3.0428708206e+000,3.8416365427e+000,3.4796582296e+000,4.5201821778e+000,
2.1562500000e+000,4.0430133285e+000,4.0743867195e+000,3.4471403627e+000,3.8173794655e+000,3.7003188751e+000,3.8056079107e+000,3.0034917690e+000,3.9814180106e+000,5.1229366680e+000,3.6356554623e+000,2.9678012138e+000,3.8997848163e+000,3.4297062655e+000,4.5367419874e+000,
2.2500000000e+000,3.9611302548e+000,4.0063142259e+000,3.3699465969e+000,3.6828643170e+000,3.7212338748e+000,3.6974173019e+000,3.0097244688e+000,4.0123773118e+000,5.2530137698e+000,3.5758479317e+000,2.9373973164e+000,3.9176590658e+000,3.4754929749e+000,4.5559408821e+000,
2.3437500000e+000,3.9568569508e+000,4.0094911618e+000,3.4263455903e+000,3.6911799256e+000,3.7253609924e+000,3.6687864994e+000,2.9858356419e+000,4.0092108778e+000,5.2224845663e+000,3.5491243162e+000,2.8966554889e+000,3.9646742557e+000,3.3922509567e+000,4.5376463974e+000,
2.4375000000e+000,3.9434062072e+000,4.0338090837e+000,3.3996505098e+000,3.7798316526e+000,3.5164432004e+000,3.4747482086e+000,3.0768648466e+000,4.1202934490e+000,5.2587894595e+000,3.5842157263e+000,2.9959030695e+000,3.9916608838e+000,3.4218627476e+000,4.5292480289e+000,
2.5312500000e+000,3.8589652800e+000,3.9751013410e+000,3.3116571540e+000,3.7273301228e+000,3.4627051099e+000,3.4019709525e+000,2.9198327039e+000,4.1346841602e+000,5.3176168519e+000,3.6158213621e+000,3.1007197267e+000,4.0846695080e+000,3.4899884163e+000,4.5751819815e+000,
2.6250000000e+000,3.7305886468e+000,3.7807550143e+000,3.2635508135e+000,3.6802264078e+000,3.3456072339e+000,3.2702727487e+000,2.8676882165e+000,4.1508743701e+000,5.3088203407e+000,3.6916587111e+000,2.9930307978e+000,4.1456883199e+000,3.3936790304e+000,4.6584417946e+000,
2.7187500000e+000,3.7509874129e+000,3.8478795537e+000,3.2957171329e+000,3.6158324788e+000,3.2673014578e+000,3.3525272277e+000,2.9069561913e+000,4.1487634373e+000,5.2504571253e+000,3.6454993287e+000,2.9995482979e+000,4.0515411116e+000,3.3525126760e+000,4.6352402054e+000,
2.8125000000e+000,3.7222480629e+000,3.8007941634e+000,3.3458686618e+000,3.4852989344e+000,3.2053167945e+000,3.3445193969e+000,2.9367103534e+000,4.1213193028e+000,5.2962080512e+000,3.5360781333e+000,2.8747104495e+000,4.0305981572e+000,3.3091915085e+000,4.6151792692e+000,
2.9062500000e+000,3.7877544176e+000,3.8282901030e+000,3.3281311605e+000,3.4036288366e+000,3.2714161896e+000,3.4353393179e+000,2.8500953914e+000,4.1105366495e+000,5.3216542019e+000,3.4918926683e+000,3.0275159462e+000,4.1467825085e+000,3.4200929596e+000,4.6517510573e+000,
3.0000000000e+000,3.7067878023e+000,3.7912344120e+000,3.2717580282e+000,3.3129656604e+000,3.2346136006e+000,3.3970856173e+000,2.8666341042e+000,4.1379456392e+000,5.2093731030e+000,3.5140937166e+000,3.0828817556e+000,4.1927253909e+000,3.4239106681e+000,4.6709848623e+000,
3.0937500000e+000,3.5822994580e+000,3.7169209230e+000,3.1113081041e+000,3.2176911760e+000,3.1526527849e+000,3.2900453414e+000,2.9451759931e+000,4.0511680096e+000,4.9816113239e+000,3.3900676723e+000,3.0157440389e+000,4.1103028467e+000,3.4007799537e+000,4.5573750559e+000,
3.1875000000e+000,3.5421005387e+000,3.7056361988e+000,3.0966477013e+000,3.2155047743e+000,3.2017329093e+000,3.3622665968e+000,2.9797822540e+000,3.9200927220e+000,4.8835072641e+000,3.5670674141e+000,3.0024968174e+000,4.1267575038e+000,3.4092689472e+000,4.5619215653e+000,
3.2812500000e+000,3.5325958228e+000,3.6628699938e+000,3.1343204859e+000,3.3193828985e+000,3.0045711945e+000,3.3909110353e+000,2.8898672110e+000,4.1293561989e+000,4.8345758927e+000,3.8053959512e+000,2.9634766252e+000,4.1052100931e+000,3.4671982930e+000,4.6460138356e+000,
3.3750000000e+000,3.6529018078e+000,3.6820011381e+000,3.1389959527e+000,3.2861736598e+000,3.1392663483e+000,3.4273791317e+000,2.9084204044e+000,4.2626852817e+000,4.7982597441e+000,3.8568416390e+000,2.8695465861e+000,4.0771149045e+000,3.4465480933e+000,4.6394865379e+000,
3.4687500000e+000,3.6768546862e+000,3.6306477790e+000,3.1719312143e+000,3.1598007982e+000,3.2063746550e+000,3.4337484309e+000,2.9472670266e+000,4.1955378584e+000,4.7180350950e+000,3.8419663815e+000,2.7294003003e+000,3.9997921922e+000,3.3466066280e+000,4.6455485314e+000,
3.5625000000e+000,3.7602607040e+000,3.6278876656e+000,3.2124943793e+000,3.1422687713e+000,3.3510202034e+000,3.3952471653e+000,3.1293725509e+000,4.1485934098e+000,4.7830770200e+000,3.8336762288e+000,2.7272566877e+000,3.8507064789e+000,3.2016903597e+000,4.5755253069e+000,
3.6562500000e+000,3.7699275766e+000,3.5979787431e+000,3.1772803894e+000,3.1497982519e+000,3.3711263473e+000,3.3795277726e+000,3.1656616114e+000,4.0994478024e+000,4.7734618345e+000,3.7956413905e+000,2.8772308129e+000,3.9155921027e+000,3.2839809534e+000,4.6571246132e+000,
3.7500000000e+000,3.7149495225e+000,3.4668459506e+000,3.0986223468e+000,3.0507876266e+000,3.4240604691e+000,3.2673736713e+000,3.0533668988e+000,3.9850095766e+000,4.8328291721e+000,3.7726841001e+000,2.8983063233e+000,3.8343637948e+000,3.2213135608e+000,4.6416055208e+000,
3.8437500000e+000,3.6584045339e+000,3.4526424894e+000,3.0547221267e+000,3.1761346255e+000,3.4842516962e+000,3.3234128810e+000,3.1230540549e+000,4.0308745760e+000,4.8276714906e+000,3.9006467346e+000,2.9353969026e+000,3.7020559449e+000,3.1763379008e+000,4.6650431254e+000,
3.9375000000e+000,3.5435217741e+000,3.3963488342e+000,2.9586836351e+000,3.1816198656e+000,3.4843135162e+000,3.2407443672e+000,3.1577411689e+000,4.0339040525e+000,4.8530181434e+000,3.9323027740e+000,2.8212048920e+000,3.5269367926e+000,3.0443403035e+000,4.5764261715e+000,
4.0312500000e+000,3.5527606900e+000,3.2698336297e+000,2.9770268612e+000,3.2116628791e+000,3.4388577481e+000,3.2372252567e+000,3.0882100439e+000,4.1610327210e+000,4.9557268978e+000,3.9439546329e+000,2.9066222179e+000,3.5843315094e+000,3.0208257104e+000,4.6281930234e+000,
4.1250000000e+000,3.6701327754e+000,3.4346941989e+000,3.1866714943e+000,3.3437462836e+000,3.4693355060e+000,3.3738733958e+000,3.0855277672e+000,4.1847195522e+000,4.9954589509e+000,4.0332094493e+000,3.0002315982e+000,3.6197728339e+000,2.9904960877e+000,4.6834591694e+000,
4.2187500000e+000,3.7653408046e+000,3.5282223711e+000,3.1744709969e+000,3.1464210435e+000,3.5162182833e+000,3.3892236890e+000,3.1963544450e+000,4.1136688505e+000,5.0250537869e+000,3.8829683291e+000,3.0731687493e+000,3.5444856233e+000,2.9850288502e+000,4.6361715481e+000,
4.3125000000e+000,3.7076740462e+000,3.5435139347e+000,3.1582514446e+000,3.2410282682e+000,3.5267396519e+000,3.4396519878e+000,3.2567556199e+000,3.9048763123e+000,5.0727314745e+000,3.8271150387e+000,3.0657227798e+000,3.6919387995e+000,2.9035156346e+000,4.6660070163e+000,
4.4062500000e+000,3.7389131770e+000,3.5785555897e+000,3.2196979879e+000,3.2967330671e+000,3.5708502669e+000,3.6268169787e+000,3.2554408764e+000,4.0381120171e+000,5.1966149983e+000,3.8226110023e+000,3.2137272411e+000,3.8031419059e+000,3.0512436571e+000,4.6776603261e+000,
4.5000000000e+000,3.9068672966e+000,3.7757639977e+000,3.3862445183e+000,3.4672863534e+000,3.7736513782e+000,3.7099862407e+000,3.2099156838e+000,4.0989105448e+000,5.2281900828e+000,3.7512659859e+000,3.2765808159e+000,3.7737628000e+000,3.1551299760e+000,4.6915217506e+000,
4.5937500000e+000,3.9770983282e+000,3.7911713424e+000,3.4193272211e+000,3.4329011475e+000,3.8242969753e+000,3.7223974270e+000,3.0687622879e+000,4.2068617672e+000,5.1614970805e+000,3.7304928438e+000,3.3318827567e+000,3.9057100640e+000,3.3481295107e+000,4.7240023623e+000,
4.6875000000e+000,4.0358173314e+000,3.9247098408e+000,3.4921528429e+000,3.5520067767e+000,3.8047869277e+000,3.9003729286e+000,3.1050550998e+000,4.2992699647e+000,5.1621517867e+000,3.9650140340e+000,3.3597526671e+000,4.0555795852e+000,3.3689924233e+000,4.7712579376e+000,
4.7812500000e+000,4.1132973562e+000,4.0120757582e+000,3.5888527793e+000,3.6575399306e+000,3.8166181925e+000,3.9626446053e+000,3.2525329708e+000,4.7848035074e+000,5.1246923823e+000,4.1344612516e+000,3.3581164800e+000,4.1994655089e+000,3.5249117475e+000,4.7234218999e+000,
4.8750000000e+000,4.0856577532e+000,3.9821231638e+000,3.5727222178e+000,3.5977413087e+000,3.7384918760e+000,3.9161147228e+000,3.1673491152e+000,4.8060604595e+000,5.1543831894e+000,4.0879420054e+000,3.3705629705e+000,4.2169476516e+000,3.5632006517e+000,4.8067568508e+000,
4.9687500000e+000,4.1146065751e+000,4.0100799512e+000,3.6018959713e+000,3.5902890088e+000,3.7312562766e+000,3.9563980741e+000,3.2108700766e+000,4.8201962357e+000,5.2133275671e+000,4.1381562559e+000,3.2902395924e+000,4.1862592615e+000,3.5289978283e+000,4.8119089135e+000,
5.0625000000e+000,4.1391950096e+000,4.0721970503e+000,3.6069832675e+000,3.6499790873e+000,3.7610232558e+000,3.9816098240e+000,3.3003708250e+000,4.8182020536e+000,5.2908632761e+000,4.1592922095e+000,3.2837218168e+000,4.2129037981e+000,3.6680743579e+000,4.8210658018e+000,
5.1562500000e+000,3.9924920120e+000,3.9512325495e+000,3.3990301742e+000,3.6067472693e+000,3.7123328154e+000,3.9082921917e+000,3.2718792598e+000,4.8342722573e+000,5.3804659885e+000,4.0347653711e+000,3.4065847885e+000,4.2264347148e+000,3.6709046720e+000,4.8168383497e+000,
5.2500000000e+000,3.9985869583e+000,3.9179121611e+000,3.4074493464e+000,3.6395129834e+000,3.6637095812e+000,3.9059151108e+000,3.1542739955e+000,4.8616085215e+000,5.4262859316e+000,4.0772057732e+000,3.4099901694e+000,4.1931689411e+000,3.6553623512e+000,4.7907093008e+000,
5.3437500000e+000,4.0255481222e+000,3.9786981101e+000,3.4541885507e+000,3.5789218494e+000,3.6285176568e+000,3.8746434144e+000,3.2438770769e+000,4.8098588590e+000,5.3579279884e+000,4.1140716683e+000,3.3772208572e+000,4.0856590510e+000,3.6574492328e+000,4.7311151686e+000,
5.4375000000e+000,3.9242362573e+000,3.8931471111e+000,3.3085195766e+000,3.4288404391e+000,3.5322278990e+000,3.6957793600e+000,3.1244900698e+000,4.7564205390e+000,5.3154754117e+000,4.1226603438e+000,3.2142261573e+000,4.0808038234e+000,3.5612934171e+000,4.7184489184e+000,
5.5312500000e+000,3.7189543322e+000,3.7775211202e+000,3.1255051159e+000,3.3527385699e+000,3.1235532785e+000,3.6137226606e+000,3.2011203276e+000,4.7172377916e+000,5.3515548182e+000,4.1436726281e+000,3.1774829382e+000,4.0810758043e+000,3.4819313717e+000,4.7387995284e+000,
5.6250000000e+000,3.5867518214e+000,3.6903058512e+000,3.0669041983e+000,3.3166644039e+000,2.9769498390e+000,3.5785375489e+000,3.2144021394e+000,4.6512994597e+000,5.4201982961e+000,4.0535247063e+000,3.0641149975e+000,3.8638570244e+000,3.3618196228e+000,4.6229989852e+000,
5.7187500000e+000,3.4598840134e+000,3.5222563398e+000,2.9536961448e+000,3.2032442543e+000,3.3287096848e+000,3.3821681817e+000,3.2306391951e+000,4.3432249516e+000,5.4033359790e+000,3.9091743941e+000,3.0335348472e+000,3.6293417514e+000,3.3304446995e+000,4.5110007514e+000,
5.8125000000e+000,3.3402215538e+000,3.5161228174e+000,2.8074552354e+000,3.2046077976e+000,3.2480386817e+000,3.3773696582e+000,3.1733060942e+000,4.1817281222e+000,5.3615919160e+000,3.8599250731e+000,3.0526370291e+000,3.4858230584e+000,3.3684986073e+000,4.5284073038e+000,
5.9062500000e+000,3.3269622526e+000,3.4906110125e+000,2.7264540973e+000,3.1959447649e+000,3.2714054672e+000,3.3655743802e+000,3.1639521775e+000,4.1062869884e+000,5.3239209370e+000,3.8593492409e+000,3.0388619328e+000,3.5525719022e+000,3.3078724035e+000,4.4906451825e+000,
6.0000000000e+000,3.2556332650e+000,3.3965133326e+000,2.7377619749e+000,3.1705951434e+000,3.3016614466e+000,3.2797860079e+000,3.1441786827e+000,4.0474924018e+000,5.2413350340e+000,3.9189362495e+000,3.1426727874e+000,3.7667433439e+000,3.2658112997e+000,4.5691121525e+000,
6.0937500000e+000,3.1848088490e+000,3.3901199030e+000,2.7474376400e+000,3.1183122188e+000,3.3485517113e+000,3.3829220793e+000,3.0168656048e+000,3.9974940414e+000,5.1005661990e+000,3.9891441441e+000,3.0033281182e+000,3.7170944534e+000,3.1898841078e+000,4.4910544404e+000,
6.1875000000e+000,3.1865765376e+000,3.4413235741e+000,2.7515321569e+000,3.2402564805e+000,3.3941349279e+000,3.4041077774e+000,3.0619626936e+000,3.9090494203e+000,5.0819804645e+000,4.0311594623e+000,2.8605468175e+000,3.7041435433e+000,3.1631716875e+000,4.5006557568e+000,
6.2812500000e+000,3.1762322253e+000,3.4240990526e+000,2.6926288747e+000,3.2897799170e+000,3.3704455055e+000,3.4924600267e+000,3.0097960117e+000,3.8505770996e+000,5.0437864051e+000,3.9434238795e+000,2.9286140674e+000,3.8061082222e+000,3.2388492621e+000,4.6286382015e+000,
6.3750000000e+000,3.1429937579e+000,3.3437677836e+000,2.5199762345e+000,3.2999139753e+000,3.2998121532e+000,3.4525193807e+000,2.9936613377e+000,3.8648840830e+000,5.0665531343e+000,4.0200906697e+000,2.9542072106e+000,3.9643396318e+000,3.2235187926e+000,4.6769072392e+000,
6.4687500000e+000,3.0658474509e+000,3.3668887499e+000,2.4565941655e+000,3.2770175986e+000,3.3979138693e+000,3.5232842261e+000,3.0287452089e+000,3.8526949408e+000,4.9916825401e+000,4.0554692453e+000,3.0624117642e+000,3.9852148847e+000,3.2542892175e+000,4.6458829266e+000,
6.5625000000e+000,3.1369455439e+000,3.4048101961e+000,2.6381948616e+000,3.2773101145e+000,3.5723348797e+000,3.5598892433e+000,3.0118482226e+000,3.9732159349e+000,5.0388112008e+000,4.0856912985e+000,3.0761719531e+000,4.0122313273e+000,3.3030596175e+000,4.6463448372e+000,
6.6562500000e+000,3.1927581447e+000,3.4782244757e+000,2.8083537913e+000,3.3619588328e+000,3.4526426741e+000,3.6131333617e+000,2.9533108635e+000,3.9524811906e+000,4.9627365618e+000,4.0976466665e+000,3.0078828717e+000,4.0490611101e+000,3.2522215839e+000,4.6671559989e+000,
6.7500000000e+000,3.2414196240e+000,3.5035044524e+000,2.9407661977e+000,3.4341461126e+000,3.4117245087e+000,3.5967680493e+000,3.0118680992e+000,4.0235599702e+000,4.9189315875e+000,4.0480253989e+000,3.0772224697e+000,3.9622172119e+000,3.1805256660e+000,4.6196518296e+000,
6.8437500000e+000,3.3127263822e+000,3.4979227755e+000,2.8892296855e+000,3.3064370209e+000,3.4644025878e+000,3.5759365703e+000,3.0006828009e+000,4.0130067344e+000,4.8817255117e+000,4.0208352446e+000,3.0469373300e+000,4.0062064897e+000,3.0228654319e+000,4.6011181636e+000,
6.9375000000e+000,3.2656749318e+000,3.4627073387e+000,2.8864632512e+000,3.2874403226e+000,3.4748467104e+000,3.5761876510e+000,3.0147664370e+000,4.0873796418e+000,4.9061981168e+000,4.0025167554e+000,3.0966551952e+000,3.9913553627e+000,3.1115342926e+000,4.6082766104e+000,
7.0312500000e+000,3.2691767879e+000,3.4892259444e+000,2.8866679377e+000,3.2305011389e+000,3.3775682119e+000,3.4682841829e+000,3.0210912504e+000,4.1259850212e+000,4.8068610945e+000,3.8731572606e+000,2.9041913259e+000,3.8696025146e+000,3.1152593237e+000,4.5224532478e+000,
7.1250000000e+000,3.3978123593e+000,3.6109396318e+000,2.8677864863e+000,3.3193117467e+000,3.4595692292e+000,3.7256751342e+000,2.9826751016e+000,4.1700454479e+000,4.7723822195e+000,3.9768875179e+000,2.9188612390e+000,3.9821575400e+000,3.1832572763e+000,4.6794794696e+000,
7.2187500000e+000,3.3376258848e+000,3.6219325238e+000,2.9146542210e+000,3.2385950439e+000,3.4281166149e+000,3.7429159267e+000,2.9471391075e+000,4.2101296826e+000,4.8316576816e+000,3.9851734533e+000,2.9503632192e+000,4.1856760614e+000,3.1827427303e+000,4.8723466711e+000,
7.3125000000e+000,3.2782667126e+000,3.4950353074e+000,2.9447602219e+000,3.2593156887e+000,3.4313449618e+000,3.5957817357e+000,2.9635790476e+000,4.2020988337e+000,4.6900670247e+000,3.8952322828e+000,2.8830634741e+000,4.0807754085e+000,3.1450219550e+000,4.8460691826e+000,
7.4062500000e+000,3.4250573709e+000,3.6655191427e+000,3.0458427185e+000,3.3373754080e+000,3.4839031411e+000,3.7960459873e+000,3.1355242833e+000,4.2314110291e+000,4.7193960263e+000,3.9329405637e+000,2.8894600571e+000,4.1619020075e+000,3.0868935304e+000,4.8491395153e+000,
7.5000000000e+000,3.4398831125e+000,3.6789447558e+000,3.0611697214e+000,3.4164691360e+000,3.3930829787e+000,3.8002859671e+000,3.1453044041e+000,4.1999937428e+000,4.6966358635e+000,3.8004679262e+000,2.8617256033e+000,4.1908687210e+000,3.1703593566e+000,4.9151255818e+000,
7.5937500000e+000,3.4465159963e+000,3.7268393327e+000,2.9697858584e+000,3.3942361373e+000,3.2066738376e+000,3.8256180662e+000,3.1185142158e+000,4.1325346935e+000,4.6964366081e+000,3.7569187983e+000,2.9304829569e+000,4.2157209864e+000,3.1895125755e+000,4.9309009036e+000,
7.6875000000e+000,3.4649519389e+000,3.7729251693e+000,2.7979152386e+000,3.3580902404e+000,3.1082803172e+000,3.8754503256e+000,3.1035330514e+000,4.2768334347e+000,4.7988018619e+000,3.7132371912e+000,2.9258786612e+000,4.2258626666e+000,3.2538554464e+000,4.9602773087e+000,
7.7812500000e+000,3.5139411697e+000,3.8379576310e+000,2.8438411618e+000,3.3737914307e+000,3.1204666575e+000,3.9339095092e+000,3.0749029964e+000,4.1530057942e+000,4.8266938308e+000,3.6650943563e+000,2.8223421485e+000,4.2273854133e+000,3.2558039494e+000,4.9534499616e+000,
7.8750000000e+000,3.6140089404e+000,3.9259750321e+000,2.8881564623e+000,3.4368372657e+000,3.1534577914e+000,3.9611027845e+000,3.0804099403e+000,4.1442101550e+000,4.9652282615e+000,3.7634292254e+000,2.8916314360e+000,4.1404106922e+000,3.2845982130e+000,4.9462136706e+000,
7.9687500000e+000,3.6343977531e+000,3.9329687073e+000,2.8769338092e+000,3.4617355282e+000,3.1577993173e+000,3.9912248289e+000,3.0455775352e+000,4.1374754154e+000,4.9713686289e+000,3.7692630250e+000,2.9098728041e+000,4.1339592622e+000,3.2493997919e+000,4.9662943062e+000,
8.0625000000e+000,4.7605193912e+000,3.9623852992e+000,3.3052064384e+000,3.4683892377e+000,3.2228510642e+000,3.9812518249e+000,3.2151137070e+000,4.2715079668e+000,4.9338390202e+000,3.7643529585e+000,2.9302497083e+000,4.1246961380e+000,3.3769596528e+000,4.9856960502e+000,
8.1562500000e+000,5.9633899419e+000,4.0908729001e+000,3.3344291169e+000,3.4393281796e+000,3.4064737376e+000,4.0048681310e+000,3.2974042043e+000,4.3905281376e+000,4.9919778348e+000,3.5305580358e+000,3.1017737269e+000,3.8900160441e+000,3.4012458045e+000,4.7238733764e+000,
8.2500000000e+000,6.1228487777e+000,4.2831138754e+000,3.3060412729e+000,3.4823968756e+000,3.6515043637e+000,4.1104098050e+000,3.2778944796e+000,4.4375348329e+000,5.0885908372e+000,3.5467776118e+000,3.1176565167e+000,3.6894819884e+000,3.4050446262e+000,4.6097081233e+000,
8.3437500000e+000,6.1486445061e+000,4.3095394994e+000,3.3579458568e+000,3.5036050688e+000,3.7280600317e+000,4.1420657067e+000,3.3165212430e+000,4.4725533560e+000,5.0822310205e+000,3.6015028891e+000,3.1358807003e+000,3.7209601417e+000,3.4985835084e+000,4.6778895203e+000,
8.4375000000e+000,6.1407426874e+000,4.2214252488e+000,3.3242116284e+000,3.3779971860e+000,3.6912182201e+000,4.1043302723e+000,3.1749056097e+000,4.5087769570e+000,5.2262816246e+000,3.5477869127e+000,3.3881239413e+000,3.8639970745e+000,3.6116045495e+000,4.8070149231e+000,
8.5312500000e+000,6.1408752216e+000,4.2437257103e+000,3.3513080079e+000,3.5165569185e+000,3.6802146274e+000,4.1376996734e+000,3.2222738064e+000,4.5556053138e+000,5.2993897874e+000,3.6380767341e+000,3.3859139592e+000,3.9620237543e+000,3.6009147113e+000,4.7526945928e+000,
8.6250000000e+000,6.1391912327e+000,4.2419097058e+000,3.3844326643e+000,3.4917877455e+000,3.6538854653e+000,4.0637667838e+000,3.3271943488e+000,4.4969798967e+000,5.4161383762e+000,3.7212833554e+000,3.4661404205e+000,4.0955391073e+000,3.6384237864e+000,4.7012574762e+000,
8.7187500000e+000,6.1482132518e+000,4.2230412182e+000,3.3546362979e+000,3.3571804914e+000,3.6752800173e+000,3.9315521447e+000,3.3105533137e+000,4.3711410531e+000,5.5388818795e+000,3.8069856961e+000,3.4949630126e+000,4.0891954039e+000,3.6135679059e+000,4.6803471754e+000,
8.8125000000e+000,6.1830572883e+000,4.4559789975e+000,3.4458914207e+000,3.5169200387e+000,3.8387238408e+000,4.0448659887e+000,3.3882023650e+000,4.4419769831e+000,5.6617310686e+000,3.9752107878e+000,3.4934098831e+000,4.1499207437e+000,3.8127154111e+000,4.8104284873e+000,
8.9062500000e+000,6.1810628502e+000,4.4242391211e+000,3.4590331491e+000,3.5397685087e+000,3.8709581804e+000,4.0802039213e+000,3.5487496106e+000,4.4372681913e+000,5.7557767017e+000,4.1701325519e+000,3.5102010988e+000,4.3969431055e+000,3.8843832784e+000,4.8169962950e+000,
9.0000000000e+000,6.1840453386e+000,4.4283355682e+000,3.4396891274e+000,3.5845007829e+000,4.0080126867e+000,4.0633323355e+000,3.5626763203e+000,4.5025433821e+000,5.8987966155e+000,4.2239163407e+000,3.5770935378e+000,4.5463865407e+000,3.8867155807e+000,4.8949246347e+000,
9.0937500000e+000,5.7061566803e+000,4.3657165619e+000,3.0374631385e+000,3.4811260718e+000,4.0372048354e+000,4.0377103903e+000,3.5532682887e+000,4.4406866760e+000,6.3495911879e+000,4.6505445610e+000,3.7289579051e+000,4.6388671983e+000,3.8229332446e+000,4.9399510307e+000,
9.1875000000e+000,4.5381624571e+000,4.1839564614e+000,3.1231416003e+000,3.5718872318e+000,3.9720679394e+000,4.0812823665e+000,3.7407009921e+000,4.5636543285e+000,6.8430106375e+000,5.2630007955e+000,3.8575990001e+000,4.6874823102e+000,3.8691428438e+000,4.9413529656e+000,
9.2812500000e+000,4.1268519740e+000,4.1816089258e+000,3.1108636247e+000,3.6483766815e+000,3.9718118257e+000,4.1031594120e+000,3.8724716797e+000,4.7332184470e+000,7.3544561923e+000,5.8981821213e+000,4.2206200584e+000,4.8972312656e+000,3.9944447708e+000,5.0595309881e+000,
9.3750000000e+000,4.1508210253e+000,4.2404569666e+000,3.1622049735e+000,3.6897019156e+000,3.9922595713e+000,4.1422788380e+000,3.9559341415e+000,4.9162975631e+000,7.5072518063e+000,5.9495504714e+000,4.3396952722e+000,5.0119002256e+000,3.9979232995e+000,5.0748002119e+000,
9.4687500000e+000,4.1655697628e+000,4.3092221828e+000,3.1105588571e+000,3.7704807038e+000,3.9824243948e+000,4.1640638150e+000,4.0001314123e+000,4.9396356232e+000,7.6766561017e+000,6.0780538309e+000,4.4821446271e+000,4.9933079361e+000,3.9600912729e+000,5.0153594473e+000,
9.5625000000e+000,4.1422240073e+000,4.3422993422e+000,3.1532476408e+000,3.7951248921e+000,4.0039424794e+000,4.1504821757e+000,3.9948022032e+000,5.0366976448e+000,7.8508420172e+000,6.1693451068e+000,4.6138629689e+000,5.0118952192e+000,4.0039709630e+000,5.0773645927e+000,
9.6562500000e+000,4.1312685011e+000,4.3340722485e+000,3.1862616393e+000,3.8064445283e+000,4.0330663518e+000,4.2107866708e+000,4.6887451189e+000,5.1026461684e+000,7.8853634205e+000,6.2512798369e+000,4.6498081431e+000,4.9917449900e+000,4.0180348015e+000,5.0633584654e+000,
9.7500000000e+000,3.8460907554e+000,4.1666929015e+000,3.1402102511e+000,3.7901338144e+000,3.9497846464e+000,4.2723699913e+000,4.7294957218e+000,5.0884418360e+000,7.9215330289e+000,6.2890361320e+000,4.6905453968e+000,5.0570699127e+000,4.0157542402e+000,5.1076965589e+000,
9.8437500000e+000,3.7639066128e+000,4.1283037785e+000,3.1713697533e+000,3.8329420967e+000,3.8628321057e+000,4.3470164720e+000,4.7385984450e+000,5.2057355760e+000,7.9780853728e+000,6.3335652937e+000,4.8156517654e+000,5.1560343423e+000,3.8367741486e+000,5.0161476872e+000,
9.9375000000e+000,3.6900976291e+000,4.1108389131e+000,3.1739466927e+000,3.7657430448e+000,3.8243370087e+000,4.3674941059e+000,4.8132878210e+000,5.2376546994e+000,8.2007629229e+000,6.5422011741e+000,5.0736897128e+000,5.1922937173e+000,3.9476810734e+000,5.1484793559e+000,
1.0031250000e+001,3.7459121469e+000,4.1574378719e+000,3.2702000598e+000,3.8797117539e+000,3.7602619862e+000,4.4458196375e+000,4.8305421142e+000,5.1931899925e+000,8.2633085234e+000,6.5692194050e+000,5.1219897994e+000,5.1683676205e+000,3.9100590848e+000,5.0645726409e+000,
1.0125000000e+001,3.7812483255e+000,4.1453603191e+000,3.2844443790e+000,3.8594131655e+000,3.6905843921e+000,4.3561483849e+000,4.9417753282e+000,5.2510826498e+000,8.3304051750e+000,6.6177540869e+000,5.1813715418e+000,5.2600911755e+000,4.0245910278e+000,5.2310729273e+000,
1.0218750000e+001,3.8011054062e+000,4.1042040532e+000,3.3139920023e+000,3.7837947948e+000,3.6141541264e+000,4.2403554428e+000,4.8955861044e+000,5.1855422670e+000,8.2437930374e+000,6.4218609026e+000,5.2068562010e+000,5.2677861567e+000,4.0210624682e+000,5.3191544327e+000,
1.0312500000e+001,3.7539902063e+000,4.1287876386e+000,3.3633333966e+000,3.7665064378e+000,3.5395711740e+000,4.2753930483e+000,4.8978696316e+000,5.0983311968e+000,8.2168340567e+000,6.3832414661e+000,5.1850613706e+000,5.1555430808e+000,3.9555624953e+000,5.2913190536e+000,
1.0406250000e+001,3.7697874016e+000,4.2396597508e+000,3.3286531341e+000,3.7909996415e+000,3.5742366134e+000,4.3264962249e+000,4.9133431374e+000,5.0464972000e+000,8.2654669695e+000,6.4156456438e+000,5.2110770265e+000,5.1357233969e+000,3.9818425564e+000,5.2271779599e+000,
1.0500000000e+001,3.7280627354e+000,4.1312147464e+000,3.3386877455e+000,3.6940898688e+000,3.5756597186e+000,4.3533482306e+000,4.9306901008e+000,5.0906475404e+000,8.1961841245e+000,6.3456367503e+000,5.1374880829e+000,5.1625201271e+000,3.9953565566e+000,5.2136531071e+000,
1.0593750000e+001,3.7248230161e+000,4.1122862328e+000,3.3898378280e+000,3.7110267034e+000,3.6855441024e+000,4.4112007669e+000,4.9197869929e+000,5.1537026496e+000,8.2490777485e+000,6.4341650166e+000,5.1738084267e+000,5.1979354836e+000,4.0212104141e+000,5.1919223224e+000,
1.0687500000e+001,3.6932808298e+000,4.0968545040e+000,3.4406603371e+000,3.6984437140e+000,3.8490717210e+000,4.3955782365e+000,4.7365077571e+000,5.3018542672e+000,8.3446102794e+000,6.5127044453e+000,5.3086479132e+000,5.2237204731e+000,4.0806333470e+000,5.1927348441e+000,
1.0781250000e+001,3.6638744246e+000,4.1304278920e+000,3.4281247967e+000,3.7029307331e+000,3.8828389450e+000,4.3720605671e+000,4.7549151268e+000,5.3032463535e+000,8.4110286776e+000,6.5922400875e+000,5.3494682394e+000,5.2670393576e+000,4.1060474422e+000,5.2092962276e+000,
1.0875000000e+001,3.6202813422e+000,4.1277597878e+000,3.4377050001e+000,3.6732308713e+000,3.8108904033e+000,4.3295494724e+000,4.7874687112e+000,5.2179644878e+000,8.4483996311e+000,6.5982879579e+000,5.3285398132e+000,5.1673519032e+000,4.1132637892e+000,5.1821500944e+000,
1.0968750000e+001,3.6819414590e+000,4.2163714712e+000,3.4940490967e+000,3.7774170643e+000,3.9379439440e+000,4.4147447787e+000,4.8646433478e+000,5.2421127141e+000,8.4251778712e+000,6.4084923453e+000,5.2442523241e+000,5.1393150361e+000,4.0765536213e+000,5.2230176758e+000,
1.1062500000e+001,3.7437148274e+000,4.3082165869e+000,3.4673281587e+000,3.6530270564e+000,3.9666074526e+000,4.3362655510e+000,4.8721213456e+000,5.3037896470e+000,8.4864784126e+000,6.5673956013e+000,5.3363975920e+000,5.2842354118e+000,4.1503536024e+000,5.1407722007e+000,
1.1156250000e+001,3.6026872358e+000,4.2634334976e+000,3.4000726788e+000,3.6676155192e+000,3.9325169832e+000,4.3428037467e+000,4.7605123307e+000,5.2604306160e+000,8.4157471165e+000,6.4895359559e+000,5.2473845844e+000,5.2724505601e+000,4.1137056785e+000,4.9812036879e+000,
1.1250000000e+001,3.6439166331e+000,4.2482114250e+000,3.4243783258e+000,3.7342066811e+000,3.9805923762e+000,4.3576651273e+000,4.7912402340e+000,5.3435455139e+000,8.4616260482e+000,6.6011541188e+000,5.2498883247e+000,5.3048139932e+000,4.2146767647e+000,5.0477982231e+000,
1.1343750000e+001,3.6205467210e+000,4.2063359769e+000,3.3937793811e+000,3.7231187836e+000,3.9780708629e+000,4.3620847360e+000,4.7984594583e+000,5.3612757465e+000,8.4931163410e+000,6.6581955111e+000,5.2782446706e+000,5.3726652257e+000,4.2593395024e+000,5.0277249932e+000,
1.1437500000e+001,3.5387277524e+000,4.0561753680e+000,3.3644334183e+000,3.6235511578e+000,3.8844092547e+000,4.2499396364e+000,4.8126841099e+000,5.2998363415e+000,8.5055792145e+000,6.6435690175e+000,5.2756664388e+000,5.3012213072e+000,4.1758908947e+000,5.0574335821e+000,
1.1531250000e+001,3.5185696854e+000,4.0094368288e+000,3.3457751681e+000,3.5658119596e+000,3.8883871744e+000,4.1437747599e+000,4.7962903827e+000,5.2573374104e+000,8.5128427759e+000,6.7038769257e+000,5.2679851930e+000,5.3230788723e+000,4.2128856870e+000,5.1553385086e+000,
1.1625000000e+001,3.6560558127e+000,4.0998046043e+000,3.2877878837e+000,3.6388447604e+000,3.8309519832e+000,4.1168252034e+000,4.6612107983e+000,5.0700831453e+000,8.4839462478e+000,6.5376334681e+000,5.2074443547e+000,5.3130667443e+000,4.2186277116e+000,5.1451472033e+000,
1.1718750000e+001,3.7755036348e+000,4.1942066549e+000,3.3078346185e+000,3.7160328145e+000,3.6922795633e+000,4.2387878904e+000,4.5899870153e+000,5.1796901640e+000,8.5030737258e+000,6.5325170738e+000,5.1475266864e+000,5.2810024127e+000,4.2340286537e+000,5.1487332281e+000,
1.1812500000e+001,4.2107229826e+000,4.3966128469e+000,3.4435048554e+000,3.8875903038e+000,4.0195007120e+000,4.4127442319e+000,4.6038406416e+000,5.2222324504e+000,8.4692190909e+000,6.5280569184e+000,5.1021287723e+000,5.2773201409e+000,4.2382571324e+000,5.1451849357e+000,
1.1906250000e+001,4.2850744558e+000,4.4622155927e+000,3.4289180608e+000,3.9475531444e+000,4.0377361725e+000,4.3910181740e+000,4.5116752771e+000,5.2447058594e+000,8.4102754825e+000,6.5952550136e+000,5.0468172806e+000,5.2273813754e+000,4.2489821893e+000,5.0754520233e+000,
1.2000000000e+001,4.2263185872e+000,4.3271544271e+000,3.3208954511e+000,3.8945335713e+000,3.9064949986e+000,4.2716725902e+000,4.4125206725e+000,5.2637541546e+000,8.3469115827e+000,6.7076177131e+000,4.9995379544e+000,5.1652874421e+000,4.1497731673e+000,5.0794439506e+000,
1.2093750000e+001,4.1404185975e+000,4.2264556739e+000,3.2878989623e+000,3.8726449413e+000,3.9830261086e+000,4.2877419712e+000,4.5313468455e+000,5.2669575247e+000,8.2991663081e+000,6.6433751302e+000,4.8989112396e+000,4.9279751241e+000,4.0547754452e+000,5.0841431652e+000,
1.2187500000e+001,4.0933298637e+000,4.1863289877e+000,3.2019984002e+000,3.7601033823e+000,3.8867683714e+000,4.1992978514e+000,4.6007102259e+000,5.2206945852e+000,8.3528588751e+000,6.6460974913e+000,4.9671632012e+000,4.9499223374e+000,4.1039544858e+000,5.1644087081e+000,
1.2281250000e+001,4.0483429423e+000,4.1850768303e+000,3.1436224669e+000,3.7270609908e+000,3.8455053947e+000,4.1700385581e+000,4.5742770268e+000,5.2447105564e+000,8.3368177861e+000,6.6010804676e+000,4.9440200898e+000,4.9171597726e+000,4.0848504742e+000,5.1084392876e+000,
1.2375000000e+001,4.1234264382e+000,4.2682517245e+000,3.1921024094e+000,3.7454309431e+000,3.9019773769e+000,4.1504404415e+000,4.6501939131e+000,5.2175027277e+000,8.3544084888e+000,6.6988165727e+000,5.0498029649e+000,4.9899640192e+000,4.1361325124e+000,5.0970554465e+000,
1.2468750000e+001,4.1585626842e+000,4.3105023508e+000,3.2183557449e+000,3.7652088234e+000,3.9078649284e+000,4.1595853154e+000,4.6313700728e+000,5.2476205791e+000,8.3260575011e+000,6.6941723347e+000,5.0426302062e+000,4.9746586324e+000,4.1322351013e+000,5.0836256923e+000,
1.2562500000e+001,4.1556688841e+000,4.3079352633e+000,3.0937314135e+000,3.7218016432e+000,3.9184375344e+000,4.0837300334e+000,4.6882589312e+000,5.2107298740e+000,8.3543020102e+000,6.6780647345e+000,5.0900627388e+000,5.0127454774e+000,4.1245907358e+000,5.0860888271e+000,
1.2656250000e+001,4.1560410230e+000,4.3046132240e+000,3.0809673698e+000,3.7650617805e+000,3.8896642921e+000,4.1486185839e+000,4.6611805821e+000,5.2686826410e+000,8.3099206740e+000,6.6945892032e+000,5.0832326752e+000,5.0775141310e+000,4.1103579871e+000,5.0953645647e+000,
1.2750000000e+001,4.0784022953e+000,4.1957986160e+000,2.9326357061e+000,3.5971522865e+000,3.8681556993e+000,3.9526153008e+000,4.6222072814e+000,5.1649341395e+000,8.2976152974e+000,6.7108051440e+000,5.0718208304e+000,5.0865433065e+000,4.0601310897e+000,5.0937579900e+000,
1.2843750000e+001,3.4967969951e+000,3.7965467201e+000,2.7734851477e+000,3.3844599650e+000,3.4899689413e+000,3.6804322242e+000,4.5715600830e+000,5.0941117242e+000,8.2689610132e+000,6.6692198984e+000,5.0625133675e+000,5.0826475598e+000,4.0525098154e+000,5.1178927424e+000,
1.2937500000e+001,3.4273712685e+000,3.7901761355e+000,2.9836044407e+000,3.5068570856e+000,3.5533469292e+000,3.8325850802e+000,4.5477612767e+000,5.1208788205e+000,8.2452541191e+000,6.5878312780e+000,5.0232563432e+000,5.1093350633e+000,4.0274832683e+000,5.0731265528e+000,
1.3031250000e+001,3.5329543299e+000,3.8533363649e+000,3.0312202922e+000,3.6075153987e+000,3.6295397226e+000,3.9121233593e+000,4.4803240263e+000,5.1983103093e+000,8.2052864626e+000,6.5642863762e+000,5.0062970340e+000,5.1593463518e+000,4.0157919181e+000,5.0201108714e+000,
1.3125000000e+001,8.6300798546e+000,3.8980192639e+000,3.4051846566e+000,3.7126335031e+000,3.6557249164e+000,3.9372876942e+000,4.4958980893e+000,5.1231307350e+000,8.3182636582e+000,6.5742430950e+000,5.1097589028e+000,5.1853855750e+000,4.1156437408e+000,5.0973602591e+000,
1.3218750000e+001,9.4140667726e+000,4.1453624207e+000,3.9984215735e+000,3.7913615772e+000,4.0344294006e+000,4.0098059074e+000,4.5228175623e+000,5.2341168805e+000,8.3412840193e+000,6.6288083328e+000,5.1317122001e+000,5.2217596851e+000,4.1669377174e+000,5.1865940425e+000,
1.3312500000e+001,9.5841250894e+000,4.1869820893e+000,4.0446247324e+000,3.8339888071e+000,4.1848061350e+000,4.1127297811e+000,4.5846356140e+000,5.2824407226e+000,8.3523074623e+000,6.6510573296e+000,5.1650528319e+000,5.2914466886e+000,4.1024275212e+000,5.2000685481e+000,
1.3406250000e+001,9.5865228598e+000,4.0713205354e+000,4.0279030380e+000,3.7752732192e+000,4.1889463392e+000,4.0749354852e+000,4.4930192541e+000,5.2270591241e+000,8.3111392432e+000,6.5638465707e+000,5.0841970441e+000,5.2500903796e+000,4.0812424696e+000,5.1789365989e+000,
1.3500000000e+001,9.5866312690e+000,4.0743389076e+000,4.0287326262e+000,3.8096914707e+000,4.1664400297e+000,4.0570685169e+000,4.4922332074e+000,5.2088993289e+000,8.2755843927e+000,6.5530628619e+000,5.0892576429e+000,5.1826691210e+000,4.0104678550e+000,5.1283282233e+000,
1.3593750000e+001,9.5864756557e+000,4.0708242685e+000,4.0258619193e+000,3.7433298916e+000,4.1836489334e+000,4.0434207099e+000,4.5036083905e+000,5.2100450631e+000,8.2517225661e+000,6.6261580878e+000,5.1068014724e+000,5.1809216705e+000,4.1282666262e+000,5.1378763263e+000,
1.3687500000e+001,9.5864697697e+000,4.1040458378e+000,4.0498312599e+000,3.7756397210e+000,4.2259498420e+000,4.0760878104e+000,4.5873467279e+000,5.2251401998e+000,8.2820760936e+000,6.6367708699e+000,5.1141145607e+000,5.1329709801e+000,4.1021325913e+000,5.1519991110e+000,
1.3781250000e+001,9.5866690295e+000,4.0790168827e+000,4.0450638943e+000,3.7632029723e+000,4.2736144850e+000,4.0298661955e+000,4.6417556169e+000,5.1974674568e+000,8.3422693072e+000,6.5856352826e+000,5.1751388171e+000,5.1375438762e+000,4.1909277550e+000,5.1290577576e+000,
1.3875000000e+001,9.5868729077e+000,4.0888105036e+000,4.0347184024e+000,3.7352949051e+000,4.3173761605e+000,4.0012084027e+000,4.7098750876e+000,5.1949240339e+000,8.4453921677e+000,6.6279986825e+000,5.2915277597e+000,5.2400479519e+000,4.3352187004e+000,5.1896021713e+000,
1.3968750000e+001,9.5869825708e+000,4.1129707851e+000,3.9896046250e+000,3.5839738484e+000,4.1437226695e+000,3.9100417493e+000,4.7224837972e+000,5.0156377868e+000,8.5459768989e+000,6.6359243085e+000,5.3971992950e+000,5.2784292833e+000,4.4523146744e+000,5.2067242848e+000,
1.4062500000e+001,9.5718280276e+000,4.0645938088e+000,4.0083552001e+000,3.4993867339e+000,4.1224840954e+000,3.8843445921e+000,4.6948654126e+000,5.0018910810e+000,8.4595585323e+000,6.5441210029e+000,5.2977052406e+000,5.1769215481e+000,4.4500162314e+000,5.1339048523e+000,
1.4156250000e+001,9.0485910715e+000,4.1140484181e+000,3.9004328102e+000,3.5324598618e+000,3.9991219165e+000,3.9232911795e+000,4.6753176580e+000,5.0248228883e+000,8.3922429368e+000,6.5703081535e+000,5.2512280899e+000,5.1912060460e+000,4.3607819122e+000,5.1139950412e+000,
1.4250000000e+001,6.0317808055e+000,3.8360846086e+000,3.2839597114e+000,3.6238801113e+000,3.5437338789e+000,3.9666258490e+000,4.6367195983e+000,4.9714682499e+000,8.3901504086e+000,6.4702724442e+000,5.2667536452e+000,5.1119871993e+000,4.3568748996e+000,4.9488148566e+000,
1.4343750000e+001,4.0526902368e+000,3.8797434377e+000,3.2254677039e+000,3.7297403242e+000,3.5091683632e+000,3.9750005011e+000,4.6567194971e+000,4.9610891861e+000,8.4860546514e+000,6.3697018417e+000,5.2985521224e+000,4.9928524720e+000,4.3555105804e+000,4.9456888778e+000,
1.4437500000e+001,3.6200433656e+000,3.9225141991e+000,3.1767986585e+000,3.7531136477e+000,3.4382719519e+000,4.0255397306e+000,4.6679471601e+000,5.0805172882e+000,8.4996302198e+000,6.3023292892e+000,5.2781664889e+000,4.9336847735e+000,4.2948457306e+000,4.9067696672e+000,
1.4531250000e+001,3.6319994802e+000,3.9238711064e+000,3.2014466442e+000,3.7948041245e+000,3.4361605977e+000,4.0900284761e+000,4.6565638750e+000,5.1228473766e+000,8.4838908889e+000,6.3014612576e+000,5.1712895128e+000,4.9210701073e+000,4.2510674808e+000,4.8755326674e+000,
1.4625000000e+001,3.7447967665e+000,3.9234815995e+000,3.1052572846e+000,3.7763271337e+000,3.3518637876e+000,4.0340721656e+000,4.5560027286e+000,5.0863985361e+000,8.4542645510e+000,6.2099801651e+000,5.1638226943e+000,4.7910884219e+000,4.1892298054e+000,4.8621743445e+000,
1.4718750000e+001,3.7622047810e+000,3.9608123347e+000,3.1516074833e+000,3.7583705048e+000,3.3530929228e+000,3.9652396129e+000,4.5162111928e+000,4.9668982937e+000,8.4489090386e+000,6.1973013363e+000,5.2057167436e+000,4.8980482442e+000,4.2899801220e+000,4.9172463120e+000,
1.4812500000e+001,3.7036172786e+000,3.8801812968e+000,3.2269929558e+000,3.7137716574e+000,3.2128221312e+000,3.9467254547e+000,4.5068473652e+000,4.9364927528e+000,8.4375814946e+000,6.1732883392e+000,5.1930833845e+000,4.8564798047e+000,4.2393431049e+000,4.9742597055e+000,
1.4906250000e+001,3.6147376033e+000,3.8755989731e+000,3.3163941413e+000,3.7314886556e+000,3.1927282581e+000,3.9158013765e+000,4.4548220905e+000,4.9354875191e+000,8.2665328430e+000,6.0988036451e+000,4.9969348422e+000,4.6495392359e+000,3.9792363651e+000,4.8225052181e+000,
1.5000000000e+001,3.6156997875e+000,3.9402501742e+000,3.3238390615e+000,3.7338406230e+000,3.3231448120e+000,3.9072282081e+000,4.8336931899e+000,4.9060564582e+000,8.2890935541e+000,6.0659072601e+000,4.9931034103e+000,4.6914966500e+000,3.9214348820e+000,4.8896733119e+000,
1.5093750000e+001,3.6234977847e+000,3.9832220655e+000,3.2517006689e+000,3.7192154116e+000,3.5327383750e+000,3.8681953965e+000,4.7966444428e+000,4.7639480964e+000,8.2068502809e+000,5.9506224191e+000,4.9546404384e+000,4.7090480436e+000,3.8640005822e+000,4.9678363847e+000,
1.5187500000e+001,3.7294874555e+000,4.0533317709e+000,3.2689885691e+000,3.6988673943e+000,3.6081002909e+000,3.8437024287e+000,4.7674211510e+000,4.7018418213e+000,8.1203776440e+000,5.8128053275e+000,4.8488463131e+000,4.7395122806e+000,3.8556376252e+000,5.2542562024e+000,
1.5281250000e+001,3.8789429280e+000,4.1353568191e+000,3.3793189331e+000,3.6196004874e+000,3.7001980570e+000,3.7783589618e+000,4.7679454886e+000,4.5877653965e+000,7.9958487792e+000,5.7802325048e+000,4.7337697566e+000,4.7483638899e+000,3.7919935403e+000,5.2456814524e+000,
1.5375000000e+001,3.8893817894e+000,4.1194473059e+000,3.3765844054e+000,3.5230890891e+000,3.7781069947e+000,3.7495440712e+000,4.7159939752e+000,4.4327497399e+000,7.6586797634e+000,5.6152951493e+000,4.4878137540e+000,4.7303772781e+000,3.6727571625e+000,5.2321259170e+000,
1.5468750000e+001,3.9859828478e+000,4.1657040742e+000,3.5661401685e+000,3.6963593522e+000,3.8294357469e+000,3.8551301051e+000,4.6944844809e+000,4.3246873487e+000,7.5849781448e+000,5.6200452654e+000,4.4536007614e+000,4.8417781536e+000,3.6693701074e+000,5.3603244240e+000,
1.5562500000e+001,3.9176319566e+000,4.1163072613e+000,3.5734824311e+000,3.6416905798e+000,3.8618586111e+000,3.8357150028e+000,4.6442898104e+000,4.1084923445e+000,7.4064290861e+000,5.3150838101e+000,4.3064671670e+000,4.9276823452e+000,3.6130626343e+000,5.5978272170e+000,
1.5656250000e+001,3.8197691407e+000,4.0554540178e+000,3.6883286263e+000,3.6788349599e+000,3.8448934930e+000,3.8965075702e+000,4.6317367980e+000,4.1773084790e+000,7.3241367194e+000,5.2218723487e+000,4.3350234655e+000,4.9219171498e+000,3.5787426569e+000,5.5864227329e+000,
1.5750000000e+001,3.9712387444e+000,4.1946626638e+000,3.7380147796e+000,3.9154231673e+000,3.9574376433e+000,4.0331976461e+000,4.6149529639e+000,4.3422058850e+000,7.1512967634e+000,5.0804027046e+000,4.1250330023e+000,4.9368257231e+000,3.3994938770e+000,5.6093932531e+000,
1.5843750000e+001,4.1814170996e+000,4.3034969188e+000,3.6124391866e+000,3.9154674717e+000,4.1110067213e+000,4.0457841961e+000,4.5920662026e+000,4.4246117450e+000,6.9002759598e+000,4.9042700553e+000,3.9090821497e+000,4.9623653470e+000,3.4775044359e+000,5.6094984902e+000,
1.5937500000e+001,4.3219127001e+000,4.3834278040e+000,3.6407482032e+000,3.9388218837e+000,4.1519226735e+000,4.1061562167e+000,4.1276570424e+000,4.4330705402e+000,6.5633621509e+000,4.7714585529e+000,3.7148950851e+000,5.0399081756e+000,3.3590403680e+000,5.6466914043e+000,
1.6031250000e+001,4.3766063816e+000,4.4310738750e+000,3.6852953872e+000,4.0613382387e+000,4.1212241710e+000,4.1384605335e+000,4.0108536161e+000,4.4647762833e+000,6.0218718501e+000,4.7473659134e+000,3.5059002579e+000,5.2220531744e+000,3.3295211641e+000,5.7331540497e+000,
1.6125000000e+001,4.3725125292e+000,4.4521709459e+000,3.6561996135e+000,4.1281607052e+000,4.0736112179e+000,4.3033015380e+000,3.9982224344e+000,4.5636618414e+000,5.8052668971e+000,4.7466959056e+000,3.5406049507e+000,5.3348757789e+000,3.2407961690e+000,5.7601068307e+000,
1.6218750000e+001,4.3863972588e+000,4.4496550261e+000,3.6369289840e+000,4.2512294961e+000,4.0823298729e+000,4.3915406165e+000,3.9517077623e+000,4.7420584864e+000,5.7792551977e+000,4.8055325765e+000,3.5649047314e+000,5.3149384464e+000,3.3470728691e+000,5.6891227606e+000,
1.6312500000e+001,4.3136563954e+000,4.4202285172e+000,3.5523996572e+000,4.2374566436e+000,4.0550588105e+000,4.3582317866e+000,3.7651149920e+000,5.8741501608e+000,5.7899181601e+000,4.8063825931e+000,3.5749082560e+000,5.4527929707e+000,3.3515329506e+000,5.8619183636e+000,
1.6406250000e+001,4.2701902375e+000,4.4617249129e+000,3.5112674641e+000,4.2817222048e+000,3.9621323772e+000,4.3185587688e+000,3.7689597056e+000,5.9648477001e+000,5.7697126368e+000,4.8414627121e+000,3.7028742131e+000,5.6030394187e+000,3.4079050132e+000,6.0657881308e+000,
1.6500000000e+001,4.2707069985e+000,4.5006715663e+000,3.4205777434e+000,4.4031573034e+000,4.0083620680e+000,4.3782862886e+000,3.8029179942e+000,5.9803521864e+000,5.3446356477e+000,5.0104621199e+000,3.6851624046e+000,5.5094951289e+000,3.4567293372e+000,5.9435696695e+000,
1.6593750000e+001,4.2687039900e+000,4.4872862185e+000,3.3570855453e+000,4.4476680511e+000,4.0108652403e+000,4.3803759221e+000,3.8617132332e+000,5.9854829693e+000,5.2498670857e+000,5.0708805680e+000,3.7354386262e+000,5.5489169999e+000,3.4070245513e+000,5.9451418038e+000,
1.6687500000e+001,4.2207913468e+000,4.4554329670e+000,3.2696036968e+000,4.4421877470e+000,3.9247782444e+000,4.3922846935e+000,3.7943358993e+000,5.9694269662e+000,5.0130160111e+000,5.0091291824e+000,3.6021155746e+000,5.6039342865e+000,3.3297940861e+000,6.0306334704e+000,
1.6781250000e+001,4.0981653720e+000,4.3754479597e+000,3.1958966738e+000,4.3797922703e+000,3.8083157311e+000,4.2959716073e+000,3.7261110406e+000,6.1305818310e+000,4.8921189782e+000,5.0477910095e+000,3.5902731618e+000,5.6444830071e+000,3.2108005844e+000,6.1165900798e+000,
1.6875000000e+001,3.7507461193e+000,4.1828050071e+000,3.0562566993e+000,4.3713218612e+000,3.4921902473e+000,4.2402920550e+000,3.6425609884e+000,6.1648224446e+000,4.7377921704e+000,5.0830890988e+000,3.5189420228e+000,5.7287557583e+000,3.1616926900e+000,6.1743631107e+000,
1.6968750000e+001,3.5631637444e+000,4.0689433238e+000,2.9773141436e+000,4.3676714494e+000,3.4524459790e+000,4.2029575556e+000,3.6152263734e+000,6.1650274313e+000,4.7429103244e+000,5.0769768196e+000,3.5059899800e+000,5.8336497746e+000,3.2222820372e+000,6.2229120226e+000,
1.7062500000e+001,3.6115336641e+000,4.0403406806e+000,3.1704740029e+000,4.3673077742e+000,3.3734064312e+000,4.1766659168e+000,3.2893149857e+000,6.1792848997e+000,4.7111684146e+000,5.0716673443e+000,3.4658164363e+000,5.8657704337e+000,3.4810091328e+000,6.3256573329e+000,
1.7156250000e+001,3.6020816655e+000,3.9753380147e+000,3.1858213193e+000,4.3352420488e+000,3.2807285409e+000,4.0566216424e+000,3.1793292047e+000,6.1609026717e+000,4.7986818943e+000,5.0435456298e+000,3.5506901922e+000,5.8245095057e+000,3.4272670504e+000,6.2784435465e+000,
1.7250000000e+001,3.5623768923e+000,3.9145451492e+000,3.3432216957e+000,4.2622951029e+000,3.2940269757e+000,4.0448335086e+000,3.2321325644e+000,5.7401236403e+000,4.9602256588e+000,5.0723148448e+000,3.7166061368e+000,5.9509909790e+000,3.3304556721e+000,6.4088574195e+000,
1.7343750000e+001,3.8678976875e+000,4.0833281078e+000,3.5144164589e+000,4.3235656241e+000,3.4603120310e+000,4.1703182363e+000,3.3706505851e+000,5.3397043895e+000,4.9152391351e+000,5.1224797901e+000,3.6646516163e+000,5.9110223013e+000,3.5210317482e+000,6.3493212886e+000,
1.7437500000e+001,4.1071946469e+000,4.2362134212e+000,3.5898918245e+000,4.3060782723e+000,3.4983453137e+000,4.1286336935e+000,3.4263901013e+000,5.2079654675e+000,4.9377067691e+000,5.0205748083e+000,3.6499299896e+000,5.8252378163e+000,3.6077071660e+000,6.2278508821e+000,
1.7531250000e+001,4.2881232169e+000,4.3385993449e+000,3.7337560152e+000,4.0949006670e+000,3.7889914502e+000,4.0964271171e+000,3.6518020911e+000,5.3528195233e+000,4.8901624399e+000,4.8570441237e+000,3.7059966208e+000,5.8368993397e+000,3.6207190607e+000,6.2534049198e+000,
1.7625000000e+001,4.3099225824e+000,4.3328176423e+000,3.7299966889e+000,4.0318096531e+000,3.7728938210e+000,4.0736609001e+000,3.6753436039e+000,5.3544257732e+000,4.7468235232e+000,4.7679638014e+000,3.5925412493e+000,5.7970524501e+000,3.6379287574e+000,6.2348803218e+000,
1.7718750000e+001,4.3359304524e+000,4.3331938531e+000,3.7176437110e+000,4.0006985777e+000,3.7566593065e+000,4.0618786839e+000,3.6778463663e+000,5.3619418628e+000,4.7759109906e+000,4.7634836977e+000,3.5433029261e+000,5.7252017030e+000,3.6885215467e+000,6.1565002322e+000,
1.7812500000e+001,4.3495842589e+000,4.3383602742e+000,3.7270901282e+000,3.9824793452e+000,3.7530435255e+000,4.0675706684e+000,3.6687605041e+000,4.7336877748e+000,4.7541487475e+000,4.6920594969e+000,3.5171908378e+000,5.6556447286e+000,3.6861010470e+000,6.1046189022e+000,
1.7906250000e+001,4.3246432204e+000,4.3296438548e+000,3.7446144602e+000,3.9812920479e+000,3.7368588161e+000,4.0629736403e+000,3.6910735390e+000,4.6954991327e+000,4.8565472519e+000,4.6235480221e+000,3.5289354222e+000,5.5071049498e+000,3.6503587468e+000,5.9894049542e+000,
1.8000000000e+001,4.3087356713e+000,4.2896587507e+000,3.7028212743e+000,3.8579544697e+000,3.7306586814e+000,3.9507570973e+000,4.0764141580e+000,4.6826173578e+000,4.8384834595e+000,4.3304137683e+000,3.5206402084e+000,5.2572857633e+000,3.5496792159e+000,5.8463479973e+000,
1.8093750000e+001,4.2606527215e+000,4.2704743081e+000,3.6006285972e+000,3.7609447893e+000,3.7866501731e+000,3.9800145907e+000,4.1898209109e+000,4.6159133926e+000,4.7699592723e+000,4.3291169304e+000,3.3960082768e+000,5.0971608634e+000,3.4110749839e+000,5.6606492325e+000,
1.8187500000e+001,4.2464961815e+000,4.2532269095e+000,3.6286782808e+000,3.7492166250e+000,3.8567519560e+000,3.9632532866e+000,4.1948882346e+000,4.5833051536e+000,4.6351486220e+000,4.3518409498e+000,3.0568558726e+000,5.0120259443e+000,3.4565842536e+000,5.5569548749e+000,
1.8281250000e+001,4.1484434640e+000,4.1415146831e+000,3.4155227760e+000,3.5200176660e+000,3.7145554205e+000,3.8253108856e+000,4.1433216526e+000,4.5804886582e+000,4.5935799395e+000,4.2397669468e+000,3.0486127477e+000,4.5828045082e+000,3.3618529778e+000,5.1855642667e+000,
1.8375000000e+001,3.8629286781e+000,3.8874873166e+000,3.2424405326e+000,3.3773404972e+000,3.6060051630e+000,3.7196991561e+000,4.1012048091e+000,4.5590264824e+000,4.6079842933e+000,4.1786991233e+000,2.9130710989e+000,4.4770004317e+000,3.0433193410e+000,5.1058490828e+000,
1.8468750000e+001,3.6055119882e+000,3.5660304780e+000,3.0838137639e+000,3.1925053108e+000,3.5281074005e+000,3.6842230723e+000,4.0601922044e+000,4.2366427516e+000,4.5390262611e+000,4.1594164711e+000,2.9218943198e+000,4.5177117395e+000,2.9845321594e+000,5.1096937822e+000,
1.8562500000e+001,3.0525964341e+000,3.1714573960e+000,2.7248706623e+000,3.0734356191e+000,3.0245473063e+000,3.5220190342e+000,3.8454546010e+000,4.2017579703e+000,4.5172260146e+000,4.1991629600e+000,2.7402960677e+000,4.5060839359e+000,2.8341277537e+000,5.0135732859e+000,
1.8656250000e+001,2.9456080937e+000,3.1353091128e+000,2.6716583515e+000,3.0982344793e+000,3.1140346490e+000,3.5100113647e+000,3.8166314069e+000,4.2430393255e+000,4.5290174503e+000,4.1672564007e+000,2.7521970977e+000,4.4637899447e+000,2.8488788374e+000,4.9288851187e+000,
1.8750000000e+001,2.9068085943e+000,3.1717888769e+000,2.7229359281e+000,2.9653672394e+000,3.1795879583e+000,3.5370170882e+000,3.8993897246e+000,4.3534152365e+000,4.6029227080e+000,4.1673024430e+000,2.8356810393e+000,4.3947531515e+000,2.8869886315e+000,4.7779290548e+000,
1.8843750000e+001,2.9130855358e+000,3.1431543367e+000,2.5554207573e+000,2.8325334354e+000,3.2047981511e+000,3.4567597362e+000,3.8968886714e+000,4.5784509162e+000,4.5508466113e+000,4.0934885945e+000,2.8995466478e+000,4.3646157164e+000,2.9705737865e+000,4.7091362887e+000,
1.8937500000e+001,2.9532526950e+000,3.1746641672e+000,2.5692433105e+000,2.7983007044e+000,3.2478416322e+000,3.4458198603e+000,3.8575973165e+000,4.6790933059e+000,4.6008798432e+000,4.1014376690e+000,2.8996655470e+000,4.4243137032e+000,2.9787034953e+000,4.7587082880e+000,
1.9031250000e+001,2.9662165015e+000,3.2410032726e+000,2.6514336605e+000,2.9282257113e+000,3.2437818818e+000,3.5364306680e+000,3.2981788097e+000,5.6134532212e+000,4.7343530314e+000,4.0515631065e+000,3.1411687055e+000,4.3433403577e+000,2.9654426409e+000,4.8169453677e+000,
1.9125000000e+001,3.0332070777e+000,3.2849778611e+000,2.6661087103e+000,2.9086846061e+000,3.2920567864e+000,3.5286298818e+000,3.1693251295e+000,5.6522873182e+000,4.9177822568e+000,4.0117861105e+000,3.2062501893e+000,4.2948898483e+000,2.8554821215e+000,4.9701213923e+000,
1.9218750000e+001,2.9575280898e+000,3.2445031687e+000,2.5602363124e+000,2.8804263564e+000,3.1555030488e+000,3.4830440404e+000,3.1041817007e+000,5.6585356703e+000,4.8628776885e+000,3.8967372372e+000,3.2436110808e+000,4.1582662282e+000,2.8589788543e+000,4.8857282741e+000,
1.9312500000e+001,3.1724650521e+000,3.3191944786e+000,2.7481954850e+000,2.9413144325e+000,3.2596455742e+000,3.5014942231e+000,3.0790299638e+000,5.6210390174e+000,4.8676849881e+000,3.8087358447e+000,3.2715028756e+000,4.2597423146e+000,2.8201731241e+000,4.8944247558e+000,
1.9406250000e+001,3.1785078767e+000,3.4145800229e+000,2.7688778882e+000,3.0762364492e+000,3.2611765789e+000,3.6167593574e+000,3.1182965269e+000,5.6219585876e+000,4.9532616158e+000,3.8571182770e+000,3.2913806631e+000,4.4054572913e+000,2.9867608570e+000,4.9563240668e+000,
1.9500000000e+001,3.2027849209e+000,3.4816087613e+000,2.8364796906e+000,3.1805050037e+000,3.2657861419e+000,3.6141112325e+000,3.2348892105e+000,5.6244856084e+000,4.9586398872e+000,3.9015437454e+000,3.2835022343e+000,4.3931585501e+000,3.2822775851e+000,5.0481154608e+000,
1.9593750000e+001,3.4169764678e+000,3.5647453413e+000,2.9523510852e+000,3.2648857639e+000,3.4163749409e+000,3.6298766433e+000,3.2204106574e+000,5.6173156564e+000,5.0548611647e+000,3.8690269952e+000,3.3235411295e+000,4.4653243920e+000,3.3316745526e+000,5.1193394586e+000,
1.9687500000e+001,3.5518292107e+000,3.6510152981e+000,2.9393272907e+000,3.2532015921e+000,3.4896662588e+000,3.6415286202e+000,3.1588822489e+000,5.6046645168e+000,5.0301154983e+000,3.9427740932e+000,3.2762087142e+000,4.5379169464e+000,3.2995597385e+000,5.1798507204e+000,
1.9781250000e+001,3.5508634774e+000,3.6575560191e+000,2.9410456383e+000,3.2623335681e+000,3.5052382571e+000,3.6093268109e+000,3.1523426029e+000,5.5185787022e+000,5.1517211674e+000,3.9320443280e+000,3.2228240797e+000,4.6043717160e+000,3.3597454898e+000,5.2714421311e+000,
1.9875000000e+001,3.6830172715e+000,3.7476879606e+000,2.9966890080e+000,3.3575005387e+000,3.5257477827e+000,3.7111209723e+000,3.1550159767e+000,5.4975021972e+000,5.3034764380e+000,4.0207930703e+000,3.2343157564e+000,4.6361948724e+000,3.3293638735e+000,5.3110052577e+000,
1.9968750000e+001,3.6688747426e+000,3.7121288791e+000,2.9138848540e+000,3.3809809415e+000,3.4843399133e+000,3.7279035917e+000,3.0690241814e+000,4.7362131545e+000,5.3345910621e+000,4.0191750276e+000,3.3943163324e+000,4.6322930272e+000,3.3559378952e+000,5.2992377478e+000,
2.0062500000e+001,3.6978626062e+000,3.6964671613e+000,2.9595709331e+000,3.4017268321e+000,3.4906121142e+000,3.6691209507e+000,3.0766999896e+000,4.1362637478e+000,5.2583581976e+000,3.9658996743e+000,3.2719486895e+000,4.5667888826e+000,3.3964987934e+000,5.1838001712e+000,
2.0156250000e+001,3.6431360780e+000,3.6512140291e+000,3.0106809531e+000,3.4229239887e+000,3.3864599539e+000,3.6307613239e+000,3.0351476184e+000,4.0409992447e+000,5.3088124834e+000,3.9378388831e+000,3.2786109521e+000,4.6255559193e+000,3.4887104071e+000,5.1573669086e+000,
2.0250000000e+001,3.6386100556e+000,3.6399555460e+000,3.0130000679e+000,3.3984592523e+000,3.3696421246e+000,3.5951256412e+000,3.0446965882e+000,4.0541888650e+000,5.3393525435e+000,3.9295819163e+000,3.2936410801e+000,4.5565551851e+000,3.5182077104e+000,5.1526424752e+000,
2.0343750000e+001,3.6139718654e+000,3.5825624793e+000,2.9208591879e+000,3.3555329915e+000,3.3058177574e+000,3.4670768182e+000,3.0062210358e+000,4.0820010547e+000,5.3851397549e+000,3.9413286869e+000,3.2640659934e+000,4.5653548825e+000,3.5419109849e+000,5.1940891542e+000,
2.0437500000e+001,3.6323264468e+000,3.5658499182e+000,3.0396913228e+000,3.4286175916e+000,3.3565197660e+000,3.5143700265e+000,3.0247740465e+000,4.1415874645e+000,5.3992399600e+000,3.8848466019e+000,3.2960335946e+000,4.4495617377e+000,3.4373241019e+000,5.2031078857e+000,
2.0531250000e+001,3.6178766099e+000,3.5423459642e+000,3.0094578685e+000,3.4624229811e+000,3.4303805263e+000,3.5489569730e+000,2.9282646835e+000,4.1295823551e+000,5.4353697099e+000,3.7173716090e+000,3.2388551345e+000,4.4588251542e+000,3.4341035620e+000,5.2063235402e+000,
2.0625000000e+001,3.5427750236e+000,3.5898987013e+000,3.0221355984e+000,3.5318772911e+000,3.2237099918e+000,3.5863680246e+000,2.9367755552e+000,4.1116887643e+000,5.4447891394e+000,3.7267505485e+000,3.2525272137e+000,4.3921641453e+000,3.3979668062e+000,5.1671300904e+000,
2.0718750000e+001,3.4477075700e+000,3.4599876529e+000,3.0383121104e+000,3.4926036074e+000,3.1190368258e+000,3.5758091474e+000,2.9527608520e+000,4.0526410354e+000,5.4809024744e+000,3.6666388395e+000,3.3116665063e+000,4.3671078677e+000,3.3723376430e+000,5.0927568620e+000,
2.0812500000e+001,3.4284961551e+000,3.5135478660e+000,3.0728865749e+000,3.5120346440e+000,3.2172538437e+000,3.6181168939e+000,2.9836377170e+000,4.0166938581e+000,5.3691162261e+000,3.7094914202e+000,3.2312966389e+000,4.3435327286e+000,3.3074411109e+000,5.0497240072e+000,
2.0906250000e+001,3.3467078896e+000,3.5107892981e+000,3.1001848513e+000,3.5145477324e+000,3.1869499172e+000,3.6138220772e+000,3.0625865673e+000,4.1171461322e+000,5.3714297086e+000,3.6532177474e+000,3.2693381295e+000,4.2324082847e+000,3.2966681565e+000,5.0190890764e+000,
2.1000000000e+001,3.3117775515e+000,3.5538494353e+000,3.1684450549e+000,3.4760804709e+000,3.2369495593e+000,3.5860060498e+000,3.0814703512e+000,4.0707050500e+000,5.3414873065e+000,3.6970330999e+000,3.0282259639e+000,4.1616381958e+000,3.2885797031e+000,4.9780029188e+000,
2.1093750000e+001,3.5066814235e+000,3.7517445123e+000,3.2380839112e+000,3.5165523977e+000,3.3637335075e+000,3.5892866631e+000,3.0010895909e+000,4.0764220262e+000,5.3822241468e+000,3.7681959384e+000,3.0044855418e+000,4.2260302261e+000,3.1506576274e+000,4.9136463043e+000,
2.1187500000e+001,4.1545332032e+000,4.3427600801e+000,3.4024648118e+000,3.7642141016e+000,3.7694124577e+000,3.8329112084e+000,3.1488906941e+000,4.1248636957e+000,5.3044914466e+000,3.7643572133e+000,3.0213712832e+000,4.2129170617e+000,3.1847421173e+000,4.9569646259e+000,
2.1281250000e+001,4.2319291456e+000,4.3972374670e+000,3.4384409334e+000,3.7968619386e+000,3.8362729704e+000,3.8092462968e+000,3.2441542864e+000,4.1361969021e+000,5.3436332314e+000,3.8720526126e+000,3.1187094146e+000,4.4716169176e+000,3.2018515162e+000,5.1846586925e+000,
2.1375000000e+001,4.2182987605e+000,4.3763152958e+000,3.3167021013e+000,3.7309080292e+000,3.8011301081e+000,3.7396349802e+000,3.1832518558e+000,4.1049921128e+000,5.3626013585e+000,3.9349721137e+000,3.1660987230e+000,4.9054388819e+000,3.3319421252e+000,5.4075463476e+000,
2.1468750000e+001,4.2268378371e+000,4.3695020469e+000,3.2784984621e+000,3.7269064104e+000,3.8972968226e+000,3.7077453356e+000,3.2010660906e+000,4.0495142590e+000,5.3403399238e+000,4.0338922440e+000,3.1160125316e+000,5.0672150475e+000,3.2246609971e+000,5.5048347305e+000,
2.1562500000e+001,4.2097020039e+000,4.3212529253e+000,3.2530481195e+000,3.6531230516e+000,3.8938399559e+000,3.6777419540e+000,3.2145757344e+000,3.9260629177e+000,5.3904191942e+000,4.0686187931e+000,3.1446910584e+000,5.0111713597e+000,3.1871754072e+000,5.4962491802e+000,
2.1656250000e+001,4.1519384685e+000,4.3018432264e+000,3.2574977346e+000,3.6628448004e+000,3.8667541715e+000,3.6963030387e+000,3.2050644858e+000,4.2491525664e+000,5.3445915580e+000,4.0489430470e+000,3.0717781014e+000,5.0760797659e+000,3.2899390106e+000,5.6397813525e+000,
2.1750000000e+001,4.1676800779e+000,4.3134107924e+000,3.2039992051e+000,3.7436919702e+000,3.9041808268e+000,3.7684565814e+000,3.0884676507e+000,4.3766414098e+000,5.3741675192e+000,4.1307524473e+000,3.2467149021e+000,5.1726102027e+000,3.4812564437e+000,5.7123277015e+000,
2.1843750000e+001,4.1916010163e+000,4.3243045563e+000,3.2167476927e+000,3.8131545470e+000,3.8865402494e+000,3.8645362364e+000,3.0804428538e+000,4.5731810889e+000,5.2996887256e+000,4.2363000271e+000,3.2647309375e+000,5.1852985962e+000,3.5052570865e+000,5.6830249363e+000,
2.1937500000e+001,4.1473093052e+000,4.2872035332e+000,3.1113024823e+000,3.7709511476e+000,3.8880184599e+000,3.8162028826e+000,3.0214334665e+000,4.5595822505e+000,5.3126269434e+000,4.3084795326e+000,3.3218830019e+000,5.2455914503e+000,3.4843474091e+000,5.7092987026e+000,
2.2031250000e+001,4.1558849468e+000,4.2220120415e+000,3.0218995954e+000,3.7313065238e+000,3.8601427016e+000,3.7636241463e+000,3.1137774663e+000,4.5976083464e+000,5.2676780007e+000,4.2502909554e+000,3.3856127827e+000,5.2298187202e+000,3.5378771034e+000,5.7040445603e+000,
2.2125000000e+001,3.9161303947e+000,4.0223437636e+000,2.8724874184e+000,3.6378064487e+000,3.7132774210e+000,3.7030782351e+000,3.0971145293e+000,4.6243840715e+000,5.3407246895e+000,4.2748110750e+000,3.3816052144e+000,5.2227790999e+000,3.5081052199e+000,5.7241861960e+000,
2.2218750000e+001,3.4691883033e+000,3.5183213957e+000,2.7168664886e+000,3.4272102198e+000,3.5372146677e+000,3.5539399963e+000,3.1031303351e+000,4.6196303831e+000,5.2658289753e+000,4.2748604205e+000,3.3181281203e+000,5.1896174219e+000,3.5412348671e+000,5.6820394783e+000,
2.2312500000e+001,3.4263671505e+000,3.5543684450e+000,2.6954948735e+000,3.4567934293e+000,3.5726585000e+000,3.6849307865e+000,3.0159268446e+000,4.6346065333e+000,5.1973956903e+000,4.1652871252e+000,3.2183594076e+000,4.9707158606e+000,3.4010258910e+000,5.4900192854e+000,
2.2406250000e+001,3.4181572732e+000,3.5206298203e+000,2.7320448709e+000,3.4727072581e+000,3.6050440106e+000,3.7679622359e+000,3.0521960272e+000,4.5834029135e+000,5.1604341006e+000,4.1353992801e+000,3.3015133456e+000,4.5659410926e+000,3.3272340280e+000,5.2869803522e+000,
2.2500000000e+001,3.4000049149e+000,3.5611601060e+000,2.7555967962e+000,3.4724158798e+000,3.3554653145e+000,3.7301983333e+000,2.9135249155e+000,4.5929670607e+000,5.2165895622e+000,4.0351672883e+000,3.3461929686e+000,4.4450179485e+000,3.3257511022e+000,5.1386790056e+000,
2.2593750000e+001,3.4256888650e+000,3.5448095372e+000,2.7196056851e+000,3.4478835578e+000,3.2973716333e+000,3.6893316325e+000,2.7551550493e+000,4.5403659713e+000,5.3060425270e+000,4.0268012175e+000,3.4809972875e+000,4.4352844025e+000,3.2816923955e+000,5.0898516960e+000,
2.2687500000e+001,3.3984779463e+000,3.5228809503e+000,2.6483828501e+000,3.3195192282e+000,3.2553434484e+000,3.5907630412e+000,2.7958254768e+000,4.3557506225e+000,5.2501862245e+000,3.9684199050e+000,3.5102698172e+000,4.1424302286e+000,3.0857406298e+000,4.7363487290e+000,
2.2781250000e+001,3.4317768186e+000,3.5201021992e+000,2.6983750642e+000,3.2845499870e+000,3.2561636515e+000,3.5464473223e+000,2.8446186493e+000,4.3463209921e+000,5.3156353919e+000,3.9696033515e+000,3.5316383206e+000,4.1390216017e+000,2.9369878231e+000,4.8000837618e+000,
2.2875000000e+001,3.3883429180e+000,3.4056094271e+000,2.6011065882e+000,3.1182581841e+000,3.2063933880e+000,3.4635939904e+000,2.8059499451e+000,4.0426078066e+000,5.3926255751e+000,3.8950023158e+000,3.4909565346e+000,4.1406186028e+000,2.9884768088e+000,4.9131290460e+000,
2.2968750000e+001,3.4780867801e+000,3.5026808091e+000,2.7690778061e+000,3.1596213678e+000,3.2125546006e+000,3.5348213143e+000,2.7502250577e+000,4.0283986258e+000,5.4896423150e+000,3.9416153531e+000,3.4211340809e+000,4.1501903935e+000,3.0009721047e+000,4.9399223772e+000,
2.3062500000e+001,3.3239769427e+000,3.2561971471e+000,2.7350857618e+000,3.0611636648e+000,3.1630545467e+000,3.4277868525e+000,2.6613003474e+000,3.9568255161e+000,5.4648328555e+000,3.9330905243e+000,3.3386215351e+000,4.0888137974e+000,2.9077795417e+000,4.9567061710e+000,
2.3156250000e+001,3.2271202551e+000,3.1590588220e+000,2.7045788483e+000,3.0172151279e+000,3.1710035392e+000,3.4442804797e+000,2.7888980130e+000,3.9803420346e+000,5.4614819951e+000,3.9258521386e+000,3.3647572777e+000,4.2602322889e+000,2.9044779080e+000,4.8926718451e+000,
2.3250000000e+001,3.2623891952e+000,3.2043083118e+000,2.7741391157e+000,3.0989967465e+000,3.1435682313e+000,3.4902688087e+000,2.7249267707e+000,3.9863669270e+000,5.4827960024e+000,3.9408983987e+000,3.4857764618e+000,4.4743709540e+000,3.0405052869e+000,4.9162600761e+000,
2.3343750000e+001,3.4035809482e+000,3.4024606213e+000,2.8459929985e+000,3.2102740879e+000,3.1270644383e+000,3.4368530104e+000,2.8367364047e+000,3.9854936063e+000,5.4709774040e+000,4.0519383947e+000,3.5132557434e+000,4.5295189359e+000,3.1048906442e+000,4.9210590457e+000,
2.3437500000e+001,3.5248916985e+000,3.5713039176e+000,2.9683442654e+000,3.2620605107e+000,3.2545661786e+000,3.4586293677e+000,3.0566797207e+000,4.0715264186e+000,5.4261828459e+000,3.9968848335e+000,3.4831130077e+000,4.5479007742e+000,3.1189515114e+000,4.8346477672e+000,
2.3531250000e+001,3.6927027871e+000,3.7415154583e+000,3.0481174818e+000,3.3960765973e+000,3.4347769621e+000,3.6603795533e+000,3.2102521301e+000,4.1039455274e+000,5.3592433825e+000,4.0971856833e+000,3.3536393867e+000,4.4966820978e+000,3.1148580807e+000,4.7856658353e+000,
2.3625000000e+001,3.7036082300e+000,3.7874288952e+000,3.0701712256e+000,3.4366782858e+000,3.4832450710e+000,3.6799228526e+000,3.3127822678e+000,4.1229167765e+000,5.3098549567e+000,4.1999874522e+000,3.4975968413e+000,4.5965445465e+000,3.1643642917e+000,4.9152854378e+000,
2.3718750000e+001,3.6972246243e+000,3.7579535834e+000,3.1068144468e+000,3.4063964165e+000,3.4777660129e+000,3.5991008626e+000,3.3213133508e+000,4.0803535846e+000,5.3396089018e+000,4.2348285421e+000,3.4533064649e+000,4.6066536016e+000,3.1893915951e+000,4.9021828568e+000,
2.3812500000e+001,3.7287130391e+000,3.7465377633e+000,3.0788495592e+000,3.3515749267e+000,3.4311891646e+000,3.5054265049e+000,3.3208347740e+000,3.9556880037e+000,5.3176737197e+000,4.1565414104e+000,3.4714043232e+000,4.5631260212e+000,3.2353277218e+000,4.7602984191e+000,
2.3906250000e+001,4.2678057732e+000,4.2714338769e+000,3.2677799715e+000,3.5896186528e+000,3.8657043945e+000,3.6247973798e+000,3.4865508459e+000,4.1489802779e+000,5.2194398113e+000,4.0539427575e+000,3.4997302086e+000,4.4953894481e+000,3.1705204985e+000,4.6998764301e+000,
2.4000000000e+001,4.4378927350e+000,4.4135756949e+000,3.3663550414e+000,3.7269094411e+000,4.0245859442e+000,3.7386991062e+000,3.5748916872e+000,4.3110143921e+000,5.2160923664e+000,4.0581966122e+000,3.6493074712e+000,4.5370021842e+000,3.1921197314e+000,4.6935993012e+000,
2.4093750000e+001,4.5865820753e+000,4.5515195497e+000,3.5895295496e+000,3.8877398993e+000,4.1489476703e+000,3.8697653313e+000,3.7818810130e+000,4.3501161089e+000,5.2296271226e+000,4.0996248864e+000,3.7628090004e+000,4.5104286235e+000,3.2872755565e+000,4.7205006057e+000,
2.4187500000e+001,4.6042904392e+000,4.6056728973e+000,3.6018037252e+000,3.8956343115e+000,4.1673203874e+000,3.9306175465e+000,3.7305481910e+000,4.3150529080e+000,5.1453294869e+000,4.0921212174e+000,3.6782943020e+000,4.3231223203e+000,3.2839296035e+000,4.7275768301e+000,
2.4281250000e+001,4.6985646151e+000,4.6395031604e+000,3.6206367546e+000,3.8492719109e+000,4.2871717283e+000,3.9035812492e+000,3.7944854526e+000,4.3367959738e+000,5.1605795710e+000,4.0713276231e+000,3.6490087070e+000,4.2455463607e+000,3.2138275145e+000,4.7789935788e+000,
2.4375000000e+001,4.7744174989e+000,4.7000992615e+000,3.6888704369e+000,3.8298787589e+000,4.3440048469e+000,4.0092699983e+000,3.7633291720e+000,4.3045424994e+000,5.1063943050e+000,4.0255698099e+000,3.5912993434e+000,4.1642260340e+000,3.1376825086e+000,4.7311383194e+000,
2.4468750000e+001,4.7376337062e+000,4.6470284881e+000,3.6419277630e+000,3.7412518550e+000,4.2981135206e+000,3.9426155965e+000,3.6549709668e+000,4.1977990140e+000,5.0313273215e+000,4.0204574061e+000,3.5452474695e+000,4.2054374116e+000,3.0792680268e+000,4.7695958177e+000,
2.4562500000e+001,4.7085489081e+000,4.6098822978e+000,3.6143742498e+000,3.6696255943e+000,4.2647074977e+000,3.8683545880e+000,3.5665391283e+000,4.2084071610e+000,5.0182720439e+000,3.9758939428e+000,3.5819857396e+000,4.3268138315e+000,3.1321301858e+000,4.9202082681e+000,
2.4656250000e+001,4.7006421884e+000,4.5970252491e+000,3.6434562727e+000,3.6453540865e+000,4.2634713268e+000,3.8676830084e+000,3.5546286637e+000,4.1912106891e+000,4.9768362928e+000,3.7762194547e+000,3.3880987164e+000,4.2257449854e+000,3.1695784651e+000,4.8312593292e+000,
2.4750000000e+001,4.7101633424e+000,4.5839116055e+000,3.6648357359e+000,3.6397219225e+000,4.2589507427e+000,3.8793668201e+000,3.5728150411e+000,4.1789744756e+000,4.9355962984e+000,3.7186624858e+000,3.4067066180e+000,4.1538070363e+000,3.0941924755e+000,4.8718829513e+000,
2.4843750000e+001,4.6164544254e+000,4.5074253363e+000,3.6815246279e+000,3.6620280826e+000,4.2019341945e+000,3.9038273373e+000,3.5811141664e+000,4.2875514917e+000,4.8057249418e+000,3.6985976423e+000,3.3166676094e+000,3.9337985389e+000,3.0727737212e+000,4.7962395618e+000,
2.4937500000e+001,4.3211011487e+000,4.2426903780e+000,3.6137702363e+000,3.5912688132e+000,3.9899070962e+000,3.8733957644e+000,3.4440901839e+000,4.2048949370e+000,4.8487393935e+000,3.7245580969e+000,3.3540075143e+000,4.0606145203e+000,3.1973011572e+000,4.8602925496e+000,
2.5031250000e+001,4.0651095903e+000,4.0199947458e+000,3.3239872018e+000,3.2762304620e+000,3.7862284750e+000,3.7526322487e+000,3.1905356282e+000,4.1319964937e+000,4.6179552137e+000,3.6260796878e+000,3.0161385555e+000,4.1049659059e+000,3.0630856368e+000,4.8435740469e+000,
2.5125000000e+001,3.9933504515e+000,3.9585365725e+000,3.3063767454e+000,3.2554556168e+000,3.7005358178e+000,3.7059471905e+000,3.0874888753e+000,4.1399283042e+000,4.4517397688e+000,3.5827051749e+000,2.9741448634e+000,4.0463149876e+000,3.0093132247e+000,4.8495429849e+000,
2.5218750000e+001,4.8552808090e+000,4.7369611176e+000,3.6131053432e+000,3.5934793489e+000,4.4667454561e+000,3.8734526316e+000,3.3656095636e+000,4.2434945732e+000,4.3962607885e+000,3.5994503906e+000,3.0092376145e+000,4.1149795535e+000,3.2168601075e+000,4.9354987567e+000,
2.5312500000e+001,5.1463828548e+000,5.0424897168e+000,3.8334621668e+000,3.9040183699e+000,4.7010765734e+000,4.1504735297e+000,3.5745526139e+000,4.3216106815e+000,4.4369229762e+000,3.6888506676e+000,2.9898362973e+000,4.2037338573e+000,3.4556263154e+000,4.9888364749e+000,
2.5406250000e+001,5.0842421866e+000,5.0062036422e+000,3.7984230218e+000,3.9132256600e+000,4.6315453731e+000,4.1293218408e+000,3.5626900537e+000,4.3940895733e+000,4.4223072484e+000,3.6459559224e+000,3.0820214063e+000,4.1976045919e+000,3.4213524870e+000,4.9898938200e+000,
2.5500000000e+001,5.0658310164e+000,4.9966419448e+000,3.8089791350e+000,3.8889216325e+000,4.6344048172e+000,4.1026481535e+000,3.5760343325e+000,4.3890455189e+000,4.5614740413e+000,3.6221349200e+000,3.0939465797e+000,4.0815098249e+000,3.4531124356e+000,4.9548107672e+000,
2.5593750000e+001,5.1024898569e+000,5.0375599928e+000,3.8973493922e+000,4.0260093399e+000,4.6904778011e+000,4.1443041837e+000,3.6623266417e+000,4.4479109524e+000,4.6148246612e+000,3.5899739593e+000,3.1068123705e+000,3.9861277936e+000,3.4229577915e+000,4.9545271139e+000,
2.5687500000e+001,5.1029533837e+000,5.0484427619e+000,3.8649282863e+000,4.0657143606e+000,4.6935232070e+000,4.1879239163e+000,3.6478537970e+000,4.5345512365e+000,4.5940499181e+000,3.6287743309e+000,3.1255737465e+000,4.0062314378e+000,3.3483768788e+000,4.9262313901e+000,
2.5781250000e+001,5.1019377434e+000,5.0497163386e+000,3.8451413336e+000,4.0774978103e+000,4.6956012770e+000,4.1752636350e+000,3.6352777621e+000,4.5216693640e+000,4.6028903079e+000,3.6015295647e+000,3.0971253928e+000,4.0421434679e+000,3.3029373989e+000,4.9211333819e+000,
2.5875000000e+001,5.0940036736e+000,5.0220744392e+000,3.7939606616e+000,4.0009923452e+000,4.6703814603e+000,4.0879462026e+000,3.5873682840e+000,4.3854331746e+000,4.5642743413e+000,3.4953922397e+000,3.1448020300e+000,4.0732904478e+000,3.2138254005e+000,5.0001081870e+000,
2.5968750000e+001,5.0833829007e+000,5.0001174517e+000,3.7841800402e+000,3.9358126117e+000,4.6692000241e+000,4.0181264678e+000,3.5820008926e+000,4.2794130913e+000,4.5678455082e+000,3.4033084149e+000,3.1342246867e+000,4.0288606457e+000,3.1308911302e+000,5.0932738504e+000,
2.6062500000e+001,5.0694122788e+000,4.9718024847e+000,3.7592913887e+000,3.9267883643e+000,4.6650674934e+000,3.9704910382e+000,3.5376723598e+000,4.2558363094e+000,4.6367915176e+000,3.3071877032e+000,3.1118419159e+000,3.9377619031e+000,3.1514387752e+000,5.0762751480e+000,
2.6156250000e+001,5.0609216477e+000,4.9470100520e+000,3.6668731975e+000,3.9062741095e+000,4.6564107794e+000,3.9769374266e+000,3.4938467838e+000,4.2437919737e+000,4.6713813263e+000,3.2836390179e+000,2.9762887520e+000,3.9312997034e+000,3.0246634341e+000,5.0483477270e+000,
2.6250000000e+001,3.7478486472e+000,3.7239389797e+000,3.1161752166e+000,3.4079819421e+000,3.4274976687e+000,3.5105743036e+000,3.0555936638e+000,3.9900782835e+000,4.6896837492e+000,3.2189498407e+000,2.9693045551e+000,3.8432087921e+000,2.8789411523e+000,4.9829136221e+000,
2.6343750000e+001,3.3153744788e+000,3.3438495689e+000,2.9114811766e+000,3.2012752230e+000,3.1746533875e+000,3.2034003412e+000,2.7686842443e+000,3.9959772328e+000,4.6998825710e+000,3.1126633946e+000,2.9915587826e+000,3.8240405660e+000,2.6107767673e+000,4.9831753963e+000,
2.6437500000e+001,3.3276498437e+000,3.3328093817e+000,2.8718557764e+000,3.1666218764e+000,3.2122614601e+000,3.0591268672e+000,2.7953677725e+000,3.9777328676e+000,4.7018801262e+000,3.0252587068e+000,2.9919544301e+000,4.0382787238e+000,2.7927179419e+000,5.1672169642e+000,
2.6531250000e+001,3.4675863942e+000,3.4010677916e+000,2.8704302140e+000,3.1954441551e+000,3.3402849059e+000,3.1964376333e+000,2.9625167974e+000,4.1342463001e+000,4.6045994067e+000,3.3557940160e+000,2.9508656740e+000,4.2787298634e+000,2.8673305050e+000,5.2590520168e+000,
2.6625000000e+001,3.2537417425e+000,3.1193746512e+000,2.6251561561e+000,2.8293886044e+000,3.1158469843e+000,3.0650293146e+000,2.8519198532e+000,4.0372453934e+000,4.5949352761e+000,3.5638972136e+000,2.9139486345e+000,4.3581481204e+000,2.9158280880e+000,5.2266854572e+000,
2.6718750000e+001,3.1834369694e+000,3.1146165420e+000,2.5553304285e+000,2.6996800856e+000,3.0537406134e+000,3.1254717833e+000,2.8660321797e+000,3.9570832471e+000,4.5697113887e+000,3.6189393709e+000,2.8975301206e+000,4.3822080190e+000,3.0106469988e+000,5.2731733591e+000,
2.6812500000e+001,3.2359652804e+000,3.3517674546e+000,2.5815701766e+000,2.7392207677e+000,3.1147867195e+000,3.2829448250e+000,2.8659899624e+000,4.0777479070e+000,4.6040636479e+000,3.6583099598e+000,2.8725261805e+000,4.3555231954e+000,3.0107155309e+000,5.2189038123e+000,
2.6906250000e+001,3.1528293223e+000,3.3694729239e+000,2.5448047595e+000,2.7293571909e+000,3.1308678156e+000,3.3257721064e+000,2.8207306231e+000,4.0757280093e+000,4.6101536938e+000,3.7360486648e+000,2.8585906832e+000,4.3233916692e+000,3.1081843784e+000,5.1802213890e+000,
2.7000000000e+001,3.7399336278e+000,3.8329938383e+000,2.6671598408e+000,2.9634916774e+000,3.5041995038e+000,3.5174763256e+000,3.0193332012e+000,4.2313668317e+000,4.5888906225e+000,3.7816904926e+000,2.8230983318e+000,4.2997378413e+000,3.1192769733e+000,5.1083176218e+000,
2.7093750000e+001,4.0340780946e+000,4.1065630560e+000,2.8499307045e+000,3.0263307314e+000,3.7233540676e+000,3.5659369142e+000,3.1521236917e+000,4.2882769688e+000,4.6184798769e+000,3.8124351872e+000,2.8599458097e+000,4.2706210997e+000,3.0924112642e+000,5.0833887248e+000,
2.7187500000e+001,4.1300323615e+000,4.2248942740e+000,2.8634200093e+000,3.0725227007e+000,3.7811512159e+000,3.5516852506e+000,3.1804503272e+000,4.2839473469e+000,4.5381544098e+000,3.8599140122e+000,2.9542122469e+000,4.3281269080e+000,3.1377296177e+000,5.1341274880e+000,
2.7281250000e+001,4.1599211485e+000,4.3136965957e+000,2.9594960410e+000,3.2014257121e+000,3.8197507790e+000,3.5944043521e+000,3.2155027571e+000,4.2997143301e+000,4.6085863630e+000,3.8817394489e+000,3.0367097439e+000,4.3049963553e+000,3.0602790266e+000,5.1527593735e+000,
2.7375000000e+001,4.1225812345e+000,4.3980275379e+000,2.9251273669e+000,3.2336889218e+000,3.7757647022e+000,3.6063559727e+000,3.1826151955e+000,4.3080350027e+000,4.5895007698e+000,3.9245734258e+000,2.9975595925e+000,4.2403619879e+000,3.1040439325e+000,5.0322762826e+000,
2.7468750000e+001,4.1779677951e+000,4.4553715447e+000,2.9933586480e+000,3.2777891464e+000,3.8510839944e+000,3.7072396950e+000,3.3047616792e+000,4.3333429223e+000,4.6554824590e+000,3.9812478849e+000,3.0626745755e+000,3.9850968768e+000,2.8371966176e+000,4.8183061511e+000,
2.7562500000e+001,4.1023509504e+000,4.4330037848e+000,2.9847588171e+000,3.2641207778e+000,3.7470674417e+000,3.6317092452e+000,3.1440216612e+000,4.1750911348e+000,4.5591071454e+000,3.7545292510e+000,3.0599136235e+000,3.8653772884e+000,2.8022442246e+000,4.7501320369e+000,
2.7656250000e+001,4.1076612550e+000,4.4605010996e+000,3.0266755694e+000,3.3153628695e+000,3.7255669864e+000,3.6901497519e+000,3.0776489823e+000,4.1986582648e+000,4.5130083436e+000,3.7474465293e+000,3.0295416217e+000,3.8796431202e+000,2.6805037496e+000,4.7758207332e+000,
2.7750000000e+001,4.1252512930e+000,4.4370006224e+000,3.0428194267e+000,3.2947600043e+000,3.7073049788e+000,3.5875457459e+000,3.0808318373e+000,4.2157254087e+000,4.5266400644e+000,3.6913545326e+000,3.1440528999e+000,3.8570505412e+000,2.6465299703e+000,4.7407837871e+000,
2.7843750000e+001,4.1094730536e+000,4.4153672344e+000,3.0451717267e+000,3.3137926476e+000,3.7282803498e+000,3.5913664381e+000,3.1424478704e+000,4.1285777222e+000,4.4713881868e+000,3.6980146435e+000,3.1586175343e+000,4.0004845566e+000,2.6335085983e+000,4.8618383247e+000,
2.7937500000e+001,4.0910230309e+000,4.4167007269e+000,3.0449827683e+000,3.3885459829e+000,3.7092686770e+000,3.6339133392e+000,3.1378421427e+000,4.1207701671e+000,4.2998607265e+000,3.6081000490e+000,3.1348569573e+000,4.1549600578e+000,2.4170554164e+000,5.0574089726e+000,
2.8031250000e+001,3.5586307137e+000,4.0530468987e+000,2.8193629085e+000,3.1847436272e+000,3.2374713626e+000,3.3752382812e+000,2.8216452684e+000,4.0406891922e+000,4.2246632068e+000,3.6577855317e+000,3.1005503198e+000,4.1945774404e+000,2.3457920456e+000,5.0536494044e+000,
2.8125000000e+001,3.1802817461e+000,3.8191349213e+000,2.7088466852e+000,3.1248994235e+000,2.9771623039e+000,3.4350611373e+000,2.8381810917e+000,3.9441803582e+000,4.1993208203e+000,3.7045608422e+000,3.1021328381e+000,4.2862371035e+000,2.4146325646e+000,5.1086237377e+000,
2.8218750000e+001,3.1739035698e+000,3.8558620826e+000,2.6898001448e+000,3.1077929222e+000,2.9116854321e+000,3.4640537393e+000,2.7143060784e+000,3.9777194125e+000,4.1796917199e+000,3.6813935346e+000,3.1140187364e+000,4.2385125712e+000,2.2084597152e+000,5.0269893368e+000,
2.8312500000e+001,3.1034534672e+000,3.8131415322e+000,2.5999574321e+000,2.9592886276e+000,2.9122351115e+000,3.4781948425e+000,2.6423085859e+000,3.8589413637e+000,3.9952123137e+000,3.6634804452e+000,3.1252558355e+000,4.2227216468e+000,2.1378947565e+000,4.9858027746e+000,
2.8406250000e+001,3.3659656006e+000,3.6513430811e+000,2.6144997327e+000,2.9569770116e+000,3.3092734356e+000,3.5013537757e+000,2.6451135833e+000,3.9334570842e+000,4.0186907565e+000,3.8138669231e+000,3.1585555152e+000,4.2660330900e+000,2.2755177359e+000,4.9872399116e+000,
2.8500000000e+001,4.0836895471e+000,4.1940765310e+000,2.9130811763e+000,3.0730324619e+000,3.8714058815e+000,3.5876311429e+000,2.8819032795e+000,4.0177385535e+000,3.9688614092e+000,3.6749143755e+000,3.1752266331e+000,4.2902488307e+000,2.5497298777e+000,5.0205912513e+000,
2.8593750000e+001,4.1169445846e+000,4.1886273199e+000,2.8661506315e+000,3.0210666261e+000,3.9008350446e+000,3.5301179242e+000,2.9581193989e+000,4.0703900165e+000,4.0811314556e+000,3.8093257282e+000,3.1956282059e+000,4.2618787041e+000,2.7924641596e+000,5.0815327655e+000,
2.8687500000e+001,4.1256696283e+000,4.1736431475e+000,2.9535324142e+000,3.0250578417e+000,3.9276805830e+000,3.5001578971e+000,3.0634857251e+000,4.0415928584e+000,4.1820591578e+000,3.8590990931e+000,3.2125545084e+000,4.2649964194e+000,2.7632987821e+000,5.0827196710e+000,
2.8781250000e+001,4.1637876936e+000,4.2397168744e+000,3.0052887003e+000,3.2109988928e+000,3.9636805759e+000,3.6504810226e+000,2.9743366419e+000,3.9923233721e+000,4.3224298659e+000,3.9204762043e+000,3.1579245445e+000,4.3072666924e+000,2.8834204876e+000,5.1735682923e+000,
2.8875000000e+001,4.1765932719e+000,4.2052423860e+000,2.9635988293e+000,3.2190828587e+000,3.9196954339e+000,3.5704358481e+000,2.8980938033e+000,3.9918953081e+000,4.3517910755e+000,3.8481155229e+000,3.0967065359e+000,4.1144163671e+000,2.8816645278e+000,5.0443856195e+000,
2.8968750000e+001,4.2302583324e+000,4.2334490187e+000,3.1190786749e+000,3.3285560307e+000,3.9425786674e+000,3.6550701585e+000,2.9795566268e+000,4.0725720219e+000,4.3835510712e+000,3.9133713476e+000,3.1199957921e+000,4.0520370817e+000,2.9321697717e+000,4.8836357600e+000,
2.9062500000e+001,4.2224123040e+000,4.2430380127e+000,3.1474282494e+000,3.4163236018e+000,3.9198283257e+000,3.6611168905e+000,2.9984941977e+000,3.9590137779e+000,4.3673632038e+000,3.8382191678e+000,3.1692729130e+000,4.0532491407e+000,3.0005618337e+000,4.9130713543e+000,
2.9156250000e+001,4.2733704802e+000,4.3691627875e+000,3.2369147694e+000,3.6978360716e+000,3.9463618723e+000,3.7998654525e+000,2.9402556397e+000,4.0529303137e+000,4.4391585512e+000,3.8565012195e+000,3.2518766706e+000,4.0646369147e+000,3.0253027675e+000,4.8214491752e+000,
2.9250000000e+001,4.4034641224e+000,4.4888368573e+000,3.4730183371e+000,3.9680735923e+000,4.0453431675e+000,3.9937825882e+000,3.0870130263e+000,4.5530743189e+000,4.4718000934e+000,4.2316553945e+000,3.2724128150e+000,4.2931381285e+000,3.0875105010e+000,4.8254087763e+000,
2.9343750000e+001,4.5110783515e+000,4.5503842992e+000,3.6362654565e+000,4.1534915076e+000,4.1041192012e+000,4.0983022800e+000,3.2859781613e+000,4.5954184071e+000,4.4796193902e+000,4.2956652380e+000,3.2489647445e+000,4.3163062240e+000,3.0957676410e+000,4.8312813227e+000,
2.9437500000e+001,4.2723452625e+000,4.3690126370e+000,3.6180450680e+000,4.2403697346e+000,3.7856553284e+000,4.0985545621e+000,3.2800705335e+000,4.5762176396e+000,4.5306190750e+000,4.1852610623e+000,3.2763957470e+000,4.3485690012e+000,3.1620788953e+000,4.9733948177e+000,
2.9531250000e+001,4.1027346644e+000,4.2199324232e+000,3.5707059877e+000,4.2767315295e+000,3.5210740483e+000,4.0501331793e+000,3.2084594224e+000,4.5051925659e+000,4.4550793009e+000,4.1334503290e+000,3.1456070553e+000,4.3316536010e+000,3.0190673849e+000,4.8741675836e+000,
2.9625000000e+001,4.0972565641e+000,4.2153156191e+000,3.5317203418e+000,4.3117362062e+000,3.5052877205e+000,4.0943975273e+000,3.1685177264e+000,4.4801520142e+000,4.4733201294e+000,4.0922806170e+000,3.2058593579e+000,4.2941541138e+000,3.0735591949e+000,4.7659961767e+000,
2.9718750000e+001,4.0844647010e+000,4.1893122526e+000,3.5044865016e+000,4.2670476515e+000,3.5762986701e+000,4.0377963214e+000,3.0784556932e+000,4.5520025153e+000,4.2940568548e+000,4.0694077010e+000,3.1443370439e+000,4.2756857985e+000,3.0919776433e+000,4.6306215194e+000,
2.9812500000e+001,4.0453952457e+000,4.1309270927e+000,3.5279835162e+000,4.2465241575e+000,3.6064821726e+000,4.0019503519e+000,3.1590064191e+000,4.5975512640e+000,4.2320166509e+000,4.0982320719e+000,3.1256732898e+000,4.2937388328e+000,3.0683437544e+000,4.5734870091e+000,
2.9906250000e+001,4.0671640687e+000,4.1522434867e+000,3.5336062723e+000,4.1963284605e+000,3.6855762586e+000,4.0572726753e+000,3.2417765774e+000,4.7114895155e+000,4.2322842753e+000,4.0883012349e+000,3.2209906965e+000,4.4503839183e+000,3.1330753065e+000,4.7201066114e+000,
3.0000000000e+001,4.0402813580e+000,4.1606770128e+000,3.4993773500e+000,4.1880535499e+000,3.7249282866e+000,4.0693097754e+000,3.2113271906e+000,4.7444890893e+000,4.1931358983e+000,4.0800104409e+000,3.3078203340e+000,4.5280634509e+000,3.2801963306e+000,4.8615668709e+000,
3.0093750000e+001,4.0760242154e+000,4.1658024676e+000,3.5326256630e+000,4.1534732933e+000,3.7625745924e+000,4.0407483129e+000,3.2736929039e+000,4.7485178183e+000,4.0435624979e+000,4.0840766659e+000,3.2204900080e+000,4.5441329702e+000,3.2444001411e+000,4.9206061044e+000,
3.0187500000e+001,4.0026771244e+000,3.9755874864e+000,3.4692977367e+000,3.9810541831e+000,3.7043606817e+000,3.9032958635e+000,3.2263295361e+000,4.6011622677e+000,3.9973965742e+000,3.9610788686e+000,3.2397438821e+000,4.6427273339e+000,3.2957576218e+000,5.0711261473e+000,
3.0281250000e+001,3.7751057205e+000,3.7555739270e+000,3.1905349860e+000,3.7393132690e+000,3.5563552458e+000,3.8015043501e+000,3.1214634261e+000,4.3974435601e+000,3.9873068683e+000,3.6908384348e+000,3.2313114825e+000,4.6384650470e+000,3.2627131070e+000,5.1049410094e+000,
3.0375000000e+001,3.6025443976e+000,3.6578651433e+000,3.0546160220e+000,3.6330521952e+000,3.4427194023e+000,3.7078168458e+000,2.9553977112e+000,4.4008875105e+000,4.0842185124e+000,3.7471900256e+000,3.1133942241e+000,4.6395462158e+000,3.2077580323e+000,5.0856158239e+000,
3.0468750000e+001,3.4271830016e+000,3.5406423837e+000,2.9769057100e+000,3.4571115086e+000,3.3126375455e+000,3.6250669211e+000,2.8144894691e+000,4.3608050777e+000,3.9851606901e+000,3.8127690869e+000,3.0698199510e+000,4.6249453860e+000,3.1199496921e+000,5.0713704623e+000,
3.0562500000e+001,3.5422817331e+000,3.6401398678e+000,3.0519498685e+000,3.4146705360e+000,3.4979389770e+000,3.6096290533e+000,2.9399351888e+000,4.3858868680e+000,4.0732114116e+000,3.8740426876e+000,3.0724236737e+000,4.6784307999e+000,3.1835507008e+000,5.1167718298e+000,
3.0656250000e+001,3.5602128654e+000,3.6544088466e+000,3.0414272136e+000,3.3870041488e+000,3.5315651029e+000,3.6169150893e+000,3.0353353969e+000,4.3257934591e+000,3.9778525209e+000,3.9061755135e+000,3.0970339569e+000,4.7680853158e+000,3.2253456321e+000,5.2064247175e+000,
3.0750000000e+001,3.6067457416e+000,3.7298008651e+000,3.1109293304e+000,3.5008149321e+000,3.5284534057e+000,3.6619282430e+000,3.0056171206e+000,4.2971992041e+000,4.0168980868e+000,3.8928555025e+000,3.0889562238e+000,4.7717448652e+000,3.2866820040e+000,5.2054582538e+000,
3.0843750000e+001,3.5901220755e+000,3.7126504524e+000,3.1825360632e+000,3.5292732380e+000,3.4454986800e+000,3.6208071505e+000,3.0029969537e+000,4.1412587544e+000,3.9750424423e+000,3.9173309213e+000,3.0759501113e+000,4.7845175731e+000,3.2464884609e+000,5.2080408817e+000,
3.0937500000e+001,3.7492660708e+000,3.7174814215e+000,3.2178220033e+000,3.5459337942e+000,3.5267798886e+000,3.5181116401e+000,2.9690788591e+000,3.9637633601e+000,3.9594276456e+000,4.0210672873e+000,3.0354290654e+000,4.7281124112e+000,3.2216324772e+000,5.1777147250e+000,
3.1031250000e+001,4.2456067580e+000,4.1121383363e+000,3.3857328354e+000,3.5880145338e+000,3.7541121305e+000,3.5590694820e+000,3.0373844544e+000,3.8976502706e+000,4.0346060937e+000,4.0923956478e+000,3.0438946324e+000,4.6994014496e+000,3.0539574704e+000,5.0090228605e+000,
3.1125000000e+001,4.2792544708e+000,4.1670423714e+000,3.3828879386e+000,3.6913810354e+000,3.7310989040e+000,3.6686878285e+000,3.0120251784e+000,3.8937815184e+000,4.0246303683e+000,4.0863626165e+000,3.0646586790e+000,4.5988911510e+000,3.0681963911e+000,4.9487539495e+000,
3.1218750000e+001,4.2594666921e+000,4.1193339085e+000,3.3524193055e+000,3.5678739198e+000,3.8028155173e+000,3.6427593745e+000,3.0880133740e+000,3.8197453774e+000,4.0660408373e+000,3.9932787381e+000,3.0316168854e+000,4.4603524329e+000,2.9632109776e+000,4.8398333315e+000,
3.1312500000e+001,4.2593513237e+000,4.0764072582e+000,3.3756756766e+000,3.5228044018e+000,3.8442319902e+000,3.5318851204e+000,3.1369841207e+000,3.8411790096e+000,3.9540562359e+000,3.9348163315e+000,3.0149387108e+000,4.4931320771e+000,3.0401080509e+000,4.9729046882e+000,
3.1406250000e+001,4.3180055151e+000,4.1149614674e+000,3.4221913003e+000,3.5824733470e+000,3.8780863777e+000,3.6232518853e+000,3.1649563695e+000,3.8213647831e+000,4.0223163318e+000,3.9859547717e+000,3.0255797703e+000,4.4686641398e+000,3.1764493100e+000,4.9718709923e+000,
3.1500000000e+001,4.2889533453e+000,4.0838548416e+000,3.4107910100e+000,3.5735457274e+000,3.8736089855e+000,3.5847917409e+000,3.1518150218e+000,3.8216998378e+000,3.9870535042e+000,3.9683746150e+000,3.0448593113e+000,4.4639479870e+000,3.1538856588e+000,4.9660541667e+000,
3.1593750000e+001,4.2506080127e+000,4.0374553311e+000,3.3798424821e+000,3.5330927319e+000,3.7993690821e+000,3.5567659502e+000,3.1022834307e+000,3.7602569634e+000,3.9226959361e+000,3.8887374276e+000,3.1490604264e+000,4.2582982805e+000,3.0988314598e+000,4.8480317461e+000,
3.1687500000e+001,4.2798469250e+000,3.9777986120e+000,3.3929278926e+000,3.5589333545e+000,3.8571658813e+000,3.4626122730e+000,3.1159325644e+000,3.7792327074e+000,3.9512337215e+000,3.8437166709e+000,3.1759567496e+000,4.2991254493e+000,3.1702712829e+000,4.8758543355e+000,
3.1781250000e+001,4.3028938783e+000,3.9907289804e+000,3.3143700395e+000,3.4769932284e+000,3.8806734696e+000,3.5157853954e+000,3.1278890384e+000,3.8488413375e+000,3.8481831944e+000,3.8254965752e+000,3.2462965104e+000,4.2688426376e+000,3.0734683687e+000,4.8406668713e+000,
3.1875000000e+001,4.3189412098e+000,4.0691120607e+000,3.2842334068e+000,3.5586928072e+000,3.8971965781e+000,3.5878948277e+000,3.1178701568e+000,3.9034483686e+000,3.9499713747e+000,3.9524034401e+000,3.2368905203e+000,4.3286757225e+000,3.0079811901e+000,4.8106653599e+000,
3.1968750000e+001,4.0774274475e+000,3.8702726182e+000,3.1845974761e+000,3.5465473299e+000,3.7463788070e+000,3.6212572193e+000,3.0545437522e+000,3.9669884010e+000,4.0052509832e+000,3.7957612254e+000,3.2908651117e+000,4.3017703742e+000,2.9484658360e+000,4.8158296200e+000,
3.2062500000e+001,4.0288401451e+000,3.9761631496e+000,3.1296938699e+000,3.5801545820e+000,3.7981317384e+000,3.7343412414e+000,3.1303600770e+000,4.1120362377e+000,3.9579947333e+000,3.6981488250e+000,3.2324259870e+000,4.2195345710e+000,3.0125463811e+000,4.7942901974e+000,
3.2156250000e+001,4.4971535801e+000,4.4851562796e+000,3.2855967202e+000,3.7053843212e+000,4.1989030163e+000,4.0776303784e+000,3.2055410370e+000,4.2239794026e+000,3.9847511166e+000,3.8360108588e+000,3.3636067935e+000,4.2515894982e+000,3.1853948413e+000,4.7134471494e+000,
3.2250000000e+001,4.5354308399e+000,4.5303013547e+000,3.3161789276e+000,3.7848733579e+000,4.2003478082e+000,4.0801128149e+000,3.2533822547e+000,4.2680572689e+000,3.9389887033e+000,3.9491087435e+000,3.2858200577e+000,4.2326871565e+000,3.1332210337e+000,4.6547730262e+000,
3.2343750000e+001,4.5326521778e+000,4.5344012630e+000,3.2959029598e+000,3.7726803442e+000,4.1455945930e+000,4.1259963428e+000,3.1707378410e+000,4.2236836457e+000,3.8403780901e+000,3.9342547345e+000,3.2892153382e+000,4.2394728375e+000,3.1561290140e+000,4.6121225294e+000,
3.2437500000e+001,4.5303030651e+000,4.5290153345e+000,3.2931108539e+000,3.7092207350e+000,4.1572404265e+000,4.1065676728e+000,3.0721554492e+000,4.2227997081e+000,3.8599028816e+000,3.9155567255e+000,3.2955160621e+000,4.2787877119e+000,3.0048934980e+000,4.5064875958e+000,
3.2531250000e+001,4.5444780778e+000,4.5657528611e+000,3.2621801020e+000,3.7798469393e+000,4.1848110231e+000,4.1482110836e+000,3.0152617011e+000,4.2852675661e+000,3.8989434373e+000,3.8738515719e+000,3.2532119990e+000,4.2668371645e+000,3.0235158906e+000,4.4847932702e+000,
3.2625000000e+001,4.5587750451e+000,4.6150305565e+000,3.2619073050e+000,3.8017267192e+000,4.1733307976e+000,4.1670456086e+000,3.1322611371e+000,4.2884595285e+000,4.0225436837e+000,3.8698699538e+000,3.2454293071e+000,4.2414068991e+000,3.0081322295e+000,4.5819418460e+000,
3.2718750000e+001,4.5759612517e+000,4.6637654975e+000,3.2658215439e+000,3.7802367399e+000,4.1175687738e+000,4.1609498040e+000,3.1822841098e+000,4.2826061997e+000,4.0383645638e+000,3.8940413555e+000,3.1987562552e+000,4.2449952565e+000,2.9780577352e+000,4.6626835063e+000,
3.2812500000e+001,4.5637317137e+000,4.6201378325e+000,3.2467233421e+000,3.7405089701e+000,4.0939072208e+000,4.1426496777e+000,3.1751424751e+000,4.1977554644e+000,4.0383581284e+000,3.8451493808e+000,3.1932633560e+000,4.2718373485e+000,3.0175153149e+000,4.7504735489e+000,
3.2906250000e+001,4.5409959943e+000,4.5949192870e+000,3.2378947358e+000,3.6803398130e+000,4.1179172663e+000,4.1138473420e+000,3.1910476706e+000,4.1831974730e+000,4.0423701907e+000,3.6800347647e+000,3.1436027659e+000,4.1551519727e+000,3.1202951310e+000,4.7536775355e+000,
3.3000000000e+001,4.4706671080e+000,4.5197638227e+000,3.2763600780e+000,3.6492395582e+000,4.1221878651e+000,4.0582402796e+000,3.1382326580e+000,4.0869994635e+000,4.0345930835e+000,3.7063368946e+000,3.1391481059e+000,4.1086447146e+000,3.1985014990e+000,4.8016254779e+000,
3.3093750000e+001,4.0996004060e+000,4.1282909084e+000,3.0694124012e+000,3.4532190498e+000,3.8072345118e+000,3.8504353721e+000,3.0423882127e+000,4.0209779876e+000,4.0393563024e+000,3.6473707161e+000,3.0158408969e+000,4.0282837256e+000,3.0621378451e+000,4.8512815776e+000,
3.3187500000e+001,3.7774626309e+000,3.8065381630e+000,2.9378836384e+000,3.2905551666e+000,3.5370532312e+000,3.6348097781e+000,2.9751484957e+000,3.9906406911e+000,4.1473295328e+000,3.4626179720e+000,2.8796749863e+000,4.0300087508e+000,2.9115404304e+000,4.8951415653e+000,
3.3281250000e+001,3.7298712294e+000,3.7401125796e+000,2.8371568932e+000,3.2740384514e+000,3.5394573761e+000,3.6179204876e+000,2.8578169182e+000,3.9315399453e+000,4.2178489686e+000,3.4272915766e+000,2.9265277139e+000,3.9439437153e+000,3.0619049922e+000,4.9041319228e+000,
3.3375000000e+001,3.6808396348e+000,3.6843609398e+000,2.7442615657e+000,3.2316674916e+000,3.6082308886e+000,3.4893317035e+000,2.8512153629e+000,3.9646705342e+000,4.2412941881e+000,3.3773035258e+000,3.0333899718e+000,3.8398261589e+000,3.0032278144e+000,4.8927574887e+000,
3.3468750000e+001,3.9637957369e+000,3.8713294155e+000,2.9406099536e+000,3.3327565354e+000,3.8516008010e+000,3.4648711774e+000,2.9929372697e+000,3.8957893706e+000,4.2136509316e+000,3.4419244584e+000,3.0046256629e+000,3.8776489656e+000,3.0443706199e+000,4.9251983091e+000,
3.3562500000e+001,4.0127514540e+000,3.8435055565e+000,2.9133032092e+000,3.2104816442e+000,3.8955421985e+000,3.4092984725e+000,2.9930452903e+000,3.7766930926e+000,4.1679551764e+000,3.4529146756e+000,3.0474376870e+000,3.9205949079e+000,3.0393007877e+000,4.9510131738e+000,
3.3656250000e+001,3.9373234517e+000,3.8084339265e+000,2.9078342149e+000,3.1489657286e+000,3.9071266148e+000,3.4782599276e+000,2.7727204688e+000,4.1305095601e+000,4.1390915703e+000,3.5043419093e+000,2.9867120196e+000,3.9433608054e+000,3.0347410647e+000,4.8843693149e+000,
3.3750000000e+001,3.8859467862e+000,3.7424276946e+000,2.8828919687e+000,3.0809426119e+000,3.8498675229e+000,3.4971949518e+000,2.6014464710e+000,4.1329177280e+000,4.1807856330e+000,3.4396965002e+000,3.0601447925e+000,3.7575896807e+000,2.9924732323e+000,4.7480503888e+000,
3.3843750000e+001,3.8776196834e+000,3.7953984545e+000,2.9085690703e+000,3.1221925114e+000,3.8038639973e+000,3.4647655863e+000,2.4952910223e+000,4.2047812267e+000,4.1705837136e+000,3.4828570094e+000,3.1364195156e+000,4.1050281461e+000,3.1677555923e+000,4.9292711784e+000,
3.3937500000e+001,3.9311540219e+000,3.8488385793e+000,2.8247698434e+000,3.2269130681e+000,3.8009846246e+000,3.4641117172e+000,2.5387857880e+000,4.1966606287e+000,4.1823573727e+000,3.6201268161e+000,3.1186608177e+000,4.2831910627e+000,3.0625030148e+000,4.9294633114e+000,
3.4031250000e+001,3.9395550470e+000,3.8198861828e+000,2.8836597351e+000,3.2268078425e+000,3.7571672859e+000,3.4141236937e+000,2.7751448082e+000,4.1170972979e+000,4.1739148291e+000,3.6272356036e+000,3.2819855376e+000,4.2886757200e+000,3.1265105501e+000,4.8501726483e+000,
3.4125000000e+001,3.8762459425e+000,3.7274857893e+000,2.9393142419e+000,3.1751473989e+000,3.6887854250e+000,3.2157430281e+000,2.8010662576e+000,3.9792510973e+000,4.0876412732e+000,3.6497427198e+000,3.3326731925e+000,4.3708832007e+000,3.2138073802e+000,4.9163912971e+000,
3.4218750000e+001,3.9134166784e+000,3.7914104056e+000,3.0634436137e+000,3.1686091168e+000,3.7513318580e+000,3.2570831798e+000,3.0043272835e+000,4.0778551422e+000,4.0419931753e+000,3.5933873716e+000,3.4080672298e+000,4.3602589163e+000,3.2149465052e+000,4.9912180579e+000,
3.4312500000e+001,3.8606130920e+000,3.7928057041e+000,3.0525604484e+000,3.1140671261e+000,3.6847913711e+000,3.2099694575e+000,3.0856755644e+000,4.1060254953e+000,4.1016179066e+000,3.5942588714e+000,3.4388381487e+000,4.3422186910e+000,3.0986784802e+000,4.9265565315e+000,
3.4406250000e+001,3.7356311480e+000,3.6721564732e+000,3.0157446854e+000,3.1162756505e+000,3.5736008867e+000,3.2581654221e+000,3.1311838050e+000,4.1937057514e+000,4.1022285316e+000,3.5265933692e+000,3.3442216278e+000,4.3492759127e+000,3.0379067388e+000,4.8939528089e+000,
3.4500000000e+001,3.3581968572e+000,3.4999814928e+000,2.8274299975e+000,3.0676760273e+000,3.1839293468e+000,3.3185108717e+000,2.9806303357e+000,4.1813204130e+000,4.1373722306e+000,3.5259535406e+000,3.3137961094e+000,4.3015751085e+000,3.0395793504e+000,4.8766784284e+000,
3.4593750000e+001,3.2401069670e+000,3.4637554220e+000,2.7974131047e+000,3.1667661856e+000,3.1296191825e+000,3.3937212229e+000,2.9999826016e+000,4.0354432358e+000,4.2983667926e+000,3.5232177923e+000,3.2936088129e+000,4.2935164395e+000,3.0064889104e+000,4.8694344407e+000,
3.4687500000e+001,3.2361258045e+000,3.4713622050e+000,2.7349645159e+000,3.0888006050e+000,3.0790882813e+000,3.3926712612e+000,3.0136125986e+000,3.8807072512e+000,4.1499780189e+000,3.5443820372e+000,3.2436596170e+000,4.3404094827e+000,2.9790318720e+000,4.8802528097e+000,
3.4781250000e+001,3.2027514873e+000,3.4403893862e+000,2.7818918979e+000,3.2045341853e+000,3.1245779714e+000,3.4360191731e+000,3.0684977293e+000,3.8939319170e+000,4.1662686917e+000,3.6321594090e+000,3.2496383662e+000,4.3593668717e+000,2.8987719433e+000,4.9362833697e+000,
3.4875000000e+001,3.2951404056e+000,3.4299145458e+000,2.8422407844e+000,3.1390880484e+000,3.0679724514e+000,3.4072008040e+000,3.1224591215e+000,3.7974968288e+000,4.1830466679e+000,3.6104818537e+000,3.2035923154e+000,4.1120030357e+000,2.6743835498e+000,4.7700834360e+000,
3.4968750000e+001,3.1787766388e+000,3.4317566473e+000,2.9180349538e+000,3.1259105422e+000,3.1458892676e+000,3.4304383579e+000,3.1772454374e+000,3.8140955519e+000,4.1231693106e+000,3.5327532867e+000,3.1665997230e+000,3.9566676200e+000,2.7875603737e+000,4.6976194152e+000,
3.5062500000e+001,3.2979446541e+000,3.5191527428e+000,2.9392581078e+000,3.1412458582e+000,3.2472967398e+000,3.4659540529e+000,3.2040141036e+000,3.9750754332e+000,4.0986646860e+000,3.4862247368e+000,2.9477569624e+000,3.9185280827e+000,2.7254266508e+000,4.7040626512e+000,
3.5156250000e+001,3.3854739808e+000,3.6581574135e+000,2.9553334091e+000,3.2333709033e+000,3.2910389817e+000,3.4780198360e+000,3.1476817764e+000,3.9832646172e+000,4.0999803919e+000,3.4980582280e+000,2.8775934567e+000,3.7832396094e+000,2.7560726557e+000,4.6371257540e+000,
3.5250000000e+001,3.7781202797e+000,3.9608692192e+000,3.0839848646e+000,3.4728594112e+000,3.4792923086e+000,3.6006530210e+000,3.1376503667e+000,4.1542411303e+000,4.0827868713e+000,3.7465615555e+000,2.8072364243e+000,3.9201823293e+000,2.8462934947e+000,4.7483229745e+000,
3.5343750000e+001,3.9230887756e+000,4.0526410274e+000,3.1479512120e+000,3.5109232827e+000,3.5549698180e+000,3.6041522088e+000,3.1638237749e+000,4.0983285470e+000,4.0126006614e+000,3.7531454927e+000,2.6735448794e+000,3.9763884729e+000,2.9925599095e+000,4.7888752614e+000,
3.5437500000e+001,3.9353047472e+000,4.0645507848e+000,3.1765028529e+000,3.4721714464e+000,3.5945186410e+000,3.4660262993e+000,3.0944974304e+000,3.9950821262e+000,4.0227924639e+000,3.7954750730e+000,2.6213708213e+000,3.9152598683e+000,3.1130690944e+000,4.7720940650e+000,
3.5531250000e+001,3.9473577626e+000,4.0337537415e+000,3.1345055456e+000,3.4097727869e+000,3.6153756598e+000,3.4006301359e+000,3.0782083758e+000,4.0377820307e+000,4.0015006737e+000,3.7515468492e+000,2.7130761566e+000,3.9269003902e+000,3.0433944187e+000,4.8374684414e+000,
3.5625000000e+001,3.9334202333e+000,4.0410248550e+000,3.1500579293e+000,3.4369363699e+000,3.6324811474e+000,3.4154991143e+000,3.0646460162e+000,4.2045087677e+000,3.9368621267e+000,3.8542071057e+000,2.7179568858e+000,3.9544183001e+000,3.1502478675e+000,4.8078972889e+000,
3.5718750000e+001,3.9827692600e+000,4.1115115355e+000,3.2071967629e+000,3.5210875040e+000,3.6752999113e+000,3.4249452417e+000,3.0727976955e+000,4.2651270459e+000,3.9663234954e+000,3.8923840370e+000,2.6876110627e+000,3.8698833424e+000,3.1813503699e+000,4.7321257272e+000,
3.5812500000e+001,3.9894622962e+000,4.1638744734e+000,3.1967596802e+000,3.5826019650e+000,3.6824147671e+000,3.4599196423e+000,3.1584806183e+000,4.3290491265e+000,3.9415686358e+000,3.9123974938e+000,2.9800171680e+000,3.8606585801e+000,3.2211545813e+000,4.7053428093e+000,
3.5906250000e+001,4.0176277580e+000,4.2219847156e+000,3.2302498078e+000,3.6649442080e+000,3.6959661471e+000,3.5577206222e+000,3.1099598460e+000,4.4535734869e+000,3.9129449866e+000,3.9658423550e+000,3.0557686226e+000,3.9498621021e+000,3.2249775818e+000,4.7629936267e+000,
3.6000000000e+001,3.9337946474e+000,4.2107024300e+000,3.1653582267e+000,3.6360693708e+000,3.5236698001e+000,3.4559225230e+000,2.8857989012e+000,4.4658412613e+000,3.9881055583e+000,3.9949412482e+000,2.9693715958e+000,4.0147426565e+000,3.1733212157e+000,4.7620840137e+000,
3.6093750000e+001,3.9643942651e+000,4.2472696601e+000,3.2020998075e+000,3.6776515124e+000,3.5329365683e+000,3.5394491866e+000,2.9224628592e+000,4.4969267363e+000,3.9913690984e+000,3.9780770667e+000,2.9691635786e+000,4.0345984875e+000,3.1627884101e+000,4.7587933756e+000,
3.6187500000e+001,3.8110302042e+000,4.1048042500e+000,3.1260844400e+000,3.6377837287e+000,3.4464249891e+000,3.4325739217e+000,2.9867176748e+000,4.4395658039e+000,4.0005386387e+000,4.0527688390e+000,3.1936537513e+000,4.1679335039e+000,3.2172502227e+000,4.7513412798e+000,
3.6281250000e+001,3.3474641480e+000,3.8106870999e+000,2.9040592194e+000,3.4620212033e+000,3.1878746985e+000,3.3560781925e+000,3.0490783393e+000,4.3690845047e+000,4.0943361103e+000,3.8364655353e+000,3.3333791296e+000,4.0886048415e+000,3.1690784645e+000,4.7188143436e+000,
3.6375000000e+001,3.2601119518e+000,3.7965803077e+000,2.9271003435e+000,3.5030439022e+000,3.0985066528e+000,3.3949564433e+000,2.9712711871e+000,4.3696558163e+000,4.1861653170e+000,3.8698528074e+000,3.3963855923e+000,4.0565881030e+000,3.1231369753e+000,4.6725211390e+000,
3.6468750000e+001,3.1817490124e+000,3.8007051599e+000,2.8927572083e+000,3.4218917746e+000,2.9252327825e+000,3.3940779792e+000,3.0044852883e+000,4.3559597952e+000,4.1360159599e+000,3.8307247558e+000,3.4564074151e+000,4.0741980098e+000,3.0487512892e+000,4.6286745207e+000,
3.6562500000e+001,3.1392073726e+000,3.7289606138e+000,2.8949931988e+000,3.3697727129e+000,2.9436385754e+000,3.3527124544e+000,3.0287664796e+000,4.3024758948e+000,4.0331428212e+000,3.8351131506e+000,3.4371031115e+000,4.0811558474e+000,3.0867814427e+000,4.6350431176e+000,
3.6656250000e+001,3.0841779285e+000,3.6187987022e+000,2.8434099076e+000,3.3569888425e+000,2.8694604193e+000,3.2856899543e+000,3.0771471595e+000,4.3109215813e+000,3.9690600742e+000,3.7043264504e+000,3.4093319235e+000,4.1653075209e+000,2.9382126530e+000,4.8009904253e+000,
3.6750000000e+001,3.4927874079e+000,3.8122575177e+000,2.9090040515e+000,3.3150386002e+000,3.1127130960e+000,3.3911873158e+000,3.1667178771e+000,4.2732502663e+000,4.0367804016e+000,3.6760048515e+000,3.3793492003e+000,4.1181289325e+000,2.9744077661e+000,4.8765698746e+000,
3.6843750000e+001,3.7279496773e+000,3.9535255054e+000,2.9158737605e+000,3.3630406123e+000,3.3502223078e+000,3.3860623366e+000,3.0893725846e+000,4.2842042960e+000,4.0473034588e+000,3.6754297725e+000,3.2120806735e+000,4.0974319269e+000,3.1720838886e+000,4.8744358423e+000,
3.6937500000e+001,3.7140757968e+000,3.8545271417e+000,2.8678988121e+000,3.2346328126e+000,3.3630026286e+000,3.2980807751e+000,3.1201223299e+000,4.0831015396e+000,4.1017092028e+000,3.5927929658e+000,3.2109922672e+000,4.0634858985e+000,3.2077404515e+000,4.7828942063e+000,
3.7031250000e+001,3.6883422878e+000,3.7499676225e+000,2.7576562332e+000,3.1861770849e+000,3.3231431128e+000,3.2351494550e+000,3.0600352142e+000,4.0326962089e+000,4.0908343077e+000,3.5676945958e+000,3.2523773207e+000,3.8574066757e+000,3.1632713298e+000,4.7542064313e+000,
3.7125000000e+001,3.6831462083e+000,3.7407811037e+000,2.7427765784e+000,3.1734653334e+000,3.3157712856e+000,3.2291849977e+000,3.0443043519e+000,4.0219960455e+000,4.0945224651e+000,3.5144892706e+000,3.2503849128e+000,3.8338518738e+000,3.0852269466e+000,4.7288418253e+000,
3.7218750000e+001,3.6823053264e+000,3.7879037932e+000,2.7620276318e+000,3.2067038391e+000,3.3503551418e+000,3.3176093164e+000,2.9193622786e+000,3.9980720515e+000,4.1494742341e+000,3.3899547414e+000,3.1775405213e+000,3.7383931587e+000,3.1002726963e+000,4.7153573933e+000,
3.7312500000e+001,3.7187094635e+000,3.8068127242e+000,2.8081976924e+000,3.1469383924e+000,3.3590518605e+000,3.3203330348e+000,2.7757955811e+000,4.0178522711e+000,4.1379408710e+000,3.4541026096e+000,3.0996313503e+000,3.7692744813e+000,3.1677285165e+000,4.6961972999e+000,
3.7406250000e+001,3.7357239787e+000,3.8407476632e+000,2.8701019746e+000,3.0803085751e+000,3.5248806660e+000,3.3299666039e+000,2.9014161841e+000,4.1029967780e+000,4.1251044142e+000,3.4270991551e+000,3.0638620345e+000,3.7881906409e+000,3.0669400488e+000,4.6559932139e+000,
3.7500000000e+001,3.7579073558e+000,3.8669043864e+000,2.9233178564e+000,3.1008115397e+000,3.5291190659e+000,3.3003093407e+000,2.9263199233e+000,4.1141700140e+000,4.1629768325e+000,3.4052766376e+000,3.0554076057e+000,3.8721550994e+000,3.0481506349e+000,4.7336425508e+000,
3.7593750000e+001,3.7680766396e+000,3.9021635223e+000,2.9187441433e+000,3.1355945272e+000,3.4826248561e+000,3.2991747281e+000,2.8639683064e+000,4.1652951260e+000,4.2152899710e+000,3.3409371062e+000,3.0940303987e+000,3.8475123366e+000,3.0239708985e+000,4.6477144586e+000,
3.7687500000e+001,3.6915930808e+000,3.8339670793e+000,2.8929358061e+000,3.1590902692e+000,3.4403518446e+000,3.1885849396e+000,2.7900779205e+000,4.1395655585e+000,4.2147718014e+000,3.5228972340e+000,3.0835270656e+000,4.0560143334e+000,3.1318277615e+000,4.6847560738e+000,
3.7781250000e+001,3.3684229793e+000,3.5026453376e+000,2.6476154722e+000,2.8900620950e+000,3.2282965024e+000,2.9729628949e+000,2.6591426148e+000,4.0493538426e+000,4.1555178906e+000,3.5795642983e+000,3.1339094884e+000,4.3279110565e+000,3.1764442249e+000,4.8577332642e+000,
3.7875000000e+001,3.6788596243e+000,3.7102411757e+000,2.7864328468e+000,2.9294056135e+000,3.4330920342e+000,3.0967885368e+000,2.7776407031e+000,4.0236859826e+000,4.0573643069e+000,3.5844872651e+000,3.1004551079e+000,4.3783674460e+000,3.0618392234e+000,4.9118996297e+000,
3.7968750000e+001,3.6629987314e+000,3.7737836044e+000,2.7411881453e+000,3.0677426736e+000,3.4551645466e+000,3.2219628482e+000,2.8644783069e+000,4.0933797599e+000,4.1150878809e+000,3.5783076298e+000,3.1706873154e+000,4.4678433725e+000,3.1874925120e+000,4.9862816069e+000,
3.8062500000e+001,3.6826260435e+000,3.8437460665e+000,2.7724182549e+000,3.1621515193e+000,3.4717288263e+000,3.2477341470e+000,2.8766480077e+000,4.1352847517e+000,4.1404467491e+000,3.5422644524e+000,3.1301387125e+000,4.4567845455e+000,3.2124847899e+000,4.9839177638e+000,
3.8156250000e+001,3.7125041132e+000,3.8794476390e+000,2.8021961179e+000,3.1235459878e+000,3.5122381660e+000,3.2569148989e+000,2.8045941941e+000,4.1571764933e+000,4.1772827105e+000,3.5894667575e+000,3.1207629426e+000,4.4355353849e+000,3.2683512189e+000,4.9968504859e+000,
3.8250000000e+001,3.6917157282e+000,3.8670179947e+000,2.7108100845e+000,3.2218639478e+000,3.4702090275e+000,3.2973886792e+000,2.8296949956e+000,4.0854953649e+000,4.0871346399e+000,3.6279919071e+000,2.9227216512e+000,4.4494987484e+000,3.2035760740e+000,5.0354899701e+000,
3.8343750000e+001,3.6654399289e+000,3.8492737444e+000,2.6879055867e+000,3.2671387383e+000,3.4252764466e+000,3.2434158411e+000,2.9024044462e+000,4.0372260306e+000,4.1340610198e+000,3.5503737606e+000,2.8253660900e+000,4.4604589940e+000,3.1769912291e+000,5.0922885137e+000,
3.8437500000e+001,3.6680227543e+000,3.7718399517e+000,2.6974648768e+000,3.3428936259e+000,3.2495631446e+000,3.2800874457e+000,2.7612940319e+000,3.9118735044e+000,4.0632704216e+000,3.6713196409e+000,2.7374875491e+000,4.5449689594e+000,3.2710904390e+000,5.1602034500e+000,
3.8531250000e+001,3.7597248410e+000,3.8361398040e+000,2.6860926695e+000,3.3792662482e+000,3.3166412687e+000,3.3838154488e+000,2.7957226118e+000,3.9244107105e+000,4.0733125564e+000,3.9124302693e+000,2.6266447582e+000,4.6450695540e+000,3.3328208637e+000,5.1689120738e+000,
3.8625000000e+001,3.8097991709e+000,3.8616627521e+000,2.8050211022e+000,3.3424952271e+000,3.4006350668e+000,3.4175330402e+000,2.8842571352e+000,3.7422723983e+000,4.1194000876e+000,3.9016618336e+000,2.6338634223e+000,4.5833312275e+000,3.3339000113e+000,5.1500365438e+000,
3.8718750000e+001,3.9072553633e+000,3.9429075720e+000,2.9388456931e+000,3.3727332849e+000,3.4710724255e+000,3.5434876647e+000,2.9808185057e+000,3.7698183784e+000,4.1664298618e+000,3.7331931977e+000,2.6870181232e+000,4.3232651755e+000,3.3223193487e+000,5.0451687267e+000,
3.8812500000e+001,3.4806156507e+000,3.6614104367e+000,2.8458834162e+000,3.3552696020e+000,3.1538004998e+000,3.5231361148e+000,2.9188954635e+000,3.8115327876e+000,4.1868982785e+000,3.8306338890e+000,2.6972054859e+000,4.2144411238e+000,3.2212719814e+000,4.9164435113e+000,
3.8906250000e+001,3.3858094549e+000,3.6114168137e+000,2.8879173417e+000,3.3773214974e+000,3.0542953169e+000,3.4539651887e+000,2.9806116591e+000,3.8437208415e+000,4.2006587924e+000,3.7423230528e+000,2.7289409538e+000,4.2072436574e+000,3.1829339292e+000,4.9156286296e+000,
3.9000000000e+001,3.4714267609e+000,3.6378704624e+000,3.0252717940e+000,3.3853116478e+000,3.0868206698e+000,3.4786902463e+000,3.0339736988e+000,3.8146854783e+000,4.2095986212e+000,3.8756749364e+000,2.6673603526e+000,4.1843660466e+000,3.1840895532e+000,4.9906624016e+000,
3.9093750000e+001,3.4443540938e+000,3.5656717435e+000,3.0268400639e+000,3.3401155351e+000,3.0848184095e+000,3.4847534789e+000,3.1182523514e+000,3.8081847680e+000,4.2175942906e+000,3.8461185185e+000,2.8140616385e+000,4.2536382049e+000,3.1409924942e+000,5.0049792510e+000,
3.9187500000e+001,3.4637644671e+000,3.5082692255e+000,3.0438602737e+000,3.3145755845e+000,3.0336623899e+000,3.3857712261e+000,3.1942420977e+000,3.6769114606e+000,4.2162220570e+000,3.8878563813e+000,2.8798539399e+000,4.2506640178e+000,3.1605894087e+000,4.9858914859e+000,
3.9281250000e+001,3.4542337700e+000,3.5173109780e+000,3.0621229817e+000,3.2245576864e+000,3.1111306506e+000,3.4144324483e+000,3.1883691554e+000,3.7273531274e+000,4.1764520254e+000,3.9302709757e+000,2.9470328131e+000,4.1554054865e+000,3.1381853563e+000,4.9292816737e+000,
3.9375000000e+001,3.5019271623e+000,3.5440674278e+000,3.0725414312e+000,3.3316776085e+000,3.1498686002e+000,3.4846570755e+000,3.2099490093e+000,3.9260028482e+000,4.1041603853e+000,3.9380160638e+000,2.9874784483e+000,4.2447901019e+000,3.1890616019e+000,4.9683275217e+000,
3.9468750000e+001,3.4145276905e+000,3.4741182278e+000,3.0390809573e+000,3.2879491143e+000,3.0510930130e+000,3.4020614558e+000,3.1831791725e+000,3.9537498127e+000,4.2380554451e+000,3.7146225403e+000,3.0233352299e+000,4.0032055408e+000,3.0768501847e+000,4.8990444484e+000,
3.9562500000e+001,3.4230053972e+000,3.4944994247e+000,3.1617687716e+000,3.3622552499e+000,3.0534311707e+000,3.4325640442e+000,3.2560185937e+000,3.9395498317e+000,4.2024883495e+000,3.7427387340e+000,3.0117418102e+000,3.8874945200e+000,2.9606082372e+000,4.8671019857e+000,
3.9656250000e+001,3.3528835881e+000,3.4928956300e+000,3.0814909534e+000,3.3918703657e+000,2.9141580165e+000,3.3960876215e+000,3.2300836322e+000,3.8831669196e+000,4.1516475399e+000,3.8211937214e+000,2.8961241987e+000,4.0001492148e+000,2.9439755479e+000,4.9607285912e+000,
3.9750000000e+001,3.4610349786e+000,3.4926951785e+000,3.0237347082e+000,3.2943334697e+000,2.8260840766e+000,3.2214151683e+000,3.1225331209e+000,3.8497908106e+000,4.1519209225e+000,3.8085800999e+000,2.8175642211e+000,3.9895858563e+000,2.7801305147e+000,4.9108265611e+000,
3.9843750000e+001,3.7392896124e+000,3.6784255143e+000,3.0362149395e+000,3.2679643068e+000,3.0760394295e+000,3.2332772188e+000,3.1267516968e+000,3.7919281455e+000,4.0996130783e+000,3.7412228684e+000,2.7610734100e+000,3.9593658258e+000,2.8865979007e+000,4.9868054917e+000,
3.9937500000e+001,3.7087120956e+000,3.6706407003e+000,3.0235798268e+000,3.3237801167e+000,3.1147583453e+000,3.2128016310e+000,3.0974634925e+000,3.7026171005e+000,4.1010516760e+000,3.7180311780e+000,2.7121311569e+000,4.0904405205e+000,3.1614288094e+000,5.1734518385e+000,
4.0031250000e+001,3.6938096405e+000,3.6578991481e+000,2.9316057598e+000,3.2266988923e+000,3.0827158857e+000,3.1299747564e+000,3.0166739054e+000,3.6548824071e+000,4.2070335518e+000,3.6166818090e+000,2.6536326291e+000,4.0886804925e+000,3.2566701702e+000,5.1157951012e+000,
4.0125000000e+001,3.6845578508e+000,3.6487742537e+000,2.9001694817e+000,3.2306039848e+000,3.0939542802e+000,3.1310000343e+000,2.9854523526e+000,3.6864340134e+000,4.2149543569e+000,3.6945088778e+000,2.5469407336e+000,4.1104564226e+000,3.2484613210e+000,5.2164042940e+000,
4.0218750000e+001,3.6860246588e+000,3.6027864568e+000,2.8396294432e+000,3.2716319837e+000,3.0709892308e+000,3.0188896699e+000,2.9265481287e+000,3.6925593640e+000,4.1874945895e+000,3.6395925805e+000,2.5634322486e+000,4.2694137825e+000,3.2852469266e+000,5.2549488362e+000,
4.0312500000e+001,3.7024023296e+000,3.6223155773e+000,2.7921962244e+000,3.3432564670e+000,3.0676068901e+000,3.0704353439e+000,2.9404176942e+000,3.6419008098e+000,4.1733236189e+000,3.6810643132e+000,2.4857009100e+000,4.2980026034e+000,3.2609131059e+000,5.2531767654e+000,
4.0406250000e+001,3.6948934465e+000,3.6278869179e+000,2.7990362052e+000,3.2970451476e+000,3.0993681709e+000,3.0305711744e+000,2.8802500207e+000,3.4799495314e+000,4.0771146808e+000,3.7044027125e+000,2.4765365422e+000,4.2466460584e+000,3.2519036754e+000,5.1859569915e+000,
4.0500000000e+001,3.6902064436e+000,3.6303956580e+000,2.6739635276e+000,3.3348251863e+000,3.1381771593e+000,2.9997699154e+000,2.7815721820e+000,3.4452000054e+000,4.0525087211e+000,3.6009430793e+000,2.4737753722e+000,4.2801217377e+000,3.2875723403e+000,5.1920846108e+000,
4.0593750000e+001,3.6902458055e+000,3.5892409318e+000,2.6894201254e+000,3.3014275279e+000,3.2278912222e+000,3.0291757031e+000,2.7236838519e+000,3.5755147235e+000,4.1413151063e+000,3.5828175902e+000,2.6052741572e+000,4.3091858675e+000,3.3467895367e+000,5.1811158610e+000,
4.0687500000e+001,4.0976881786e+000,3.9344400301e+000,2.8862921484e+000,3.2938004767e+000,3.6111600361e+000,3.1494301666e+000,2.9326114249e+000,3.5670835462e+000,4.1345765392e+000,3.6377019244e+000,2.6864709595e+000,4.2091646960e+000,3.3340807810e+000,5.0970178186e+000,
4.0781250000e+001,3.9622206872e+000,3.8957005133e+000,2.9071797415e+000,3.2192994925e+000,3.5741773446e+000,3.1613380293e+000,2.9437569109e+000,3.5265093556e+000,4.1059221552e+000,3.5928824578e+000,2.7087000895e+000,4.2166718298e+000,3.3791964379e+000,5.1253512520e+000,
4.0875000000e+001,3.9526461277e+000,3.8663254098e+000,2.9936897833e+000,3.2599079921e+000,3.6296369510e+000,3.1954673290e+000,2.8962618307e+000,3.5381216136e+000,4.2050550949e+000,3.6048168831e+000,2.7451347347e+000,4.1586447811e+000,3.2874267986e+000,5.0210300010e+000,
4.0968750000e+001,3.9111483589e+000,3.8297703895e+000,3.0047656349e+000,3.1537349024e+000,3.5912767034e+000,3.2674619776e+000,2.8859933514e+000,3.4641162568e+000,4.1323461085e+000,3.5604042267e+000,2.7322263019e+000,4.0669893724e+000,3.1485875383e+000,4.8610902005e+000,
4.1062500000e+001,3.9660600625e+000,3.8679091971e+000,3.1561871088e+000,3.2606301406e+000,3.6970198816e+000,3.3042192574e+000,2.9987618969e+000,3.6058053979e+000,4.0485541895e+000,3.6131029380e+000,2.7696967878e+000,4.1530998210e+000,3.0400340144e+000,4.9414125219e+000,
4.1156250000e+001,3.9869908107e+000,3.9398227699e+000,3.1812848610e+000,3.2225776177e+000,3.7638779645e+000,3.3685799576e+000,2.9859667288e+000,3.6678396291e+000,3.9880922749e+000,3.5642428381e+000,2.7283659299e+000,4.2514311503e+000,3.1732928805e+000,4.8729182886e+000,
