Time (s),AF3,AF4,F3,F4,F7,F8,FC5,FC6,T7,T8,P7,P8,O1,O2,Sampling Rate
0.0000000000e+000,2.8993333339e+000,3.9567796754e+000,2.6602596318e+000,2.7753705591e+000,3.1944535969e+000,4.2306133689e+000,3.1025664006e+000,3.6350279848e+000,3.6167259747e+000,4.0462978693e+000,4.1270200583e+000,3.4293341984e+000,1.1091784132e+001,3.5943477970e+000,1
9.3750000000e-002,2.8589266934e+000,3.4453215023e+000,2.6180925222e+000,2.8618352481e+000,3.1956235096e+000,4.1936128779e+000,3.0486231727e+000,3.6454263568e+000,3.5884137221e+000,3.9947324017e+000,4.1364515549e+000,3.5120261837e+000,1.0949436700e+001,3.6212049245e+000,
1.8750000000e-001,2.8632394227e+000,3.4524314972e+000,2.5513361155e+000,2.9316834761e+000,3.1833422510e+000,4.1466826306e+000,3.1058753634e+000,3.5884713427e+000,3.8360204987e+000,3.8900554775e+000,4.1307038919e+000,3.5328571836e+000,1.0795804470e+001,3.6324705782e+000,
2.8125000000e-001,2.9698929692e+000,3.4752516332e+000,2.5175527582e+000,2.9065605331e+000,3.1648616049e+000,4.0444962966e+000,3.0543165127e+000,3.6066273174e+000,3.8589305149e+000,3.8268544752e+000,3.8333094282e+000,3.4161923195e+000,1.0594000412e+001,3.6016589065e+000,
3.7500000000e-001,2.9649079028e+000,3.5860570058e+000,2.4558251675e+000,2.8531358215e+000,3.1064112631e+000,3.8912559181e+000,2.9010680541e+000,3.6199351146e+000,3.9905749839e+000,3.5803806095e+000,3.6297619125e+000,3.3035995306e+000,9.5262602248e+000,3.4662777013e+000,
4.6875000000e-001,2.9273246665e+000,3.6533203544e+000,2.5407883472e+000,2.8581352702e+000,2.9948910475e+000,3.8573919008e+000,2.9140470916e+000,3.5761087093e+000,4.0025895535e+000,3.5636567603e+000,3.5935545831e+000,3.2808213610e+000,9.3992814703e+000,3.4901691455e+000,
5.6250000000e-001,2.9368604520e+000,3.6437772050e+000,2.6248789140e+000,2.9810799664e+000,3.1709525082e+000,3.8279745362e+000,3.1170968514e+000,3.5880731249e+000,4.0613832985e+000,3.5043013961e+000,3.3012289932e+000,3.2731443786e+000,9.2805267546e+000,3.5056790829e+000,
6.5625000000e-001,2.9887697676e+000,3.7025261548e+000,2.6799939807e+000,3.0496592336e+000,3.0734329740e+000,3.7983031975e+000,3.0481011224e+000,3.7345537269e+000,4.0652824939e+000,3.4804427541e+000,3.1796100360e+000,3.3505019624e+000,9.3032158409e+000,3.5175003473e+000,
7.5000000000e-001,2.9458327660e+000,3.5642054555e+000,2.7588725423e+000,2.9537612071e+000,3.1867917442e+000,3.6842667526e+000,3.1392957774e+000,3.5842626009e+000,4.0705927746e+000,3.3974258540e+000,3.2432936271e+000,3.3479905310e+000,9.3597927112e+000,3.6366983488e+000,
8.4375000000e-001,2.9633906358e+000,3.5324401603e+000,2.8310768146e+000,2.9895762986e+000,3.2376818605e+000,3.6647942938e+000,3.1494150326e+000,3.5653887507e+000,4.0871211398e+000,3.4800490455e+000,3.2682740305e+000,3.4163133130e+000,9.4812296397e+000,3.7427230967e+000,
9.3750000000e-001,2.9806876855e+000,3.4597855228e+000,2.8416634937e+000,2.9880400506e+000,3.1927542465e+000,3.5889915950e+000,3.1271870606e+000,3.6136256005e+000,4.0734103662e+000,3.4602884810e+000,3.2562734617e+000,3.4919058928e+000,9.6671397147e+000,3.7613642686e+000,
1.0312500000e+000,3.0490800903e+000,3.4664219340e+000,2.8220774172e+000,3.0039278942e+000,3.1703589359e+000,3.6039535297e+000,3.0013758420e+000,3.5384930419e+000,4.0977293976e+000,3.5596681967e+000,3.1537186659e+000,3.5159507060e+000,9.8148632075e+000,3.8032193664e+000,
1.1250000000e+000,3.1641759956e+000,3.4972556630e+000,2.9650429842e+000,3.0767095273e+000,3.3780129744e+000,3.6235104909e+000,3.0807289338e+000,3.5816901049e+000,4.0878118760e+000,3.5905498627e+000,3.0014729150e+000,3.5341901664e+000,9.7883550717e+000,3.8770623241e+000,
1.2187500000e+000,3.2162888108e+000,3.4851380060e+000,3.0774682090e+000,3.0586232121e+000,3.5139422412e+000,3.6341968473e+000,3.1242256763e+000,3.6363468616e+000,4.0376944947e+000,3.6328756007e+000,2.8503876582e+000,3.7165990276e+000,9.8118103650e+000,4.0271513370e+000,
1.3125000000e+000,3.1603615288e+000,3.4928724046e+000,3.0963245528e+000,3.0639663278e+000,3.5025705891e+000,3.5918847248e+000,3.1579939661e+000,3.6500999091e+000,4.0490993247e+000,3.6513449218e+000,2.7026627229e+000,3.7997142674e+000,9.8554514019e+000,4.0444127000e+000,
1.4062500000e+000,3.1351415361e+000,3.3760242446e+000,3.0922525420e+000,3.0951062150e+000,3.5026075555e+000,3.4594949404e+000,3.1655963595e+000,3.5979476610e+000,3.9753952302e+000,3.5962162782e+000,2.8012290511e+000,3.8209323779e+000,9.9351392161e+000,4.0903048781e+000,
1.5000000000e+000,3.1220778974e+000,3.4347554317e+000,3.1315978285e+000,3.1599054071e+000,3.4406900911e+000,3.6289527961e+000,3.0099715457e+000,3.6598782933e+000,3.9995878944e+000,3.7808567251e+000,2.8681730946e+000,3.9605985827e+000,9.9574967104e+000,4.1659169740e+000,
1.5937500000e+000,3.0962439401e+000,3.4488415694e+000,3.0406477720e+000,3.0519422465e+000,3.3799108667e+000,3.5807581077e+000,2.8904639738e+000,3.6030728256e+000,3.8462631227e+000,3.7653359781e+000,2.9422526391e+000,3.9638925382e+000,9.9729440916e+000,4.1975389606e+000,
1.6875000000e+000,2.9952366446e+000,3.2769174673e+000,2.9040363019e+000,2.8752902780e+000,3.3249085901e+000,3.5181515179e+000,2.8203675424e+000,3.3485323387e+000,3.7245393918e+000,3.6604956183e+000,2.9946753177e+000,3.8306858240e+000,9.8776083131e+000,4.1272996078e+000,
1.7812500000e+000,3.0113768935e+000,3.2125666017e+000,2.7301963026e+000,2.7803410773e+000,3.2895521943e+000,3.5290911228e+000,2.8376135938e+000,3.2936102209e+000,3.7480502255e+000,3.6184716887e+000,2.9686375475e+000,3.7940797127e+000,9.8693727116e+000,4.0359261975e+000,
1.8750000000e+000,2.9717246138e+000,3.1930285158e+000,2.6879908494e+000,2.7261974473e+000,3.2422369716e+000,3.4655285020e+000,2.8524414625e+000,3.2979512926e+000,3.7101147964e+000,3.4340448988e+000,2.8814330352e+000,3.7072726969e+000,9.8732257101e+000,3.9656741183e+000,
1.9687500000e+000,3.0553752094e+000,3.3652592006e+000,2.7055593622e+000,2.7422744926e+000,3.2969524929e+000,3.5845753449e+000,2.9838229598e+000,3.3415035850e+000,3.6279236231e+000,3.4884431069e+000,2.8936058554e+000,3.6600450387e+000,1.0117581201e+001,3.9533158811e+000,
2.0625000000e+000,2.8507591948e+000,3.4432962947e+000,2.5875038937e+000,2.5695935271e+000,3.2854203839e+000,3.4509566471e+000,2.9961791576e+000,3.3007957280e+000,3.6381528764e+000,3.4140678272e+000,2.8864762894e+000,3.5470635979e+000,1.0040961153e+001,3.8684685578e+000,
2.1562500000e+000,2.6935301365e+000,3.4034096308e+000,2.4772220353e+000,2.5080931181e+000,2.9094100574e+000,3.4066454456e+000,2.9170054035e+000,3.1820866485e+000,3.6219642414e+000,3.4037508723e+000,2.8802564812e+000,3.5381390799e+000,1.0026176030e+001,3.8303935189e+000,
2.2500000000e+000,2.7287980219e+000,3.3614201517e+000,2.4673543370e+000,2.5154505644e+000,2.9276055814e+000,3.5003891395e+000,2.8915433132e+000,3.2211193143e+000,3.4860050942e+000,3.4599687839e+000,2.8895187556e+000,3.4497417042e+000,1.0072555499e+001,3.7123245462e+000,
2.3437500000e+000,2.9149778091e+000,3.4098850106e+000,2.5126970004e+000,2.6810996161e+000,2.9347594771e+000,3.5749864093e+000,2.8772977241e+000,3.2540606083e+000,3.3402434043e+000,3.5196666721e+000,2.9127982348e+000,3.4639692419e+000,9.9765967403e+000,3.7519260470e+000,
2.4375000000e+000,2.9054558139e+000,3.2553265862e+000,2.4080631391e+000,2.5208253187e+000,2.9642107423e+000,3.4472825286e+000,2.8380827038e+000,3.1958063541e+000,3.2627110579e+000,3.2904423556e+000,2.9202989563e+000,3.2718152425e+000,9.9744282176e+000,3.6114681789e+000,
2.5312500000e+000,2.8805515497e+000,3.2207249345e+000,2.3798946847e+000,2.4436325366e+000,2.9282865193e+000,3.4243483410e+000,2.8872038368e+000,3.1069639191e+000,3.2629318784e+000,3.3899024427e+000,3.0710328492e+000,3.4450105305e+000,1.0017247368e+001,3.6552263299e+000,
2.6250000000e+000,2.8755055920e+000,3.2414383000e+000,2.3669892921e+000,2.5176259339e+000,2.8985673048e+000,3.3553886159e+000,2.8582666040e+000,3.1262815555e+000,3.3531732138e+000,3.4109569182e+000,3.1989926994e+000,3.3696353071e+000,1.0135091942e+001,3.5172643627e+000,
2.7187500000e+000,2.7507695280e+000,3.2430244629e+000,2.3702105870e+000,2.7003897262e+000,2.9176345315e+000,3.4537687375e+000,2.8402989797e+000,3.1960469950e+000,3.4268024172e+000,3.6173886145e+000,3.0997995184e+000,3.3868141938e+000,1.0331879689e+001,3.5313228206e+000,
2.8125000000e+000,2.6616515218e+000,3.2581386063e+000,2.3679373280e+000,2.6715581517e+000,2.9076012606e+000,3.4613100074e+000,2.7370417059e+000,3.2239126810e+000,3.4673624199e+000,3.6481989871e+000,3.1237203347e+000,3.3947248789e+000,1.0346867341e+001,3.4473561649e+000,
2.9062500000e+000,2.7427733117e+000,3.2837834132e+000,2.4132367852e+000,2.7691288989e+000,3.2306861402e+000,3.5137703878e+000,2.8077679366e+000,3.2407086535e+000,3.5671822643e+000,3.7244610606e+000,3.1493305323e+000,3.4103817426e+000,1.0249681956e+001,3.5356227517e+000,
3.0000000000e+000,2.6053439052e+000,2.9829975781e+000,2.4436273843e+000,2.7512489989e+000,3.1670433122e+000,3.3613227828e+000,2.7295629563e+000,3.1385937121e+000,3.5362890295e+000,3.5765867982e+000,3.1416164789e+000,3.4271492065e+000,9.8857399914e+000,3.4964257838e+000,
3.0937500000e+000,2.7547918516e+000,3.0151142311e+000,2.5559702733e+000,2.8804131880e+000,3.1575132521e+000,3.6341479743e+000,2.8090544465e+000,3.3686930022e+000,3.5423273552e+000,3.8128783287e+000,3.1863147668e+000,3.6894811663e+000,9.8906518515e+000,3.6675010786e+000,
3.1875000000e+000,2.8769718025e+000,3.0658672245e+000,2.4507455294e+000,2.8245277768e+000,3.3337607748e+000,3.6868174331e+000,2.7936734822e+000,3.4462404367e+000,3.6063716060e+000,3.8405488949e+000,3.2437848985e+000,3.7413215495e+000,9.9022857395e+000,3.7057974805e+000,
3.2812500000e+000,2.9299152098e+000,3.0112894408e+000,2.4515741375e+000,2.7467926086e+000,3.3693321542e+000,3.6762966008e+000,2.8408076189e+000,3.5401882178e+000,3.6348036859e+000,3.7655915296e+000,3.2349698045e+000,3.6062264372e+000,9.9974691320e+000,3.6955478214e+000,
3.3750000000e+000,2.8196775206e+000,3.0064383464e+000,2.4373176212e+000,2.6072818075e+000,3.3236536897e+000,3.5900587291e+000,2.8261317033e+000,3.4618680014e+000,3.5768940510e+000,3.7362802932e+000,3.1190446245e+000,3.6390793976e+000,9.9934872384e+000,3.7941860032e+000,
3.4687500000e+000,2.9486837860e+000,3.1790641291e+000,2.4577238513e+000,2.7399542451e+000,3.3460178810e+000,3.7137041433e+000,2.8947608284e+000,3.5211547467e+000,3.6678302670e+000,3.7921309763e+000,3.1897566646e+000,3.6386276183e+000,1.0033196592e+001,3.7552160949e+000,
3.5625000000e+000,2.9480141340e+000,3.1346140717e+000,2.4911892946e+000,2.7087989910e+000,3.4310259827e+000,3.7639949060e+000,2.8328781120e+000,3.4929101816e+000,3.6504366954e+000,3.7991005355e+000,3.1965078114e+000,3.4788616148e+000,1.0138517818e+001,3.7074825376e+000,
3.6562500000e+000,3.1294819705e+000,3.2131937459e+000,2.7200126296e+000,2.6750969749e+000,3.4703168791e+000,3.9315119975e+000,2.9380772836e+000,3.5570088248e+000,3.6912179637e+000,3.8846569048e+000,3.3330882828e+000,3.5007730296e+000,1.0206834380e+001,3.7154166046e+000,
3.7500000000e+000,3.2243002375e+000,3.2595379777e+000,2.7262624683e+000,2.5691887955e+000,3.4864755014e+000,3.8506451070e+000,2.9455303007e+000,3.5262101387e+000,3.6911630417e+000,3.8172911405e+000,3.3789658368e+000,3.5292209934e+000,1.0012421242e+001,3.8321643208e+000,
3.8437500000e+000,3.2108478830e+000,3.2251942793e+000,2.7163579465e+000,2.6592775651e+000,3.2529396962e+000,3.8806125936e+000,2.8566230723e+000,3.5659352810e+000,3.6647872461e+000,3.8560089746e+000,3.3955297304e+000,3.5835470704e+000,1.0008915449e+001,3.8548371448e+000,
3.9375000000e+000,3.2658074862e+000,3.2344273102e+000,2.7351277994e+000,2.7350052220e+000,3.2157369087e+000,3.9998186590e+000,2.7135041807e+000,3.6482848295e+000,3.6516271737e+000,4.0152170298e+000,3.3821242285e+000,3.7778296232e+000,1.0046096810e+001,3.9236326160e+000,
4.0312500000e+000,3.3150407898e+000,3.2980445100e+000,2.7732953401e+000,2.7901797024e+000,3.2299202408e+000,4.0358913332e+000,2.6269779040e+000,3.7242194137e+000,3.6591900091e+000,4.0814132460e+000,3.4411569171e+000,3.8100392927e+000,1.0091070167e+001,3.9321700754e+000,
4.1250000000e+000,3.3383473191e+000,3.3627798385e+000,2.7489216117e+000,2.7921097447e+000,3.3353635637e+000,3.9350442849e+000,2.7604320395e+000,3.5907766605e+000,3.6236154037e+000,3.9465107582e+000,3.3979405096e+000,3.4697111649e+000,1.0204543144e+001,3.7451446594e+000,
4.2187500000e+000,3.3100975468e+000,3.3262762753e+000,2.7410595735e+000,2.8104452024e+000,3.2428219840e+000,3.9394259948e+000,2.6285881736e+000,3.5525160314e+000,3.6360165309e+000,3.8949230004e+000,3.4310623600e+000,3.4386083418e+000,1.0062873044e+001,3.7417248822e+000,
4.3125000000e+000,3.2117086144e+000,3.3219436312e+000,2.6819386503e+000,2.8622895164e+000,3.2137267883e+000,3.9240822386e+000,2.5285737206e+000,3.4830228167e+000,3.6812059537e+000,3.8987370920e+000,3.4318947654e+000,3.4930628105e+000,1.0017829510e+001,3.7748706105e+000,
4.4062500000e+000,3.2280883291e+000,3.2553795606e+000,2.6432963465e+000,2.9036524675e+000,3.2052690916e+000,3.9484600683e+000,2.5717139399e+000,3.4761898816e+000,3.7056499862e+000,3.8984136384e+000,3.4686609882e+000,3.4219591175e+000,9.9830460642e+000,3.6475198000e+000,
4.5000000000e+000,3.1921441918e+000,3.5328656072e+000,2.6657183937e+000,2.8393058577e+000,3.0964568527e+000,3.9702668343e+000,2.4769146940e+000,3.5231297449e+000,3.6338961508e+000,3.9465351343e+000,3.2333624056e+000,3.4466213509e+000,9.9287587112e+000,3.7281390926e+000,
4.5937500000e+000,3.2120988136e+000,3.5379193405e+000,2.6508241867e+000,2.7917225272e+000,3.0701328968e+000,3.8936715639e+000,2.5065704697e+000,3.5627587397e+000,3.5924845995e+000,3.8443472932e+000,3.1150743716e+000,3.4598085566e+000,9.7128997998e+000,3.6537478426e+000,
4.6875000000e+000,3.0559834633e+000,3.5330775238e+000,2.4640783338e+000,2.7776205122e+000,3.1015404620e+000,3.8404778846e+000,2.4474062894e+000,3.6337462801e+000,3.5307800367e+000,3.8154641609e+000,3.1003719491e+000,3.6022940189e+000,9.6395754889e+000,3.6614515323e+000,
4.7812500000e+000,3.0985270059e+000,3.6379033135e+000,2.4795315683e+000,3.0429095235e+000,3.1173001330e+000,3.9198310975e+000,2.5242563057e+000,3.7404248704e+000,3.5309060869e+000,3.8769458852e+000,3.1930971642e+000,3.6563361083e+000,9.9125729984e+000,3.6526981445e+000,
4.8750000000e+000,3.1681343447e+000,3.6970311580e+000,2.5237744106e+000,3.0228960198e+000,3.1730191592e+000,3.9513417482e+000,2.5600442217e+000,3.6558558928e+000,3.3878030436e+000,3.8413611717e+000,3.1068615375e+000,3.6512962102e+000,9.9697534803e+000,3.6526467045e+000,
4.9687500000e+000,3.0529705597e+000,3.6736802052e+000,2.4014945918e+000,2.9019572630e+000,3.1109791930e+000,3.8859995486e+000,2.5334261169e+000,3.5653918112e+000,3.3877632571e+000,3.7573789975e+000,3.1543669921e+000,3.6108216091e+000,9.9405850533e+000,3.6610334784e+000,
5.0625000000e+000,3.0578401824e+000,3.5727044469e+000,2.3612602098e+000,2.9254480288e+000,3.1357632690e+000,3.8246797964e+000,2.5713022296e+000,3.4846395576e+000,3.5367757624e+000,3.6857566850e+000,3.1603330691e+000,3.6248814304e+000,9.8582326250e+000,3.6990455846e+000,
5.1562500000e+000,2.9978052046e+000,3.6318151435e+000,2.4111472675e+000,2.9172411450e+000,3.0649491748e+000,3.7889114864e+000,2.5606191362e+000,3.4924244371e+000,3.4883464095e+000,3.6982475800e+000,3.1692126527e+000,3.7599489982e+000,9.7977043495e+000,3.7876598053e+000,
5.2500000000e+000,2.9419256303e+000,3.6529639100e+000,2.3873973453e+000,2.8748627995e+000,2.9599575352e+000,3.7492332494e+000,2.5122468180e+000,3.4677981360e+000,3.3783085370e+000,3.7082897768e+000,3.0956268712e+000,3.7708744062e+000,9.7859818060e+000,3.7085409885e+000,
5.3437500000e+000,2.9305914707e+000,3.6460956278e+000,2.5765111047e+000,2.8672479366e+000,3.0401665853e+000,3.7318131078e+000,2.5493802066e+000,3.4688127815e+000,3.4125142822e+000,3.7439845630e+000,3.1028274045e+000,3.7510018180e+000,9.9012169026e+000,3.7299363414e+000,
5.4375000000e+000,2.9180027931e+000,3.7303997682e+000,2.6058088130e+000,2.8806698444e+000,3.0346316075e+000,3.7135861084e+000,2.5411723087e+000,3.5426827874e+000,3.4034630718e+000,3.6961947870e+000,3.0339461743e+000,3.7605336284e+000,9.9019813922e+000,3.7277029797e+000,
5.5312500000e+000,2.8886452782e+000,3.6203344972e+000,2.5643398420e+000,2.9074840113e+000,3.0361536659e+000,3.5395416107e+000,2.6124242249e+000,3.4343665031e+000,3.3564116606e+000,3.5095136930e+000,2.9682717220e+000,3.7235367604e+000,9.8041722873e+000,3.7482063056e+000,
5.6250000000e+000,2.8970509569e+000,3.6060456059e+000,2.5528258181e+000,2.9228959825e+000,3.0167048223e+000,3.5778055794e+000,2.6580680717e+000,3.4169710226e+000,3.3547098447e+000,3.5397149998e+000,3.4893308027e+000,3.6828321298e+000,1.0554275701e+001,3.8298676293e+000,
5.7187500000e+000,2.9184109993e+000,3.6453880352e+000,2.6295340671e+000,3.0233767349e+000,2.9510696649e+000,3.7764199591e+000,2.6926748405e+000,3.4297665720e+000,3.3390754331e+000,3.7245924748e+000,3.6287778460e+000,3.7284513907e+000,1.0574603447e+001,3.8298478698e+000,
5.8125000000e+000,2.7983871858e+000,3.4830994633e+000,2.6289619522e+000,2.8160955881e+000,2.7670680949e+000,3.8689541704e+000,2.6292304967e+000,3.4105142671e+000,3.3055062478e+000,3.8300666005e+000,3.7427010880e+000,3.6504093109e+000,1.0467185102e+001,3.7958792857e+000,
5.9062500000e+000,2.7363972620e+000,3.4347217166e+000,2.6187170872e+000,2.7397338911e+000,2.8426948192e+000,3.7916886590e+000,2.7146781589e+000,3.3925968229e+000,3.3102637631e+000,3.7832491572e+000,3.7560724745e+000,3.5551848311e+000,1.0371449345e+001,3.7599782070e+000,
6.0000000000e+000,2.7508977958e+000,3.4210998816e+000,2.6379644246e+000,2.7459425276e+000,2.8951477923e+000,3.8147673479e+000,2.7745284283e+000,3.4186261393e+000,3.1215315634e+000,3.8320331310e+000,3.7779587444e+000,3.5401410478e+000,1.0349470548e+001,3.8058914069e+000,
6.0937500000e+000,2.6225370472e+000,3.3428841100e+000,2.6347343490e+000,2.6666093055e+000,2.9134216447e+000,3.8519341580e+000,2.8072473375e+000,3.4659538799e+000,3.0538397710e+000,3.8503068672e+000,3.7468955211e+000,3.5172217190e+000,1.0332553116e+001,3.7917242167e+000,
6.1875000000e+000,2.5669935606e+000,3.3891486467e+000,2.5894827228e+000,2.6026493922e+000,2.8309071385e+000,3.8397102625e+000,2.7036860411e+000,3.4161611671e+000,3.0109382649e+000,3.8101934044e+000,3.7862076882e+000,3.4287221374e+000,1.0314466078e+001,3.7382715496e+000,
6.2812500000e+000,2.8224905564e+000,3.3973455470e+000,2.6539154459e+000,2.7781427482e+000,2.9562911232e+000,3.8928449718e+000,2.7303454365e+000,3.5070861472e+000,3.0997540001e+000,3.8589940520e+000,3.7958993566e+000,3.4972308765e+000,1.0285639779e+001,3.8052800381e+000,
6.3750000000e+000,2.8347148090e+000,3.2787905230e+000,2.5398805304e+000,2.7762190212e+000,2.8778063034e+000,3.8821223243e+000,2.7456601147e+000,3.3921845179e+000,3.0930055897e+000,3.8570757285e+000,3.8268703196e+000,3.5067939355e+000,1.0163806488e+001,3.7302752759e+000,
6.4687500000e+000,2.8945862488e+000,3.2183382359e+000,2.6089089740e+000,2.8609719248e+000,2.9556496885e+000,3.9001717396e+000,2.7397548012e+000,3.3862973598e+000,3.1187579480e+000,3.8764378976e+000,3.8147339424e+000,3.4992050441e+000,1.0107404778e+001,3.6860571760e+000,
6.5625000000e+000,2.8939131989e+000,3.1152575804e+000,2.6296467948e+000,2.8647307392e+000,2.9449243104e+000,3.8903294891e+000,2.6284270891e+000,3.4178714948e+000,3.1112544085e+000,3.8889930593e+000,3.7762376418e+000,3.4511481366e+000,9.7845231395e+000,3.5996101224e+000,
6.6562500000e+000,2.8823931592e+000,3.1237528139e+000,2.5495696882e+000,2.8320880708e+000,2.8846975891e+000,3.8744839613e+000,2.5155932811e+000,3.3722748931e+000,2.9802619172e+000,3.9342000183e+000,3.3899363714e+000,3.5571646229e+000,8.2163402421e+000,3.5982383187e+000,
6.7500000000e+000,2.8961686332e+000,3.1642737412e+000,2.4221043383e+000,2.6945827270e+000,3.0382556983e+000,3.4263328295e+000,2.5105606771e+000,3.2103818634e+000,2.9073042399e+000,3.6252729517e+000,3.1026205609e+000,3.4035905837e+000,5.9425768533e+000,3.5473110934e+000,
6.8437500000e+000,2.9229617772e+000,3.3021445670e+000,2.4750551406e+000,2.6832525556e+000,3.0382266618e+000,3.3084238110e+000,2.5435549638e+000,3.1465129159e+000,2.9304067235e+000,3.4281252416e+000,3.0335134877e+000,3.3811191395e+000,4.9995654441e+000,3.6643022483e+000,
6.9375000000e+000,2.9515862585e+000,3.4059587119e+000,2.5411517517e+000,2.6779617962e+000,3.0628808673e+000,3.3112078312e+000,2.5872290434e+000,3.1910746394e+000,2.9275101656e+000,3.4806581677e+000,3.1407133046e+000,3.3905859047e+000,5.5100427743e+000,3.6721370937e+000,
7.0312500000e+000,2.9541723449e+000,3.4253938892e+000,2.4828909227e+000,2.7157676849e+000,3.0435711508e+000,3.2660848209e+000,2.4945402094e+000,3.0827430372e+000,2.9306874838e+000,3.3686639796e+000,3.1002179963e+000,3.4285139326e+000,5.9588839381e+000,3.7095579365e+000,
7.1250000000e+000,3.1535110632e+000,3.5757592904e+000,2.5368856782e+000,2.8046180012e+000,3.2081397752e+000,3.2210961037e+000,2.5325696672e+000,3.0790955966e+000,3.1154046123e+000,3.3708486089e+000,3.2180490817e+000,3.4454970758e+000,6.2652427998e+000,3.7432245530e+000,
7.2187500000e+000,3.2098322793e+000,3.5026148542e+000,2.5263313099e+000,2.7023354121e+000,3.2721987631e+000,3.0629199850e+000,2.6662497202e+000,2.9072706054e+000,3.1929577734e+000,3.2779377313e+000,3.2777039112e+000,3.4639052964e+000,6.3030470655e+000,3.7809036506e+000,
7.3125000000e+000,3.1945633244e+000,3.5624488429e+000,2.5408073363e+000,2.6717321444e+000,3.2672161816e+000,3.2551217424e+000,2.6804550572e+000,3.0549392277e+000,3.1656945889e+000,3.4276783129e+000,3.2261662336e+000,3.4803985848e+000,6.3011223965e+000,3.7777890957e+000,
7.4062500000e+000,3.1397239272e+000,3.5008719096e+000,2.4910161743e+000,2.5235809820e+000,3.2621968109e+000,3.3018091392e+000,2.6086306195e+000,3.0516456618e+000,3.0650707405e+000,3.4154821631e+000,3.2930325694e+000,3.4645877366e+000,6.2904441647e+000,3.8277280545e+000,
7.5000000000e+000,3.1770432733e+000,3.5942451123e+000,2.7061927108e+000,2.5466160464e+000,3.3952930699e+000,3.4498374303e+000,2.7705355710e+000,3.1365371264e+000,3.1586979292e+000,3.5095360906e+000,3.3310169270e+000,3.5222433779e+000,6.3421131405e+000,3.8316093150e+000,
7.5937500000e+000,3.3764038135e+000,3.6954264752e+000,2.8801125212e+000,2.8830375201e+000,3.4335829148e+000,3.7404546392e+000,2.8343829670e+000,3.3039438146e+000,3.2141118396e+000,3.6281899985e+000,3.2993480690e+000,3.6034186297e+000,6.5375010127e+000,3.8808704524e+000,
7.6875000000e+000,3.3464149443e+000,3.6901468167e+000,2.9161130394e+000,2.8898699321e+000,3.4345430677e+000,3.7079110539e+000,2.8694982158e+000,3.2516981018e+000,3.2209206368e+000,3.5429009835e+000,3.2837652334e+000,3.4757829891e+000,6.9671170738e+000,3.9006799544e+000,
7.7812500000e+000,3.3495922247e+000,3.6422980588e+000,2.9142895487e+000,2.8539491726e+000,3.3997001968e+000,3.7194248868e+000,2.8108784605e+000,3.3396193414e+000,3.2623054452e+000,3.6256449553e+000,3.2155352380e+000,3.5226053927e+000,7.0309903015e+000,3.8625770388e+000,
7.8750000000e+000,3.3362021326e+000,3.5300099543e+000,2.8642524860e+000,2.8539962874e+000,3.3775897115e+000,3.6727358553e+000,2.7301933868e+000,3.3215131746e+000,3.2162766115e+000,3.6367199635e+000,3.2396236679e+000,3.4845243521e+000,7.0728464449e+000,3.7604178173e+000,
7.9687500000e+000,3.3551444838e+000,3.5033771754e+000,2.9054938876e+000,2.9019167268e+000,3.3837229090e+000,3.7042234157e+000,2.7703907720e+000,3.3798555837e+000,3.2702984416e+000,3.5625366982e+000,3.1201259028e+000,3.4699592759e+000,7.0659277662e+000,3.6138745792e+000,
8.0625000000e+000,3.3283414010e+000,3.5436218532e+000,2.8997392564e+000,2.8133270375e+000,3.3692532583e+000,3.7813594107e+000,2.7469748214e+000,3.3287971929e+000,3.2093265884e+000,3.5934147047e+000,3.2517433379e+000,3.4265349233e+000,7.1733911729e+000,3.5859546247e+000,
8.1562500000e+000,3.2082181321e+000,3.3893203039e+000,2.8933085901e+000,2.7925705004e+000,3.0744672029e+000,3.7672112632e+000,2.7402336624e+000,3.3223721256e+000,3.1986634919e+000,3.5923704694e+000,3.1468137235e+000,3.4133237100e+000,7.1333712625e+000,3.5532165152e+000,
8.2500000000e+000,3.1607973410e+000,3.5164735026e+000,2.9621098347e+000,2.9619859187e+000,3.0866633583e+000,3.7252384410e+000,2.7697872054e+000,3.3244627873e+000,3.2931566444e+000,3.5826819905e+000,3.0879959149e+000,3.2348517700e+000,7.1336737760e+000,3.4003011296e+000,
8.3437500000e+000,3.1207521198e+000,3.5898964990e+000,2.9918901936e+000,2.9579907263e+000,3.1292931450e+000,3.6691055336e+000,2.8175298909e+000,3.3133119145e+000,3.3110306832e+000,3.5868001770e+000,3.2010445358e+000,3.2563307627e+000,7.1381911553e+000,3.4588045754e+000,
8.4375000000e+000,3.1515598500e+000,3.5487063643e+000,2.9067451770e+000,2.9137605825e+000,3.1446930366e+000,3.5443155880e+000,2.8182899813e+000,3.2989724550e+000,3.2975795765e+000,3.5763822281e+000,3.1551672217e+000,3.2875406531e+000,7.1596244083e+000,3.5734719099e+000,
8.5312500000e+000,2.9797088031e+000,3.3827686261e+000,2.6392432471e+000,2.6829658351e+000,3.0882876127e+000,3.3619795456e+000,2.6993243392e+000,3.2304319199e+000,3.4036413750e+000,3.5120460556e+000,3.1579254321e+000,3.3695509147e+000,7.0042656262e+000,3.6441966226e+000,
8.6250000000e+000,3.1589865498e+000,3.3517563404e+000,2.6953224147e+000,2.5935076592e+000,3.5177360774e+000,3.1751340872e+000,2.8288780052e+000,3.2146350996e+000,3.4470337454e+000,3.5012971963e+000,3.2513890907e+000,3.4707109682e+000,6.8476457009e+000,3.7173904700e+000,
8.7187500000e+000,3.4679959958e+000,3.3765478923e+000,2.8515163662e+000,2.6644076710e+000,3.6924352662e+000,3.2340935968e+000,2.9558914444e+000,3.1632272239e+000,3.4612029072e+000,3.4829103125e+000,3.2475180495e+000,3.5002775119e+000,6.5658800516e+000,3.7749347769e+000,
8.8125000000e+000,3.6183457012e+000,3.4823520347e+000,2.9778177676e+000,2.8340506129e+000,3.8648324802e+000,3.3770413625e+000,3.0829380271e+000,3.2109820035e+000,3.4948283499e+000,3.5149308195e+000,3.2130011691e+000,3.4549074749e+000,6.5354849089e+000,3.7805155727e+000,
8.9062500000e+000,3.6559618260e+000,3.4917496226e+000,3.0267435963e+000,2.8477995670e+000,3.8921770499e+000,3.4115002926e+000,3.1424436506e+000,3.2049217295e+000,3.5883001562e+000,3.5578798886e+000,3.3003357859e+000,3.4816504227e+000,6.4696794181e+000,3.8046868466e+000,
9.0000000000e+000,3.6430843528e+000,3.4540055257e+000,3.0147710781e+000,2.7620826851e+000,3.8362178571e+000,3.3235708307e+000,3.1060545301e+000,3.1894031319e+000,3.6161269580e+000,3.5653959314e+000,3.1861092870e+000,3.4663923367e+000,6.2256510461e+000,3.8460320205e+000,
9.0937500000e+000,3.6411001829e+000,3.4632735784e+000,3.0138215456e+000,2.8707650242e+000,3.8432308966e+000,3.3172602160e+000,3.1619755309e+000,3.2521402574e+000,3.7204300920e+000,3.5510673742e+000,3.1158661641e+000,3.5548185372e+000,5.5712624371e+000,3.9356392253e+000,
9.1875000000e+000,3.5816369564e+000,3.3867128718e+000,2.9267532437e+000,2.7775148843e+000,3.8102087562e+000,3.2863201431e+000,3.1041420248e+000,3.2730199843e+000,3.6807141759e+000,3.5048206468e+000,3.1404085504e+000,3.5895108725e+000,5.4761640329e+000,3.9483895561e+000,
9.2812500000e+000,3.5918495680e+000,3.2316671501e+000,2.8977442519e+000,2.6319843376e+000,3.7826151554e+000,3.2912623652e+000,3.1123633228e+000,3.2738347936e+000,3.6183272100e+000,3.3809585675e+000,3.1627976842e+000,3.5954241721e+000,5.3852209253e+000,3.9467154726e+000,
9.3750000000e+000,3.8397899237e+000,3.6322616641e+000,3.0906152611e+000,2.9892640654e+000,3.8987034178e+000,3.8241134287e+000,3.1641035261e+000,3.5188786624e+000,3.7015825102e+000,3.8797783423e+000,3.3349548128e+000,3.8415481100e+000,5.4299923394e+000,4.0564651041e+000,
9.4687500000e+000,3.8673745029e+000,3.7834525423e+000,3.1674057671e+000,3.1463993097e+000,3.8830281150e+000,4.0195183185e+000,3.1685968096e+000,3.5686845166e+000,3.6645556810e+000,4.0351169271e+000,3.3506530946e+000,3.9428733605e+000,5.2918786965e+000,4.0346125982e+000,
9.5625000000e+000,3.9582696572e+000,3.7696782109e+000,3.2712015616e+000,3.1836832060e+000,3.9028737798e+000,4.0202635887e+000,3.2340785785e+000,3.4998384279e+000,3.5993565102e+000,3.9881736978e+000,3.3399829757e+000,3.9162888751e+000,5.3233617082e+000,3.9765854309e+000,
9.6562500000e+000,3.7435332198e+000,3.7243534101e+000,3.2170744721e+000,3.1670891222e+000,3.7364552563e+000,4.0291391950e+000,3.1778111405e+000,3.4978339563e+000,3.6009629202e+000,4.0076324412e+000,3.2826722872e+000,3.8389062223e+000,5.2993997732e+000,3.8842950178e+000,
9.7500000000e+000,3.5588487541e+000,3.7305628399e+000,3.0746144181e+000,3.1093982764e+000,3.5509744565e+000,4.0372524870e+000,3.1056384026e+000,3.5216364583e+000,3.7112391645e+000,4.0311714264e+000,3.2490684682e+000,3.9359584723e+000,5.2762952223e+000,3.9029967797e+000,
9.8437500000e+000,3.5893352589e+000,3.7692154951e+000,3.0801664349e+000,3.0919456012e+000,3.4913373367e+000,4.0846973984e+000,3.0736495511e+000,3.5149731689e+000,3.7742266719e+000,3.9623596472e+000,3.2466253908e+000,3.9418814031e+000,4.7814556839e+000,3.8629013270e+000,
9.9375000000e+000,3.5362957659e+000,3.7675800397e+000,3.0601952868e+000,3.1425377263e+000,3.5065445776e+000,4.0788513448e+000,3.0457450781e+000,3.5187503790e+000,3.6982617500e+000,4.0015258086e+000,3.2316801026e+000,3.9387183628e+000,4.6765018138e+000,3.8408100542e+000,
1.0031250000e+001,3.5623003622e+000,3.7994750932e+000,3.0974404568e+000,3.1700563473e+000,3.5264358955e+000,4.0960640849e+000,3.0392848836e+000,3.4598197861e+000,3.6719838140e+000,3.9791809420e+000,3.3373170801e+000,3.9012311556e+000,4.6721991232e+000,3.7648031721e+000,
1.0125000000e+001,3.6153430818e+000,3.8368184057e+000,3.0985562294e+000,3.1598078837e+000,3.5736360662e+000,4.1260116834e+000,2.9498169825e+000,3.4650146402e+000,3.6654483912e+000,4.0321144396e+000,3.3145598037e+000,3.9243737032e+000,4.7156047145e+000,3.7312835277e+000,
1.0218750000e+001,3.6462139444e+000,3.9501737611e+000,3.1976887443e+000,3.3395894431e+000,3.5672704004e+000,4.1825595266e+000,2.9612312738e+000,3.5783628676e+000,3.6479497073e+000,4.0940706085e+000,3.2786765960e+000,3.9916186831e+000,4.9473500907e+000,3.8039130577e+000,
1.0312500000e+001,3.6764039940e+000,3.9636316396e+000,3.1981912278e+000,4.8721170234e+000,3.5942061484e+000,4.1143992457e+000,3.0360504962e+000,3.5675364962e+000,3.5905425773e+000,4.0817309684e+000,3.2720937667e+000,3.9696143153e+000,4.9042287822e+000,3.7487439679e+000,
1.0406250000e+001,4.2309488288e+000,5.3520114636e+000,3.9223672904e+000,1.0549302042e+001,4.9607493217e+000,8.5133363940e+000,4.3492137071e+000,5.4964751779e+000,4.8127853654e+000,8.6392276273e+000,4.0868233257e+000,4.9856360705e+000,5.4518237035e+000,4.8493343224e+000,
1.0500000000e+001,4.4313582617e+000,5.5936305116e+000,4.0865569886e+000,1.0784769866e+001,5.3284954654e+000,8.7260323126e+000,4.5274374322e+000,5.6134977511e+000,5.0679520734e+000,8.8503098652e+000,4.2724857453e+000,5.0334135051e+000,5.4811894878e+000,4.9390655237e+000,
1.0593750000e+001,4.3938111936e+000,5.5964659386e+000,4.0421710864e+000,1.0790734275e+001,5.3197474546e+000,8.7562190798e+000,4.5236674562e+000,5.6535590644e+000,5.0701162793e+000,8.8803469807e+000,4.2647252718e+000,5.0449383463e+000,5.4631645102e+000,5.0027799168e+000,
1.0687500000e+001,4.3878291387e+000,5.6013058242e+000,4.0371280566e+000,1.0805634749e+001,5.3131417907e+000,8.7585274216e+000,4.5126937387e+000,5.6813216556e+000,5.0434891891e+000,8.8820662645e+000,4.2888601287e+000,5.0797106668e+000,5.4945291746e+000,5.0372811453e+000,
1.0781250000e+001,4.3599475552e+000,5.5983315049e+000,4.0063430529e+000,1.0806784844e+001,5.3074263102e+000,8.7579644509e+000,4.4863305177e+000,5.6768026956e+000,5.0248472896e+000,8.8818246094e+000,4.2867214344e+000,5.0516979309e+000,5.5128214135e+000,5.0393619748e+000,
1.0875000000e+001,4.3545714909e+000,5.5832068283e+000,3.9832089242e+000,1.0807338648e+001,5.3042651586e+000,8.7575767278e+000,4.4935072751e+000,5.6704039504e+000,5.0306008866e+000,8.8815803117e+000,4.2862679072e+000,5.0578475322e+000,5.5532643527e+000,5.0539147606e+000,
1.0968750000e+001,4.3337681843e+000,5.5834579230e+000,3.9586151107e+000,1.0807752452e+001,5.2983850412e+000,8.7577819189e+000,4.4978709420e+000,5.6714214243e+000,5.0417069177e+000,8.8816335219e+000,4.2483268834e+000,5.0577710668e+000,5.5548567143e+000,5.0570529654e+000,
1.1062500000e+001,4.3575018005e+000,5.5896222909e+000,3.9663948743e+000,1.0807787499e+001,5.2935579598e+000,8.7578092869e+000,4.4990766807e+000,5.6744790349e+000,5.0448206590e+000,8.8817186620e+000,4.2269669112e+000,5.0604862361e+000,5.5569080927e+000,5.0592681129e+000,
1.1156250000e+001,4.3719265859e+000,5.5881938227e+000,4.0151723884e+000,1.0807787479e+001,5.3050115118e+000,8.7576877898e+000,4.5250806598e+000,5.6725754870e+000,5.0522730635e+000,8.8813809033e+000,4.2187801905e+000,5.0444416220e+000,5.4312843920e+000,5.0572441458e+000,
1.1250000000e+001,4.3425841410e+000,5.5664089932e+000,3.9622630636e+000,1.0807728060e+001,5.2996842948e+000,8.7570750832e+000,4.5384334417e+000,5.6618661118e+000,5.0656102421e+000,8.8805919024e+000,4.2351189594e+000,5.0340857011e+000,5.4447337979e+000,5.0255839229e+000,
1.1343750000e+001,4.3167113930e+000,5.5123628582e+000,3.9476886142e+000,1.0626385483e+001,5.2917843090e+000,8.7561184544e+000,4.5386927248e+000,5.6291157110e+000,5.0855217640e+000,8.8793024186e+000,4.2209711332e+000,5.0309460966e+000,5.4556723099e+000,5.0278569703e+000,
1.1437500000e+001,3.2626055401e+000,3.4951920545e+000,2.6514342636e+000,7.9945844669e+000,3.8823564268e+000,5.7660271904e+000,3.1157611175e+000,3.9463221107e+000,3.8026732025e+000,5.8939713280e+000,3.0123657929e+000,3.4903035710e+000,4.7963164633e+000,3.7547228630e+000,
1.1531250000e+001,3.2165986293e+000,3.2444812366e+000,2.5410360837e+000,6.9232116637e+000,3.1835774585e+000,4.7440616787e+000,2.9654552256e+000,3.5186518185e+000,3.5606067511e+000,4.6873623788e+000,2.9502973429e+000,3.6771966324e+000,4.7577001871e+000,3.6366827124e+000,
1.1625000000e+001,3.2813429465e+000,3.3457003002e+000,2.6061799102e+000,5.9596207725e+000,3.2332096470e+000,3.5210088372e+000,2.9900081026e+000,3.0187182166e+000,3.5492691812e+000,3.1608362869e+000,3.0015625467e+000,3.5943661288e+000,4.6726095347e+000,3.3896814350e+000,
1.1718750000e+001,3.3549200617e+000,3.3623619783e+000,2.7131169978e+000,4.6671538126e+000,3.2795868029e+000,3.4339994782e+000,3.0194590922e+000,3.1049581846e+000,3.5912000471e+000,3.1351518614e+000,2.9414111764e+000,3.5717787128e+000,4.6074973662e+000,3.3777176986e+000,
1.1812500000e+001,3.2729030257e+000,3.2737850577e+000,2.8044978112e+000,4.1466653954e+000,3.2538728956e+000,3.3957991319e+000,3.0310535618e+000,3.0404483120e+000,3.5991407040e+000,3.1233725863e+000,3.0527495895e+000,3.5730567578e+000,4.5733066691e+000,3.3806161608e+000,
1.1906250000e+001,3.2485877525e+000,3.7343542187e+000,2.8520386531e+000,3.0121011490e+000,3.2872650488e+000,3.3566105142e+000,3.0130087757e+000,3.1134138161e+000,3.5620936310e+000,3.1872023140e+000,3.0672536570e+000,3.5635296402e+000,4.5559023680e+000,3.3717247674e+000,
1.2000000000e+001,3.2466203171e+000,3.7932953622e+000,2.8541686528e+000,2.7952179671e+000,3.3446213200e+000,3.3821721502e+000,3.0123985634e+000,3.2276526715e+000,3.5185352865e+000,3.2417073877e+000,3.0842704242e+000,3.5812357154e+000,4.5510199522e+000,3.3226472505e+000,
1.2093750000e+001,3.2238285153e+000,3.7769165171e+000,2.7902279816e+000,2.7703473532e+000,3.4102565812e+000,3.4145495572e+000,3.0347611145e+000,3.2736111885e+000,3.5169739782e+000,3.2672888823e+000,3.2019710011e+000,3.5821889256e+000,4.9682465193e+000,3.4099032290e+000,
1.2187500000e+001,3.2459657665e+000,3.8121588860e+000,2.7521812292e+000,2.7782702981e+000,3.4009179895e+000,3.5309529731e+000,2.9668263458e+000,3.4141490915e+000,3.4875302014e+000,3.3941741320e+000,3.1777118574e+000,3.5275419091e+000,5.0523231446e+000,3.3976762795e+000,
1.2281250000e+001,3.1820457405e+000,3.8319449989e+000,2.7603899200e+000,2.8001013969e+000,3.4295226504e+000,3.5367084594e+000,2.9174643711e+000,3.4214627393e+000,3.4535133183e+000,3.4026546146e+000,3.1282083788e+000,3.5529509840e+000,5.0521254760e+000,3.4654878843e+000,
1.2375000000e+001,3.2137287237e+000,3.8488183331e+000,2.8175007845e+000,2.8493956029e+000,3.5373363604e+000,3.5755614958e+000,2.8893460630e+000,3.4421558709e+000,3.4179416821e+000,3.4051821705e+000,3.0825830953e+000,3.5457720074e+000,5.1080547820e+000,3.4409808036e+000,
1.2468750000e+001,3.1751318873e+000,3.9079540285e+000,2.8896672878e+000,2.9204665392e+000,3.5159003833e+000,3.5785935126e+000,2.9861212100e+000,3.4883910807e+000,3.5662588485e+000,3.3965019946e+000,3.0406217477e+000,3.4029504436e+000,5.1490047111e+000,3.3854137260e+000,
1.2562500000e+001,2.9645948892e+000,4.0050888681e+000,3.0085258910e+000,3.1677708898e+000,3.3223776493e+000,3.9306729797e+000,3.0198530747e+000,3.8194182848e+000,3.6326651282e+000,3.8842399948e+000,3.0064667107e+000,3.6577184728e+000,5.1331228342e+000,3.5619032013e+000,
1.2656250000e+001,3.0137244588e+000,4.0023270827e+000,3.0021716414e+000,3.1989946302e+000,3.4712038065e+000,3.9666691576e+000,3.1018861032e+000,3.8044311196e+000,3.6278425259e+000,3.9725750248e+000,3.0093541863e+000,3.7725188901e+000,5.1382266188e+000,3.7977773009e+000,
1.2750000000e+001,3.2199473977e+000,4.0263007866e+000,3.0265027582e+000,3.1563207483e+000,3.6857893473e+000,3.9158155856e+000,3.1619724308e+000,3.7650060665e+000,3.5703758969e+000,3.9177752436e+000,2.9877700873e+000,3.6964848309e+000,5.1870736890e+000,3.8162343946e+000,
1.2843750000e+001,3.2476361736e+000,3.8968016204e+000,2.9634036853e+000,3.1278160277e+000,3.6753991445e+000,3.8925908100e+000,3.1188134218e+000,3.7811542371e+000,3.6319877503e+000,3.8937032221e+000,2.8884111585e+000,3.6872130162e+000,5.2483812717e+000,3.7926203064e+000,
1.2937500000e+001,3.2434401578e+000,3.6161625684e+000,2.9533088084e+000,3.0555666480e+000,3.6253533533e+000,3.8529257478e+000,3.0846233127e+000,3.7196265247e+000,3.6145337568e+000,3.8578399527e+000,2.8464926469e+000,3.6918592303e+000,5.3253694167e+000,3.7731584630e+000,
1.3031250000e+001,3.2264508148e+000,3.5940757149e+000,2.9000637425e+000,3.0579251235e+000,3.5737070611e+000,3.8250200299e+000,3.0325582353e+000,3.6436062817e+000,3.5491458820e+000,3.8346937394e+000,2.7689645877e+000,3.6912991509e+000,5.2326503944e+000,3.7906366700e+000,
1.3125000000e+001,3.5608399180e+000,1.1039612370e+001,3.2528734340e+000,3.5935737743e+000,4.1338058843e+000,6.0129535236e+000,3.7296866322e+000,4.0861964739e+000,4.0291609194e+000,5.3737167772e+000,3.2558976698e+000,4.2570825471e+000,5.2073223157e+000,4.2487835876e+000,
1.3218750000e+001,4.7328980402e+000,1.2682460028e+001,4.5752002937e+000,4.7285272619e+000,5.1527837221e+000,7.8250707944e+000,4.6554245571e+000,4.9669164606e+000,5.0972653344e+000,6.9369203557e+000,4.4650798161e+000,5.0369914662e+000,5.5003054655e+000,5.0015918894e+000,
1.3312500000e+001,4.9698719541e+000,1.2838816883e+001,4.8403599129e+000,4.8979270551e+000,5.4229237174e+000,8.0397591688e+000,4.8716165440e+000,5.1937662777e+000,5.3222975813e+000,7.1785760748e+000,4.7911929114e+000,5.2817874400e+000,5.6511235232e+000,5.2035267644e+000,
1.3406250000e+001,4.9920570500e+000,1.2850953045e+001,4.8439242558e+000,4.9372606175e+000,5.4159577242e+000,8.0610786946e+000,4.8743815721e+000,5.1976294265e+000,5.3231711351e+000,7.2015004467e+000,4.7916653098e+000,5.2980950999e+000,5.6001877211e+000,5.2169552188e+000,
1.3500000000e+001,4.9903208990e+000,1.2851691759e+001,4.8329231386e+000,4.9190806769e+000,5.4194474411e+000,8.0603337379e+000,4.8640365661e+000,5.1704115335e+000,5.3225670219e+000,7.1969254481e+000,4.7880642990e+000,5.2804950973e+000,5.6401059836e+000,5.2196325683e+000,
1.3593750000e+001,4.9989650583e+000,1.2851697039e+001,4.8241505647e+000,4.9079932938e+000,5.4196134252e+000,8.0567926516e+000,4.8452266981e+000,5.1154162231e+000,5.3222755434e+000,7.1867727879e+000,4.7872554097e+000,5.2174883758e+000,5.6407569940e+000,5.1735781750e+000,
1.3687500000e+001,4.9552358984e+000,1.2851701551e+001,4.8201704235e+000,4.9078507231e+000,5.3792612404e+000,8.0578795100e+000,4.8251967629e+000,5.1178058887e+000,5.3264057521e+000,7.1891719474e+000,4.7895609634e+000,5.2206231919e+000,5.6072165283e+000,5.1558956811e+000,
1.3781250000e+001,4.9445309580e+000,1.2851700678e+001,4.8188161481e+000,4.9095725975e+000,5.3613766528e+000,8.0592086007e+000,4.8215279037e+000,5.1187750727e+000,5.3312779553e+000,7.1895152418e+000,4.7844152651e+000,5.2233364851e+000,5.6346011258e+000,5.1371080872e+000,
1.3875000000e+001,4.9400618028e+000,1.2851702536e+001,4.8137496140e+000,4.9099596324e+000,5.3589222645e+000,8.0586002099e+000,4.8194705080e+000,5.1106060781e+000,5.3146822816e+000,7.1883710572e+000,4.7832915123e+000,5.2310520306e+000,5.6469070654e+000,5.1523327914e+000,
1.3968750000e+001,4.9352404747e+000,1.2851697811e+001,4.8113675028e+000,4.9083086031e+000,5.3618004016e+000,8.0584506829e+000,4.8237076940e+000,5.1132871594e+000,5.3116989065e+000,7.1883854534e+000,4.7873002268e+000,5.2273562650e+000,5.6945079694e+000,5.1525540309e+000,
1.4062500000e+001,4.9255128643e+000,1.2851699657e+001,4.8273658908e+000,4.9051866613e+000,5.3784303402e+000,8.0589053836e+000,4.8155058211e+000,5.1241022842e+000,5.3418949646e+000,7.1879890543e+000,4.7870072218e+000,5.2237969630e+000,5.7246340467e+000,5.1586881370e+000,
1.4156250000e+001,4.7216548626e+000,1.1842559323e+001,4.6450058373e+000,4.6676758655e+000,5.0929053607e+000,7.3518850401e+000,4.5094524965e+000,4.8438348423e+000,5.1127804470e+000,6.5633801758e+000,4.5819794031e+000,4.8977926294e+000,6.0353354216e+000,4.8705069914e+000,
1.4250000000e+001,2.9510541299e+000,1.0698676618e+001,2.9970059569e+000,3.2051216237e+000,3.5483051340e+000,6.0879804560e+000,2.9856434630e+000,3.2674817011e+000,3.8763804438e+000,5.1442479902e+000,3.0761145173e+000,3.5822127966e+000,6.0528356516e+000,3.7518526609e+000,
1.4343750000e+001,2.7112553301e+000,8.0538961802e+000,2.7819513825e+000,2.8690239926e+000,3.0813195404e+000,4.2185739725e+000,2.6335025889e+000,3.1237407368e+000,3.5507337425e+000,3.7257925050e+000,2.7136852020e+000,3.3463132603e+000,6.1842849139e+000,3.5526962918e+000,
1.4437500000e+001,2.4399397749e+000,4.4083635248e+000,2.7509758700e+000,2.7726978044e+000,2.9942840490e+000,3.4276586584e+000,2.5440357479e+000,3.0716525641e+000,3.5771669650e+000,3.4068041182e+000,2.7513878930e+000,3.3150305294e+000,6.4900042508e+000,3.5195015718e+000,
1.4531250000e+001,2.5197548926e+000,3.3919466218e+000,2.7515486282e+000,2.7305563010e+000,3.0300379345e+000,3.3854767660e+000,2.6481467632e+000,3.0756953386e+000,3.5702267678e+000,3.4376803696e+000,2.7755536122e+000,3.4049250267e+000,6.6711073442e+000,3.5408381652e+000,
1.4625000000e+001,2.4268188323e+000,2.8599706964e+000,2.6141310382e+000,2.4531156375e+000,3.0252227936e+000,3.1402545642e+000,2.6362175969e+000,3.1234862336e+000,3.5936495038e+000,3.1694013883e+000,2.9194461414e+000,3.3315925188e+000,7.1209178526e+000,3.4233779239e+000,
1.4718750000e+001,2.3943186581e+000,2.8391115427e+000,2.6130448682e+000,2.5907598735e+000,3.0021700845e+000,3.3189255458e+000,2.7673560401e+000,3.2870818922e+000,3.5425320316e+000,3.3068968376e+000,2.9582054699e+000,3.3265195849e+000,7.3116990008e+000,3.4196933535e+000,
1.4812500000e+001,2.5020395052e+000,2.8084975971e+000,2.6518706221e+000,2.6518872391e+000,3.0322345732e+000,3.2532143419e+000,2.8532047434e+000,3.3230044995e+000,3.6022110528e+000,3.4457002957e+000,3.0209378386e+000,3.4125346982e+000,7.4330649870e+000,3.5547298167e+000,
1.4906250000e+001,2.5802462631e+000,2.9679541366e+000,2.6623200251e+000,2.6586217708e+000,3.1123638058e+000,3.3648273505e+000,2.9313936228e+000,3.4387547504e+000,3.6243789684e+000,3.4848384065e+000,3.0186323577e+000,3.3665201560e+000,7.5472171716e+000,3.4779568677e+000,
1.5000000000e+001,2.7445857436e+000,3.0766760799e+000,2.7349560057e+000,2.7520279634e+000,3.1674680579e+000,3.5290285336e+000,2.9738275029e+000,3.4959912016e+000,3.5856536757e+000,3.6582458449e+000,3.0991033649e+000,3.5856636547e+000,7.9764635109e+000,3.5958422852e+000,
1.5093750000e+001,2.9330813815e+000,3.1248070548e+000,2.7293886489e+000,2.8142752130e+000,3.0679485297e+000,3.5559153696e+000,2.9704051027e+000,3.5297971857e+000,3.4904030593e+000,3.7032283485e+000,3.1192347813e+000,3.6597814272e+000,8.1615000357e+000,3.5689987284e+000,
1.5187500000e+001,2.8853963015e+000,3.1343789573e+000,2.7790328136e+000,2.8145378906e+000,3.1047655849e+000,3.5861674396e+000,3.0128725483e+000,3.5722741102e+000,3.4247295508e+000,3.7121779188e+000,3.2594525383e+000,3.7801279068e+000,8.2789828344e+000,3.7212231593e+000,
1.5281250000e+001,2.9455058461e+000,3.0542813620e+000,2.5915700404e+000,2.8116195623e+000,3.1864256292e+000,3.5289467200e+000,2.9583170444e+000,3.5694269001e+000,3.3822052460e+000,3.6097778601e+000,3.3585470396e+000,3.7460255499e+000,8.3752828266e+000,3.7049130515e+000,
1.5375000000e+001,3.0212014795e+000,3.1807999394e+000,2.6474787844e+000,2.9522757879e+000,3.2479137437e+000,3.6031213154e+000,2.9530499184e+000,3.6367016707e+000,3.3211106962e+000,3.6654854866e+000,3.9685364529e+000,3.8256688199e+000,9.0508060674e+000,3.7548299801e+000,
1.5468750000e+001,2.9558042601e+000,3.2332339960e+000,2.5921310447e+000,2.9092640186e+000,3.1823676663e+000,3.5864841478e+000,2.9744086515e+000,3.6342332035e+000,3.1948102417e+000,3.5805822925e+000,3.9814434027e+000,3.7904702317e+000,9.0547702281e+000,3.7271889973e+000,
1.5562500000e+001,3.0044238132e+000,3.3047043707e+000,2.6191964957e+000,2.9574978833e+000,3.1458057116e+000,3.6300714253e+000,2.9113008026e+000,3.6100908262e+000,3.2401079291e+000,3.6612824897e+000,3.9570641848e+000,3.7506689395e+000,9.0265574858e+000,3.8164699199e+000,
1.5656250000e+001,2.9359544068e+000,3.2395434443e+000,2.4981106767e+000,2.8934937256e+000,3.1118651353e+000,3.5286438151e+000,2.9270036393e+000,3.5126152296e+000,3.2324766166e+000,3.6243059999e+000,3.9386948216e+000,3.7223938007e+000,8.9692073906e+000,3.8672450940e+000,
1.5750000000e+001,2.9985964784e+000,3.3190411087e+000,2.6247653458e+000,2.9207567746e+000,3.2458848224e+000,3.7223175334e+000,2.9624029994e+000,3.6719238797e+000,3.3565098608e+000,3.7189422060e+000,3.9301007245e+000,3.8452159417e+000,8.9446846812e+000,3.8813580918e+000,
1.5843750000e+001,3.0791171428e+000,3.4015826648e+000,2.6878941414e+000,2.9669756099e+000,3.3029251922e+000,3.9823455015e+000,3.0168585732e+000,3.7259868292e+000,3.3395310047e+000,3.9900756729e+000,3.9182125153e+000,3.9383999548e+000,8.9055383931e+000,3.9748655918e+000,
1.5937500000e+001,3.1308830329e+000,3.3282348125e+000,2.7152635533e+000,2.9351479692e+000,3.2501805818e+000,4.0104412283e+000,2.9804680028e+000,3.6730662932e+000,3.2591508827e+000,4.0479718574e+000,3.9171754231e+000,3.8921258640e+000,8.8533510756e+000,3.9468090142e+000,
1.6031250000e+001,3.1121763829e+000,3.3499432187e+000,2.6382765733e+000,2.8839737830e+000,3.1938570593e+000,4.0246367021e+000,3.0508897893e+000,3.6224859777e+000,3.2072265675e+000,4.0846342947e+000,3.8988168055e+000,3.7889968995e+000,8.6813217620e+000,3.9473025656e+000,
1.6125000000e+001,3.1903003606e+000,3.3364081778e+000,2.6679178544e+000,2.8890001174e+000,3.1927702354e+000,4.0594837176e+000,2.9599171608e+000,3.5887795144e+000,3.3343773356e+000,4.1145256756e+000,3.9212097401e+000,3.7291256998e+000,8.5999982957e+000,3.9073103218e+000,
1.6218750000e+001,3.2026098327e+000,3.3483066783e+000,2.6233301936e+000,2.9468467817e+000,3.0772630942e+000,4.0933959777e+000,2.9075438720e+000,3.6491861177e+000,3.3534099640e+000,4.1362796848e+000,3.8175219634e+000,3.5798747004e+000,8.4866965911e+000,3.7665064047e+000,
1.6312500000e+001,3.1807958752e+000,3.4632636799e+000,2.6914304814e+000,2.9072175764e+000,3.0583693742e+000,4.0723950245e+000,2.8763991432e+000,3.5563762151e+000,3.3603469585e+000,4.1209957075e+000,3.6984045946e+000,3.6770689959e+000,8.3232821187e+000,3.7921645684e+000,
1.6406250000e+001,3.1710783024e+000,3.3786099437e+000,2.7034603205e+000,2.8432020012e+000,3.0212180546e+000,4.0805711576e+000,2.9258596994e+000,3.5431187383e+000,3.4193007171e+000,4.1450702770e+000,2.7835311419e+000,3.6125273617e+000,2.2465092162e+000,3.7596878023e+000,
1.6500000000e+001,3.1589584504e+000,3.3632877547e+000,2.6504320702e+000,2.8811506127e+000,3.0078087688e+000,4.0826914097e+000,2.9123250787e+000,3.5405458416e+000,3.4987466044e+000,4.1308901298e+000,2.7992537489e+000,3.6182726451e+000,6.2118332609e-001,3.8238076155e+000,
1.6593750000e+001,3.1979381080e+000,3.3476608823e+000,2.7420751399e+000,2.8877846341e+000,3.0624865267e+000,4.0901220050e+000,2.9208087080e+000,3.5653731456e+000,3.5300414344e+000,4.0970363401e+000,2.8376047413e+000,3.5846254800e+000,3.0795016524e-002,3.7349947554e+000,
1.6687500000e+001,3.1926881798e+000,3.4176047214e+000,2.7728306067e+000,2.9098204573e+000,3.1108175306e+000,4.1021265415e+000,2.9330940617e+000,3.5479899100e+000,3.5344085154e+000,4.0967332704e+000,2.7354939391e+000,3.6402488067e+000,4.2674523877e-004,3.7200923047e+000,
1.6781250000e+001,3.0386650599e+000,3.2617113948e+000,2.6521178087e+000,2.7864147395e+000,3.0062664902e+000,3.8737499766e+000,2.7027485493e+000,3.2459527521e+000,3.3999662881e+000,3.9035374504e+000,2.7631423057e+000,3.4192435141e+000,1.1374265531e+000,3.6663838308e+000,
1.6875000000e+001,3.0074973303e+000,3.2271751783e+000,2.6607372709e+000,2.8183153776e+000,2.9529576687e+000,3.6788834857e+000,2.6344654632e+000,3.2475549085e+000,3.4806362389e+000,3.6934507761e+000,2.8514081490e+000,3.5236653063e+000,4.2391169908e+000,3.6605826125e+000,
1.6968750000e+001,2.9729328515e+000,3.2043813317e+000,2.6889220570e+000,2.9308892633e+000,2.8871400688e+000,3.5713729089e+000,2.4974951031e+000,3.2217119447e+000,3.5703398714e+000,3.5387172309e+000,2.7578308142e+000,3.5178669346e+000,4.7715642859e+000,3.6638769055e+000,
1.7062500000e+001,2.8145341646e+000,3.1849617513e+000,2.6864985905e+000,2.8430933825e+000,2.9199732722e+000,3.5223627256e+000,2.3492738559e+000,3.2500732440e+000,3.4952167655e+000,3.4367173000e+000,2.7708338550e+000,3.4939224917e+000,5.1384376689e+000,3.5525964427e+000,
1.7156250000e+001,2.8205476503e+000,3.1962185301e+000,2.7034904921e+000,2.7888108929e+000,2.9963495763e+000,3.3794797903e+000,2.4410367600e+000,3.2029467980e+000,3.5271618056e+000,3.2489081081e+000,2.9038102106e+000,3.4723084018e+000,6.5354419560e+000,3.4720608019e+000,
1.7250000000e+001,2.8092269067e+000,3.2339633167e+000,2.7220340215e+000,2.7728983264e+000,3.0180187371e+000,3.3932048111e+000,2.4199616309e+000,3.1830465540e+000,3.4901255740e+000,3.2975484184e+000,3.5700097780e+000,3.4275215674e+000,7.9726304028e+000,3.4785706963e+000,
1.7343750000e+001,2.8438468174e+000,3.1047632798e+000,2.6566712946e+000,2.6975101425e+000,3.0120823323e+000,3.3303370818e+000,2.4859293459e+000,3.1948581277e+000,3.4758144537e+000,3.2803084771e+000,3.8838119495e+000,3.2838768229e+000,8.4244990445e+000,3.4695080586e+000,
1.7437500000e+001,2.8286023825e+000,3.1121928959e+000,2.6958213883e+000,2.6439868913e+000,3.0424154114e+000,3.3258203064e+000,2.4388037719e+000,3.1261043752e+000,3.4248998887e+000,3.2294354109e+000,3.9876948323e+000,3.2363584662e+000,8.5101773465e+000,3.4386401446e+000,
1.7531250000e+001,2.7674911709e+000,3.0867076130e+000,2.6862807568e+000,2.5593307672e+000,3.1259756085e+000,3.3583450236e+000,2.5252243535e+000,3.1132024761e+000,3.2467840732e+000,3.1771191531e+000,4.0901897106e+000,3.2401590052e+000,8.8682568643e+000,3.4015028970e+000,
1.7625000000e+001,2.7415173305e+000,3.0402810185e+000,2.6422836382e+000,2.5295052675e+000,3.1191627184e+000,3.2722109756e+000,2.2762996909e+000,3.0331863176e+000,3.2111665342e+000,3.1416361318e+000,4.0882425795e+000,3.2170805118e+000,8.9717635616e+000,3.4755258468e+000,
1.7718750000e+001,2.7826164829e+000,3.0023568753e+000,2.6122919621e+000,2.5089223339e+000,3.0399613038e+000,3.3071722484e+000,2.4252503152e+000,3.0254612605e+000,3.1421256004e+000,3.1459658998e+000,4.1566329055e+000,3.2344681174e+000,9.1255169570e+000,3.5085629398e+000,
1.7812500000e+001,2.7946763032e+000,3.0148976360e+000,2.5911980354e+000,2.3984930658e+000,2.9973271319e+000,3.2053969144e+000,2.4420868494e+000,2.9592556624e+000,3.1107799133e+000,2.9690475005e+000,4.1487297119e+000,2.9280945189e+000,9.1554134581e+000,3.3598357504e+000,
1.7906250000e+001,2.7293079720e+000,2.9432247604e+000,2.4757023765e+000,2.4770647938e+000,2.9785035383e+000,3.2652017210e+000,2.4732651107e+000,3.1328285353e+000,3.0744798487e+000,2.9718326918e+000,4.1864486307e+000,3.1204031666e+000,9.2033176617e+000,3.6851107502e+000,
1.8000000000e+001,2.7490610945e+000,2.9410400635e+000,2.4747483334e+000,2.4941156282e+000,3.0050709982e+000,3.2778146608e+000,2.4846089522e+000,3.1371418688e+000,3.0306019670e+000,3.0918213458e+000,4.2122255738e+000,3.1005267192e+000,9.2256549904e+000,3.7570598799e+000,
1.8093750000e+001,2.7583729971e+000,2.9851621135e+000,2.4698667681e+000,2.5740536979e+000,3.0021380496e+000,3.3223955417e+000,2.5619493696e+000,3.0339585438e+000,2.9508144197e+000,3.2220336204e+000,4.2883103571e+000,3.2249853958e+000,9.5132225824e+000,3.9054782266e+000,
1.8187500000e+001,2.7999541387e+000,3.1235699914e+000,2.4675282516e+000,2.6283638802e+000,2.9227440122e+000,3.4879312603e+000,2.4878921318e+000,3.1608056489e+000,2.9439456527e+000,3.3803422936e+000,4.2663150563e+000,3.4177395909e+000,9.5188176294e+000,4.0142471995e+000,
1.8281250000e+001,2.8931526695e+000,3.2760803230e+000,2.5494638837e+000,2.6936304231e+000,2.9951593275e+000,3.5387204249e+000,2.5790703178e+000,3.1592814003e+000,3.0794086171e+000,3.4362176741e+000,4.0411741084e+000,3.4640070593e+000,9.3937793235e+000,3.9723317765e+000,
1.8375000000e+001,2.9953516787e+000,3.3500832028e+000,2.7028553465e+000,2.8755997426e+000,3.1658990925e+000,3.6265956609e+000,2.5731134706e+000,3.1630202402e+000,2.9578462388e+000,3.5218919443e+000,3.9108988938e+000,3.5911738207e+000,9.7514543849e+000,4.0485551572e+000,
1.8468750000e+001,3.0708001599e+000,3.3908397885e+000,2.7506267410e+000,2.9721607270e+000,3.1978450648e+000,3.6786282494e+000,2.6085296562e+000,3.2031350080e+000,2.9582246997e+000,3.6012781982e+000,3.9131123084e+000,3.6348325016e+000,9.8508017989e+000,4.0508898079e+000,
1.8562500000e+001,3.1391260535e+000,3.3849037604e+000,2.7069473320e+000,2.9457101866e+000,3.1355579568e+000,3.6653869312e+000,2.6596096130e+000,3.2407183844e+000,3.0719128608e+000,3.6133771042e+000,3.9358243489e+000,3.6754850440e+000,9.9223908326e+000,4.0266066188e+000,
1.8656250000e+001,3.1193425191e+000,3.4012419451e+000,2.7384760308e+000,2.9076848440e+000,3.1504511053e+000,3.6402574045e+000,2.6521146907e+000,3.2684127377e+000,3.1947739731e+000,3.5935038853e+000,3.9877289333e+000,3.6512093891e+000,9.9843367050e+000,4.0077070732e+000,
1.8750000000e+001,3.1013202481e+000,3.4580819083e+000,2.7071205151e+000,2.9166087325e+000,3.1237367429e+000,3.6480988789e+000,2.5993638056e+000,3.3115669413e+000,3.2414495126e+000,3.6151366073e+000,3.9787062397e+000,3.6618331603e+000,1.0003754494e+001,4.0782808881e+000,
1.8843750000e+001,3.0922138269e+000,3.5341350589e+000,2.7783072417e+000,2.8829987752e+000,3.1528211125e+000,3.6343344026e+000,2.6394377447e+000,3.2516353299e+000,3.3171540268e+000,3.6111831802e+000,3.9764290340e+000,3.5672244586e+000,1.0000556520e+001,4.0527070306e+000,
1.8937500000e+001,3.0527551452e+000,3.6544682952e+000,2.8060382915e+000,2.7659939921e+000,3.2031636764e+000,3.6790293877e+000,2.6342068636e+000,3.2461802447e+000,3.2092782664e+000,3.6643398548e+000,3.9419677820e+000,3.5927652590e+000,9.9939699477e+000,3.9237817047e+000,
1.9031250000e+001,2.9944908577e+000,3.6200876612e+000,2.7198746054e+000,2.7796844686e+000,3.1805575403e+000,3.6427520976e+000,2.6939670309e+000,3.2575246404e+000,3.2737836408e+000,3.6360952743e+000,3.9198158633e+000,3.6203862796e+000,1.0008176323e+001,3.9386852160e+000,
1.9125000000e+001,3.0653617432e+000,3.6135858596e+000,2.7502800607e+000,2.7416031511e+000,3.2102458737e+000,3.6117534140e+000,2.6611029473e+000,3.2777578031e+000,3.4174760915e+000,3.5679158897e+000,3.8366868318e+000,3.5585611759e+000,9.9134723743e+000,3.8411359402e+000,
1.9218750000e+001,2.9665415898e+000,3.5410694318e+000,2.7328266985e+000,2.7136785036e+000,3.1953827348e+000,3.4791548119e+000,2.6491462695e+000,3.1850495597e+000,3.3845113534e+000,3.4571840330e+000,3.7521751965e+000,3.4514965481e+000,9.9300978154e+000,3.8116777201e+000,
1.9312500000e+001,2.8964354080e+000,3.4423884072e+000,2.6799961238e+000,2.8243345891e+000,3.1603746525e+000,3.3946167051e+000,2.5724241845e+000,3.2210905345e+000,3.4519769835e+000,3.3660533230e+000,3.7392322006e+000,3.4074767049e+000,9.9975499303e+000,3.8347815835e+000,
1.9406250000e+001,2.9266830141e+000,3.4116531886e+000,2.5608651391e+000,2.5570558113e+000,3.0951711604e+000,3.3335369379e+000,2.5035970611e+000,3.2866080463e+000,3.4705718176e+000,3.4020085595e+000,3.6239214426e+000,3.2037089206e+000,9.7775318197e+000,3.7117551659e+000,
1.9500000000e+001,2.9811665576e+000,3.4770959464e+000,2.5822384454e+000,2.6177944669e+000,3.0968077138e+000,3.3103414546e+000,2.4437964703e+000,3.3142722944e+000,3.5185713850e+000,3.3489090267e+000,3.5832166827e+000,3.1791991816e+000,9.7788494815e+000,3.7134557122e+000,
1.9593750000e+001,2.8804128341e+000,3.3994719059e+000,2.5431939660e+000,2.6832359300e+000,3.0080916059e+000,3.2697313351e+000,2.3939129119e+000,3.3507094524e+000,3.3709941105e+000,3.3813529082e+000,3.4504301759e+000,3.2286280155e+000,9.8068258930e+000,3.7083578247e+000,
1.9687500000e+001,2.9411825316e+000,3.4798846315e+000,2.6321843830e+000,2.8394979243e+000,3.1222161674e+000,3.3688078698e+000,2.4958339838e+000,3.3918787253e+000,3.3272423022e+000,3.4686622356e+000,3.3314202514e+000,3.3561990504e+000,9.7078194769e+000,3.8037151220e+000,
1.9781250000e+001,4.2180268780e+000,4.1779785535e+000,3.2030245209e+000,3.0245508333e+000,3.8622942421e+000,3.8026621147e+000,3.1021470200e+000,3.4255476026e+000,3.4241320342e+000,3.8350619776e+000,3.2754030953e+000,3.4292488442e+000,9.8283105594e+000,3.7235322985e+000,
1.9875000000e+001,4.3524924231e+000,4.1607076305e+000,3.2104049244e+000,3.0842581477e+000,3.9816963725e+000,3.7431025353e+000,3.1857439919e+000,3.3551542588e+000,3.4033543363e+000,3.7993982328e+000,3.3475306293e+000,3.3512417337e+000,9.8976433042e+000,3.6619373425e+000,
1.9968750000e+001,4.3645567358e+000,4.1426484330e+000,3.2546057468e+000,3.1216627592e+000,4.0160552442e+000,3.7258344769e+000,3.2559535993e+000,3.2657185424e+000,3.3972574924e+000,3.7197129477e+000,3.2796471241e+000,3.2942642011e+000,9.9046863118e+000,3.6058859728e+000,
2.0062500000e+001,4.3771574742e+000,4.1558081466e+000,3.2669723600e+000,3.1936989029e+000,4.0042267702e+000,3.7423654113e+000,3.2333861574e+000,3.2437244109e+000,3.4055716901e+000,3.7579229814e+000,3.2213493631e+000,3.3954908296e+000,9.9558349479e+000,3.7373420411e+000,
2.0156250000e+001,4.3682670174e+000,4.1302234655e+000,3.2581727021e+000,3.1899769228e+000,4.0001311884e+000,3.7225835105e+000,3.2574269934e+000,3.2240820966e+000,3.4034264526e+000,3.7141262705e+000,3.2204317528e+000,3.3668156561e+000,9.9503174195e+000,3.6685038057e+000,
2.0250000000e+001,4.3559862059e+000,4.0973058444e+000,3.2652619348e+000,3.1849287955e+000,4.0002978119e+000,3.7242361398e+000,3.2548376768e+000,3.2210226395e+000,3.3083351449e+000,3.7068539816e+000,3.1677253834e+000,3.3309061102e+000,9.9174243191e+000,3.6247262682e+000,
2.0343750000e+001,4.3447680356e+000,4.0820021461e+000,3.2148924678e+000,3.0410434651e+000,3.9893054357e+000,3.7007464505e+000,3.2448270379e+000,3.1831817080e+000,3.3705781636e+000,3.7156859170e+000,3.1473868579e+000,3.3805678605e+000,9.8481206109e+000,3.6426398431e+000,
2.0437500000e+001,4.3328827896e+000,4.1099331918e+000,3.2092353986e+000,3.1689333136e+000,3.9756082044e+000,3.7699474764e+000,3.2241959411e+000,3.2472901039e+000,3.4014378240e+000,3.7482960716e+000,3.0255380363e+000,3.4730095134e+000,9.8104270757e+000,3.7429187068e+000,
2.0531250000e+001,4.3424950366e+000,4.0833430922e+000,3.2061171033e+000,3.2274041577e+000,3.9616485716e+000,3.7961545374e+000,3.2139826457e+000,3.1855702358e+000,3.5182191316e+000,3.7602069137e+000,2.9079028562e+000,3.5116051372e+000,9.6892763117e+000,3.8474049324e+000,
2.0625000000e+001,4.3474162365e+000,4.0563373980e+000,3.1383187994e+000,3.1442513755e+000,3.9276364721e+000,3.7856537511e+000,3.1891166919e+000,3.2159769808e+000,3.5862864724e+000,3.7175019697e+000,2.8913595385e+000,3.4962090804e+000,9.6863659628e+000,3.8640483083e+000,
2.0718750000e+001,4.3783245992e+000,4.1294542075e+000,3.3461044879e+000,3.3697152676e+000,3.8597820211e+000,4.0267406900e+000,3.2687934296e+000,3.6286875496e+000,3.6196680983e+000,4.0345505130e+000,2.8102986379e+000,4.0418992420e+000,9.7793657950e+000,4.1540495324e+000,
2.0812500000e+001,3.3413430979e+000,3.2634306246e+000,2.8983900897e+000,3.2525783375e+000,3.2560991699e+000,3.7062353556e+000,2.7991453534e+000,3.6206332750e+000,3.4880531050e+000,3.7671977568e+000,2.8216274476e+000,4.0816506769e+000,9.6410954696e+000,4.1654302110e+000,
2.0906250000e+001,3.1240518211e+000,3.0899842831e+000,2.7202879456e+000,3.1176697995e+000,2.8810022096e+000,3.6386242560e+000,2.5635313969e+000,3.5896703613e+000,3.4268787224e+000,3.7015518001e+000,2.6009918965e+000,4.0485024724e+000,9.6018026649e+000,4.1157714430e+000,
2.1000000000e+001,3.0848206060e+000,3.1089801583e+000,2.6529631447e+000,3.0740518053e+000,2.8686143917e+000,3.6698208343e+000,2.5275066029e+000,3.6428533192e+000,3.4062646272e+000,3.6893170233e+000,2.8317094974e+000,4.0415582813e+000,9.7850404662e+000,4.1189089585e+000,
2.1093750000e+001,3.4038341084e+000,3.3789699173e+000,3.0034731196e+000,3.2425464511e+000,2.9137118920e+000,3.9122396917e+000,2.8198821152e+000,3.7945311588e+000,3.5930762926e+000,3.9825234826e+000,3.0048486500e+000,4.0861903662e+000,9.7528949425e+000,4.1707827003e+000,
2.1187500000e+001,3.4551805820e+000,3.5497665339e+000,3.0375664103e+000,3.3533605823e+000,2.9012009880e+000,3.9889239627e+000,2.8819936793e+000,3.9205359528e+000,3.6069812463e+000,4.0734911496e+000,3.0426780703e+000,4.2018188632e+000,9.9414375989e+000,4.2806933834e+000,
2.1281250000e+001,3.4666775059e+000,3.5847835068e+000,3.0603379589e+000,3.3680009189e+000,3.0358651398e+000,4.0146428725e+000,2.8935999305e+000,3.8949487421e+000,3.5595071141e+000,4.1123628521e+000,3.1312770944e+000,4.2119021520e+000,1.0072713824e+001,4.3442525028e+000,
2.1375000000e+001,3.4413034666e+000,3.5993437196e+000,3.1443394103e+000,3.3557159064e+000,3.0138708907e+000,4.0095659073e+000,2.9942171118e+000,3.9282832857e+000,3.5312240965e+000,4.0971174050e+000,3.1625060731e+000,4.2509638161e+000,1.0041068386e+001,4.3929543204e+000,
2.1468750000e+001,3.3238015240e+000,3.6034385954e+000,3.1555868428e+000,3.2561645903e+000,3.0061673043e+000,3.9459923225e+000,3.0518280838e+000,3.8972311496e+000,3.4642637250e+000,4.0269366652e+000,3.2397050546e+000,4.2455234639e+000,1.0201120498e+001,4.3620913904e+000,
2.1562500000e+001,3.2876666299e+000,3.6290707881e+000,3.1811278308e+000,3.2263002686e+000,2.9903917445e+000,3.9806323554e+000,2.9914768188e+000,3.9166697223e+000,3.4061911899e+000,4.0786469485e+000,3.2816907936e+000,4.2469228975e+000,1.0177656262e+001,4.3540431025e+000,
2.1656250000e+001,3.1829049806e+000,3.5648426445e+000,3.0730723074e+000,3.1304280556e+000,3.0389056965e+000,3.9403074854e+000,2.9814022992e+000,3.8128127605e+000,3.4586282621e+000,4.0111099668e+000,3.2807612368e+000,4.1550031451e+000,1.0158232126e+001,4.2976499613e+000,
2.1750000000e+001,3.0933905239e+000,3.4949272906e+000,2.9135684708e+000,2.9617542400e+000,3.0244789859e+000,3.7716673074e+000,2.8991354308e+000,3.6051190905e+000,3.4805891085e+000,3.8049644320e+000,3.2687830700e+000,3.7090275923e+000,1.0141308016e+001,4.0186226053e+000,
2.1843750000e+001,3.3003401980e+000,3.6813529610e+000,3.1633004579e+000,3.1820138953e+000,3.1570167544e+000,4.1153416178e+000,3.1891314872e+000,3.7444816739e+000,4.6265491910e+000,4.0765586243e+000,3.3712830440e+000,3.8280258590e+000,1.0302490998e+001,4.0733657518e+000,
2.1937500000e+001,3.4795387809e+000,3.8042604258e+000,3.2706255815e+000,3.3256858997e+000,3.3991293377e+000,4.3368115620e+000,3.3510723110e+000,3.9180095695e+000,4.8605450361e+000,4.1526350830e+000,3.4262187539e+000,3.9347198765e+000,1.0499219193e+001,4.1303197975e+000,
2.2031250000e+001,3.5506804965e+000,3.8154991027e+000,3.3722429147e+000,3.3779329380e+000,3.4355940736e+000,4.4906368090e+000,3.3573093028e+000,3.9183522960e+000,4.9308597664e+000,4.2101706717e+000,3.4345320582e+000,3.9298803267e+000,1.0577726100e+001,4.0628508303e+000,
2.2125000000e+001,3.4514109359e+000,3.7096411410e+000,3.1875769397e+000,3.2259456278e+000,3.4957286168e+000,4.4001824554e+000,3.2184448039e+000,3.7803534610e+000,4.8720395788e+000,4.0652565595e+000,3.3290409119e+000,3.8393278554e+000,1.0568314199e+001,4.0590359462e+000,
2.2218750000e+001,3.4495466249e+000,3.6534560646e+000,3.1815499913e+000,3.1591353571e+000,3.5723692104e+000,4.3976581947e+000,3.2062871966e+000,3.7330672893e+000,4.8987210224e+000,4.0254855179e+000,3.3482200912e+000,3.8389993117e+000,1.0502203341e+001,3.9824659986e+000,
2.2312500000e+001,3.4912384543e+000,3.6496284983e+000,3.1257830960e+000,3.0900389552e+000,3.5421026812e+000,4.3910707366e+000,3.2008916972e+000,3.7425032967e+000,4.9224952224e+000,4.0414841561e+000,3.5808199737e+000,3.8683008784e+000,1.0712413692e+001,3.8855594253e+000,
2.2406250000e+001,3.4844014368e+000,3.6187597034e+000,3.0803255454e+000,3.1031213548e+000,3.6145074203e+000,4.4587954259e+000,3.2310195252e+000,3.7929732596e+000,4.9468154327e+000,4.0801462356e+000,3.5892067310e+000,3.8250033662e+000,1.0713699525e+001,3.8813723190e+000,
2.2500000000e+001,3.5869747480e+000,3.5884692902e+000,3.1231112147e+000,3.1089273324e+000,3.6276291483e+000,4.5078269501e+000,3.3034456262e+000,3.8115212317e+000,4.9553225340e+000,4.1458895671e+000,3.6256044676e+000,3.8070521014e+000,1.0846544016e+001,3.8027989420e+000,
2.2593750000e+001,3.6292845118e+000,3.5701281310e+000,3.1089372356e+000,3.0840847076e+000,3.6515874994e+000,4.4626219708e+000,3.3649326595e+000,3.7298463336e+000,4.9455012203e+000,4.0954247876e+000,3.6291747878e+000,3.8049107106e+000,1.0886490331e+001,3.8084137728e+000,
2.2687500000e+001,3.6565778955e+000,3.5946363045e+000,3.1679555712e+000,3.0814410569e+000,3.5635717016e+000,4.4860290000e+000,3.3558349643e+000,3.7681509649e+000,4.9348101630e+000,4.1498883433e+000,3.6303709352e+000,3.8477487738e+000,1.1127705374e+001,3.8208835655e+000,
2.2781250000e+001,3.7854510843e+000,4.2147576732e+000,3.2799636287e+000,3.0659027691e+000,3.7995626117e+000,4.5493864902e+000,3.4013628356e+000,3.7761026135e+000,4.8872470290e+000,4.3280968100e+000,4.1134712998e+000,4.1958727623e+000,1.1760666505e+001,4.1524808016e+000,
2.2875000000e+001,3.7475903254e+000,4.1705466418e+000,3.1030908679e+000,2.9791086580e+000,3.7625277586e+000,4.4344893664e+000,3.2538380642e+000,3.7237875994e+000,4.3229777615e+000,4.2846514745e+000,4.1471228164e+000,4.1301755143e+000,1.1782770283e+001,4.1287530056e+000,
2.2968750000e+001,3.6402029398e+000,4.1511954635e+000,3.0549251485e+000,2.8708621794e+000,3.7392110654e+000,4.2808520599e+000,3.1627174667e+000,3.5473423339e+000,3.9072029670e+000,4.2565583242e+000,4.2370219747e+000,4.0951671146e+000,1.1774339931e+001,4.1427412496e+000,
2.3062500000e+001,3.5696539838e+000,4.0828142987e+000,2.9162341408e+000,2.8268469902e+000,3.7083969306e+000,4.1127928064e+000,3.1945231507e+000,3.4317208545e+000,3.8512478161e+000,4.1193307846e+000,4.1985228210e+000,4.0682694396e+000,1.1723273729e+001,4.0823665574e+000,
2.3156250000e+001,3.4554243780e+000,4.0395520220e+000,2.8547674624e+000,2.7713414038e+000,3.5549369352e+000,4.1347838304e+000,3.1514000685e+000,3.4262015906e+000,3.8588656443e+000,4.1214668344e+000,4.1755348109e+000,4.0009657626e+000,1.1729425656e+001,3.9626794548e+000,
2.3250000000e+001,3.4710504819e+000,4.0323701711e+000,2.8411381321e+000,2.8249231439e+000,3.5170611094e+000,4.0830852158e+000,3.1672633379e+000,3.4737317156e+000,3.8772395657e+000,4.0840198650e+000,4.1241249859e+000,3.9280001756e+000,1.1720751893e+001,3.9322873551e+000,
2.3343750000e+001,3.4991951356e+000,4.0054965847e+000,2.8254581892e+000,2.9013500973e+000,3.4301990685e+000,4.0636251796e+000,3.1533264892e+000,3.3877191944e+000,3.8184380764e+000,4.0681907192e+000,4.0148514576e+000,3.8793757222e+000,1.1684591070e+001,3.9328433592e+000,
2.3437500000e+001,3.4982646028e+000,3.9957448635e+000,2.8289760298e+000,2.9780791054e+000,3.3811232468e+000,3.9669909081e+000,3.0564205862e+000,3.3532279271e+000,3.7208100272e+000,4.0931077998e+000,4.0382212190e+000,3.9449915209e+000,1.1663268512e+001,3.9655430400e+000,
2.3531250000e+001,3.4155680307e+000,4.0260182480e+000,2.8445057673e+000,3.0749315637e+000,3.3509267042e+000,4.0147900309e+000,3.0044454392e+000,3.4119594063e+000,3.7398232574e+000,4.1613963679e+000,4.1423247961e+000,3.9297346960e+000,1.1655782055e+001,3.9428392682e+000,
2.3625000000e+001,3.3872815195e+000,4.0491707793e+000,2.8223762775e+000,3.1854735908e+000,3.4084377633e+000,4.0700208810e+000,3.0186069472e+000,3.4096708040e+000,3.7543157486e+000,4.2208150382e+000,4.1938689393e+000,3.9232584962e+000,1.1627095283e+001,3.9188184551e+000,
2.3718750000e+001,3.2975093838e+000,3.9818263336e+000,2.5524401540e+000,3.1109472510e+000,3.3785267276e+000,4.0440557046e+000,2.9822302571e+000,3.2892922645e+000,3.7443872370e+000,4.2043520622e+000,4.5764456285e+000,3.6898090328e+000,1.1642871459e+001,3.6940623378e+000,
2.3812500000e+001,2.9400640888e+000,2.9963581284e+000,2.3118470457e+000,3.0303150077e+000,2.9223676918e+000,3.8453167731e+000,2.7309685842e+000,3.1641056052e+000,3.6473452421e+000,3.9368205011e+000,4.3523513316e+000,3.2433322251e+000,1.0979358101e+001,3.3851069264e+000,
2.3906250000e+001,2.8382641314e+000,2.7516710652e+000,2.2707103429e+000,2.9519238105e+000,2.6758070803e+000,3.7323911195e+000,2.6021724366e+000,3.1288995319e+000,3.4310350950e+000,3.8266889197e+000,4.2896959930e+000,3.0970602580e+000,1.0795291697e+001,3.2702849876e+000,
2.4000000000e+001,2.7547266480e+000,2.6250469817e+000,2.1478068761e+000,2.7828990117e+000,2.5215880802e+000,3.6175587066e+000,2.5532261202e+000,3.0305653266e+000,3.2626745101e+000,3.7526306155e+000,4.1948518640e+000,2.9531939156e+000,1.0738262908e+001,3.1354260878e+000,
2.4093750000e+001,2.6358010835e+000,2.5649465492e+000,2.0101599305e+000,2.7105059391e+000,2.3504352843e+000,3.5185691288e+000,2.3648711727e+000,2.9332568441e+000,3.0748870265e+000,3.7078675678e+000,4.1751226576e+000,2.8135572289e+000,1.0694067371e+001,3.0752865314e+000,
2.4187500000e+001,2.4907809578e+000,2.4115546845e+000,2.2120661680e+000,2.6047123187e+000,2.5737222981e+000,3.5261065748e+000,2.3861040865e+000,2.8230461271e+000,3.0662285048e+000,3.7095429921e+000,4.2122841330e+000,2.7290208834e+000,1.0624692292e+001,3.0594611651e+000,
2.4281250000e+001,2.6655789005e+000,2.6041429064e+000,2.4504751382e+000,2.7445090443e+000,2.6900461994e+000,3.5984843796e+000,2.4442045985e+000,2.8569686042e+000,3.0125280028e+000,3.7463256118e+000,4.2962070261e+000,2.7354254784e+000,1.0647949025e+001,3.0312326639e+000,
2.4375000000e+001,2.6237442767e+000,2.6933916376e+000,2.6101455513e+000,2.6091071082e+000,2.7127186326e+000,3.6714702765e+000,2.5941437839e+000,2.8614779464e+000,3.0913343048e+000,3.8340338166e+000,4.8179037648e+000,2.7383972322e+000,1.1217683019e+001,2.9637489721e+000,
2.4468750000e+001,2.5655910643e+000,2.6696514971e+000,2.5568514261e+000,2.5595753476e+000,2.7415848463e+000,3.7285247040e+000,2.6089545643e+000,2.7510694330e+000,3.0850773022e+000,3.8180825890e+000,4.9123388468e+000,2.5205237747e+000,1.1307836492e+001,2.9286836292e+000,
2.4562500000e+001,2.4927231499e+000,2.3822815733e+000,2.5875468570e+000,2.3537367784e+000,2.6533951825e+000,3.6516977534e+000,2.3764618236e+000,2.6093853206e+000,3.0411364933e+000,3.7796991229e+000,5.0655188504e+000,2.5228270794e+000,1.1444464825e+001,3.0869552471e+000,
2.4656250000e+001,2.7356896540e+000,2.7896894514e+000,2.7605435496e+000,2.4398822909e+000,2.7636922053e+000,3.8259033270e+000,2.4387601080e+000,2.7761821079e+000,3.1758402119e+000,3.8642959206e+000,5.0793418910e+000,2.7035377697e+000,1.1458007116e+001,3.1233141284e+000,
2.4750000000e+001,2.9079788338e+000,2.9687833976e+000,2.9134866301e+000,2.6620740522e+000,2.8096476015e+000,3.8724416460e+000,2.4566690365e+000,3.3304499037e+000,3.2867286601e+000,3.9665994129e+000,4.8231917211e+000,3.2332936767e+000,1.1236340792e+001,3.1826494896e+000,
2.4843750000e+001,2.9219356306e+000,3.0875905048e+000,2.9186554219e+000,2.7635473091e+000,2.8791807928e+000,3.8919645493e+000,2.6100405130e+000,3.4077215805e+000,3.4427379063e+000,4.0114663045e+000,4.8289674342e+000,3.3540274926e+000,1.1287297607e+001,3.3350997052e+000,
2.4937500000e+001,3.0281109248e+000,3.1435051253e+000,2.9769933917e+000,2.8563006759e+000,2.9656226986e+000,3.9574776957e+000,2.7465520211e+000,3.5232840770e+000,3.5975522887e+000,4.0477316325e+000,4.8379236971e+000,3.4128923587e+000,1.1318625670e+001,3.4749751283e+000,
2.5031250000e+001,3.1220286836e+000,3.2650638467e+000,3.0321571511e+000,2.9005995250e+000,3.0444577485e+000,3.9735335268e+000,2.7815296029e+000,3.5699499774e+000,3.6795959041e+000,4.0700131461e+000,4.8465210511e+000,3.4801337777e+000,1.1382243324e+001,3.5605222757e+000,
2.5125000000e+001,3.1211182661e+000,3.3179732604e+000,3.0270901690e+000,2.9125003231e+000,3.0697600628e+000,4.0114105434e+000,2.8800948216e+000,3.5849124289e+000,3.7290791917e+000,4.1517791320e+000,4.8800163694e+000,3.5073658970e+000,1.1478467409e+001,3.5900098768e+000,
2.5218750000e+001,3.0236776658e+000,3.3020584582e+000,2.9231352821e+000,2.8148239128e+000,2.9085502317e+000,4.0129223748e+000,2.8176297568e+000,3.5911406375e+000,3.6139252066e+000,4.1586281343e+000,4.8581226096e+000,3.5313234331e+000,1.1511154373e+001,3.6008750600e+000,
2.5312500000e+001,2.8752492213e+000,3.2509477334e+000,2.7567629412e+000,2.7927796866e+000,2.8045451656e+000,3.9658354082e+000,2.6931532379e+000,3.5227004110e+000,3.5629078582e+000,4.1490551362e+000,4.8585268008e+000,3.5116120621e+000,1.1546779875e+001,3.5465381434e+000,
2.5406250000e+001,2.8753594637e+000,3.2504485031e+000,2.7231714834e+000,2.7945832098e+000,2.9229316458e+000,3.9419280034e+000,2.6409322878e+000,3.5463144131e+000,3.5864350669e+000,4.0807736713e+000,4.4510937928e+000,3.4865693932e+000,1.1167409978e+001,3.5157264022e+000,
2.5500000000e+001,2.7788861556e+000,3.2724838524e+000,2.7196154073e+000,2.8189330977e+000,2.8843142155e+000,3.8472340789e+000,2.6139062145e+000,3.5267056142e+000,3.6045038094e+000,4.0439153562e+000,4.3019530631e+000,3.5584501780e+000,1.0989702183e+001,3.5243304836e+000,
2.5593750000e+001,2.9109135432e+000,3.2767445060e+000,2.7671536204e+000,3.0227418914e+000,2.8976765777e+000,3.7592786212e+000,2.6349860233e+000,3.5798601916e+000,3.6271011148e+000,3.9068470181e+000,3.8345012996e+000,3.5523673377e+000,1.0727296869e+001,3.4876904015e+000,
2.5687500000e+001,2.7801161624e+000,2.9840677410e+000,2.5451091326e+000,2.8012437578e+000,2.8111261057e+000,3.3708079025e+000,2.5933169336e+000,3.2719967195e+000,3.5930852504e+000,3.6084404365e+000,3.7895054227e+000,3.2432732129e+000,1.0766541410e+001,3.3987344221e+000,
2.5781250000e+001,2.8411678059e+000,2.9986612849e+000,2.6022642450e+000,2.8024321944e+000,2.7951164936e+000,3.2565916641e+000,2.5591245468e+000,3.0806604020e+000,3.4913484260e+000,3.4225413170e+000,3.7742882793e+000,3.0388092074e+000,1.0725980069e+001,3.2619647664e+000,
2.5875000000e+001,2.8462373824e+000,2.9287134382e+000,2.6440005161e+000,2.7248655736e+000,2.7857799246e+000,3.1764086129e+000,2.5197371907e+000,2.9964002877e+000,3.4260751842e+000,3.3649701992e+000,3.7572204632e+000,3.1208732973e+000,1.0733523248e+001,3.2719605941e+000,
2.5968750000e+001,2.7945214093e+000,2.8665832475e+000,2.6249837966e+000,2.6780243788e+000,2.6775439375e+000,3.2301466715e+000,2.5024378373e+000,2.9781334219e+000,3.3060071940e+000,3.4889743912e+000,3.7715224698e+000,3.1302914064e+000,1.0761661937e+001,3.2716969997e+000,
2.6062500000e+001,2.7332963499e+000,2.8446196391e+000,2.6392732387e+000,2.6970758840e+000,2.7790784957e+000,3.1783593130e+000,2.5076332209e+000,3.0200058874e+000,3.2883883390e+000,3.3996990330e+000,3.7171584914e+000,3.0978619810e+000,1.0616075814e+001,3.1925025866e+000,
2.6156250000e+001,2.9126290070e+000,2.9118871990e+000,2.6677112850e+000,2.7655229399e+000,2.8585333978e+000,3.2593198229e+000,2.4620830606e+000,3.0987001358e+000,3.2603875548e+000,3.3845949952e+000,3.6463304914e+000,3.1449482125e+000,1.0574796328e+001,3.2023192656e+000,
2.6250000000e+001,2.9979683553e+000,2.9843647140e+000,2.6956834412e+000,2.8086937597e+000,2.8731310166e+000,3.1693614260e+000,2.4556086794e+000,3.1044490121e+000,3.2232032967e+000,3.3321641631e+000,3.5990862050e+000,3.1296911056e+000,1.0477952846e+001,3.1856391008e+000,
2.6343750000e+001,3.0953595281e+000,2.9692510312e+000,2.7382164427e+000,2.7561087144e+000,2.9479492726e+000,3.0937144541e+000,2.5457892954e+000,3.0775898260e+000,3.2524990054e+000,3.1779231579e+000,3.2248000649e+000,3.1149468123e+000,1.0430438810e+001,3.2335001279e+000,
2.6437500000e+001,3.1220304408e+000,3.0441340217e+000,2.6675177753e+000,2.7919495505e+000,2.8051860994e+000,3.0222850295e+000,2.5556160954e+000,3.0780545783e+000,3.3438195735e+000,3.0867875817e+000,3.0341336613e+000,3.1964892808e+000,1.0563443076e+001,3.2863170158e+000,
2.6531250000e+001,3.2561814276e+000,3.1739243890e+000,2.7964210270e+000,3.0448525417e+000,2.9185977714e+000,3.0209242956e+000,2.6384194603e+000,3.1277990363e+000,3.3061175688e+000,3.2052479731e+000,2.8445642586e+000,3.1282086596e+000,1.0793280377e+001,3.3398874905e+000,
2.6625000000e+001,3.0769049662e+000,3.1541702781e+000,2.6321026173e+000,2.8067651442e+000,2.9188648952e+000,3.0267782678e+000,2.6425411729e+000,3.0961063840e+000,3.2910265935e+000,3.2747246198e+000,2.8179960312e+000,3.0858381218e+000,1.0775028117e+001,3.3478982217e+000,
2.6718750000e+001,3.1332316252e+000,3.1701049827e+000,2.7033575363e+000,2.8357304370e+000,2.9857025489e+000,3.1940886988e+000,2.6592687126e+000,3.1508893743e+000,3.4071125567e+000,3.4725461116e+000,2.8699728862e+000,3.2528054323e+000,1.0818111026e+001,3.4991523031e+000,
2.6812500000e+001,3.1596567417e+000,3.1867978962e+000,2.7049191114e+000,2.8072526095e+000,3.0646524873e+000,3.1834837788e+000,2.7287422795e+000,3.0768576164e+000,3.4035522916e+000,3.4498467033e+000,2.8761588185e+000,3.2496142396e+000,1.0786898037e+001,3.5382431549e+000,
2.6906250000e+001,3.1853728663e+000,3.2983283559e+000,2.8087646530e+000,3.0659610254e+000,3.1312554524e+000,3.4834467205e+000,2.7227094165e+000,3.1611266841e+000,3.4762881370e+000,3.6693709652e+000,3.0038433049e+000,3.2984035128e+000,1.0837392171e+001,3.5739959943e+000,
2.7000000000e+001,3.2740348922e+000,3.4230705343e+000,2.9288895026e+000,3.1873285265e+000,3.1408097159e+000,3.7072799426e+000,2.7704578634e+000,3.1867538338e+000,3.5048854839e+000,3.7565621653e+000,3.0437452698e+000,3.3174623476e+000,1.0789142561e+001,3.5702200812e+000,
2.7093750000e+001,3.2986224178e+000,3.5041755068e+000,2.9502388197e+000,3.2526118226e+000,3.1252850797e+000,3.6983757582e+000,2.8661255428e+000,3.1358500948e+000,3.5470473958e+000,3.7838220289e+000,3.1322058631e+000,3.3775869917e+000,1.0792863427e+001,3.6668125690e+000,
2.7187500000e+001,3.3223560444e+000,3.5808052392e+000,2.9775566151e+000,3.3259508313e+000,3.1902094835e+000,3.8675685185e+000,2.8884100637e+000,3.2445548801e+000,3.5826675957e+000,3.9722531524e+000,3.1324349315e+000,3.4673661576e+000,1.0818769860e+001,3.7239062839e+000,
2.7281250000e+001,3.2542539338e+000,3.5377371289e+000,2.9670963019e+000,3.3183239037e+000,3.2118539492e+000,3.8792892266e+000,2.9338530814e+000,3.2640838505e+000,3.6412464092e+000,3.9959879213e+000,3.0788607594e+000,3.4932265887e+000,1.0737531374e+001,3.7986785673e+000,
2.7375000000e+001,3.3348699056e+000,3.5874684617e+000,2.9887055577e+000,3.3153605444e+000,3.1843768424e+000,3.8897228283e+000,2.9324604810e+000,3.2747587149e+000,3.5925416956e+000,4.0196777307e+000,3.0903756360e+000,3.4414526621e+000,1.0695440655e+001,3.7841729768e+000,
2.7468750000e+001,3.2746357706e+000,3.5539526542e+000,2.9477767128e+000,3.2344799775e+000,3.1779181986e+000,3.9213691788e+000,2.9147103624e+000,3.3315539998e+000,3.5840026702e+000,3.9731241182e+000,3.0657444986e+000,3.4076465011e+000,1.0525216621e+001,3.7024084588e+000,
2.7562500000e+001,3.1936514139e+000,3.7610610589e+000,2.8789773729e+000,3.0719930672e+000,3.0563023858e+000,3.9482383995e+000,2.7576486669e+000,3.3072616324e+000,3.5769146146e+000,3.9546682299e+000,3.1220732220e+000,3.3951389600e+000,1.0422220710e+001,3.6572631101e+000,
2.7656250000e+001,3.1979828711e+000,4.6559884367e+000,2.9017407252e+000,3.1097594539e+000,3.0263298666e+000,4.0475778129e+000,2.8045429238e+000,3.3623604612e+000,3.5524847230e+000,4.0731782106e+000,3.0899892150e+000,3.6536432968e+000,1.0347183976e+001,3.8438174224e+000,
2.7750000000e+001,3.0747507694e+000,4.6932268053e+000,2.8371124745e+000,3.0661386802e+000,2.9892069113e+000,3.9919187056e+000,2.7531737776e+000,3.3884316922e+000,3.5118157945e+000,3.9879240654e+000,3.0671192083e+000,3.5781220609e+000,1.0315951029e+001,3.7402123364e+000,
2.7843750000e+001,3.0515208410e+000,4.6943901159e+000,2.7528387251e+000,3.0632027691e+000,2.9358513545e+000,3.9867716014e+000,2.6933272793e+000,3.3681591324e+000,3.4948059673e+000,4.0212064813e+000,3.0751764779e+000,3.5798925805e+000,1.0497616131e+001,3.7394087131e+000,
2.7937500000e+001,2.9270402693e+000,4.6523201676e+000,2.5288544772e+000,2.7354772809e+000,2.9297258598e+000,3.8249217867e+000,2.5452312163e+000,3.2709509002e+000,3.3748862365e+000,3.9433294419e+000,2.8647218394e+000,3.6170984534e+000,1.0394870447e+001,3.6446349267e+000,
2.8031250000e+001,2.8360422997e+000,4.6415891746e+000,2.4112952670e+000,2.6932677110e+000,2.8898249754e+000,3.8079771033e+000,2.2903115583e+000,3.2536802167e+000,3.3778557009e+000,3.9109053708e+000,2.7984223497e+000,3.6332588830e+000,1.0354596690e+001,3.6604732446e+000,
2.8125000000e+001,2.7710286645e+000,4.6216385058e+000,2.4985171172e+000,2.5723789213e+000,2.7464063914e+000,3.7350882624e+000,2.3387966239e+000,3.2205348429e+000,3.4551676416e+000,3.8459894919e+000,3.1570579483e+000,3.5203823281e+000,1.0643056694e+001,3.5602941614e+000,
2.8218750000e+001,2.8613193538e+000,4.6208499532e+000,2.5731125882e+000,2.6110193072e+000,2.8606096487e+000,3.7177844618e+000,2.6661536035e+000,3.2060887065e+000,3.5439341870e+000,3.7817575999e+000,3.2430547081e+000,3.5049579731e+000,1.0699715452e+001,3.4975542102e+000,
2.8312500000e+001,2.8334314207e+000,4.6085785621e+000,2.5490365721e+000,2.6048132625e+000,2.8014658858e+000,3.6759942171e+000,2.5907266428e+000,3.2168137583e+000,3.4727797251e+000,3.7490149179e+000,3.2729550259e+000,3.4914024898e+000,1.0693596208e+001,3.4156169607e+000,
2.8406250000e+001,2.7788847370e+000,4.6053358939e+000,2.4566818769e+000,2.6204993388e+000,2.7350566191e+000,3.6994658377e+000,2.5901146244e+000,3.2199043329e+000,3.4659948795e+000,3.7539876813e+000,3.3058912956e+000,3.4973966974e+000,1.0722342179e+001,3.4642409659e+000,
2.8500000000e+001,2.9040635065e+000,4.6076858389e+000,2.4608963100e+000,2.5916157279e+000,2.7207291857e+000,3.6854873640e+000,2.5831592300e+000,3.1453572260e+000,3.4142782896e+000,3.7824705929e+000,3.3392268839e+000,3.4788031303e+000,1.0791165503e+001,3.4479541683e+000,
2.8593750000e+001,2.9524036979e+000,3.8264257113e+000,2.4419560929e+000,2.6623399950e+000,2.7805567318e+000,3.6764794178e+000,2.6964533784e+000,3.1977320390e+000,3.4462219015e+000,3.7677447213e+000,3.6127998530e+000,3.5288620107e+000,1.0847888099e+001,3.4973919836e+000,
2.8687500000e+001,3.0454088535e+000,3.2663820966e+000,2.3494680448e+000,2.6189944388e+000,2.8738201837e+000,3.5722738878e+000,2.6564164549e+000,3.0231015236e+000,3.4105135393e+000,3.6553174938e+000,3.6229227047e+000,3.3379836066e+000,1.0826714778e+001,3.2612168361e+000,
2.8781250000e+001,3.1187004111e+000,3.2526778380e+000,2.2581891936e+000,2.6963825311e+000,2.9811316109e+000,3.6813633980e+000,2.7188497777e+000,3.1426892876e+000,3.4795583826e+000,3.7411303337e+000,3.6331985526e+000,3.3629985476e+000,1.0859150684e+001,3.2828120947e+000,
2.8875000000e+001,3.2360641108e+000,3.3476301729e+000,2.3581934981e+000,2.7090035399e+000,3.0658790118e+000,3.6785118176e+000,2.7865289470e+000,3.2157809028e+000,3.4673395918e+000,3.6706950808e+000,3.6189817532e+000,3.3180734876e+000,1.0760326928e+001,3.3321234930e+000,
2.8968750000e+001,3.2228711050e+000,3.3496940489e+000,2.3927686742e+000,2.6255382607e+000,3.0091262388e+000,3.5865898988e+000,2.8100297926e+000,3.2396171829e+000,3.4529763072e+000,3.5779604444e+000,3.6162551126e+000,3.2527178047e+000,1.0761623340e+001,3.3303469852e+000,
2.9062500000e+001,3.2532307746e+000,3.2992245193e+000,2.4406594850e+000,2.7138501300e+000,3.1486327405e+000,3.6144040531e+000,2.8212144540e+000,3.2787505281e+000,3.4617223671e+000,3.5910668118e+000,3.5524521036e+000,3.2976000500e+000,1.0590163966e+001,3.3278093924e+000,
2.9156250000e+001,3.2544719093e+000,3.2632584685e+000,2.3229602304e+000,2.6136100951e+000,3.1206652070e+000,3.5050990451e+000,2.6776069783e+000,3.1812044367e+000,3.3239008173e+000,3.4665209430e+000,3.3367275136e+000,3.2336319474e+000,1.0393243368e+001,3.3200235976e+000,
2.9250000000e+001,3.2554868186e+000,3.3434906409e+000,2.4243434744e+000,2.5828004385e+000,3.0643343045e+000,3.5967865248e+000,2.5897645595e+000,3.2394761460e+000,3.2583177343e+000,3.5509010255e+000,3.3778043029e+000,3.3266151181e+000,1.0368359530e+001,3.5405868503e+000,
2.9343750000e+001,3.2086960182e+000,3.4332548783e+000,2.4527394886e+000,2.7064430397e+000,3.1212222097e+000,3.6437045820e+000,2.5714533809e+000,3.2287386047e+000,3.3011452661e+000,3.6258731752e+000,3.4231193243e+000,3.3207508622e+000,1.0408565839e+001,3.4974222063e+000,
2.9437500000e+001,3.2325577384e+000,3.4065014003e+000,2.5404590085e+000,2.7553611194e+000,3.2196780753e+000,3.6921379208e+000,2.6749197422e+000,3.1982941579e+000,3.4133410645e+000,3.6999874993e+000,3.4455735129e+000,3.3736500842e+000,1.0249980221e+001,3.5324231154e+000,
2.9531250000e+001,3.2014308834e+000,3.3702232506e+000,2.6112433096e+000,2.8089846824e+000,3.2282793607e+000,3.7826516001e+000,2.6011443102e+000,3.3305662103e+000,3.4182962641e+000,3.7906981052e+000,3.3375393603e+000,3.3928067692e+000,1.0131749584e+001,3.5488975698e+000,
2.9625000000e+001,3.2917384368e+000,3.5168785695e+000,2.6924929155e+000,2.7931132426e+000,3.2431134379e+000,3.8627537387e+000,2.7548045487e+000,3.4313962777e+000,3.4463392932e+000,3.8079322384e+000,3.0722912778e+000,3.4455605421e+000,1.0096067275e+001,3.6592012995e+000,
2.9718750000e+001,3.1983768188e+000,3.4933268763e+000,2.7663068356e+000,2.8528383116e+000,3.0520029493e+000,3.8670350694e+000,2.7518980162e+000,3.4331835201e+000,3.5350533947e+000,3.8073917809e+000,3.0389656645e+000,3.3842248673e+000,1.0105313923e+001,3.6452159168e+000,
2.9812500000e+001,3.1244998156e+000,3.5348299306e+000,2.7616946412e+000,2.8379931727e+000,2.9534732378e+000,3.7810306228e+000,2.6680119427e+000,3.2953301353e+000,3.4402452387e+000,3.7508234898e+000,3.0319910631e+000,3.3981532392e+000,1.0246689691e+001,3.6565155587e+000,
2.9906250000e+001,3.0797422131e+000,3.5648716810e+000,2.7823988779e+000,2.9074571354e+000,2.8756063583e+000,3.8065650584e+000,2.7309981706e+000,3.3308829789e+000,3.5026645904e+000,3.7689657405e+000,3.1393379445e+000,3.3616823694e+000,1.0463587828e+001,3.6230090805e+000,
3.0000000000e+001,3.1016355231e+000,3.5650675932e+000,2.8499286012e+000,2.8680887781e+000,2.9162586022e+000,3.9289059571e+000,2.8080495496e+000,3.3304805181e+000,3.5236315623e+000,3.9086882493e+000,3.2425866929e+000,3.3752299406e+000,1.0669461096e+001,3.6360256173e+000,
3.0093750000e+001,3.2142859493e+000,3.5854909321e+000,2.8828949793e+000,2.9187470887e+000,2.8933026028e+000,4.0210439188e+000,2.7976181533e+000,3.3346186458e+000,3.5480322030e+000,4.0080695348e+000,3.2804537130e+000,3.3922025159e+000,1.0729362577e+001,3.7132257934e+000,
3.0187500000e+001,3.1345570591e+000,3.5221683464e+000,2.8340957002e+000,2.9754114602e+000,2.8852273470e+000,3.9597189808e+000,2.7548333439e+000,3.3234310707e+000,3.5211933215e+000,3.9576675391e+000,3.2317264619e+000,3.3956922271e+000,1.0756177147e+001,3.6669439636e+000,
3.0281250000e+001,3.1483597297e+000,3.5109748218e+000,2.8263090906e+000,2.9969006302e+000,2.9806163110e+000,3.9533543290e+000,2.8883025417e+000,3.3492973383e+000,3.5602852723e+000,3.9520598267e+000,3.2407365229e+000,3.3844613814e+000,1.0754628135e+001,3.5874966866e+000,
3.0375000000e+001,3.0964106616e+000,3.4431635775e+000,2.8557135085e+000,2.8718682120e+000,2.9014950776e+000,3.8829827493e+000,2.9250891773e+000,3.3444062000e+000,3.4533932030e+000,3.8616543016e+000,3.0371937274e+000,3.3626160134e+000,1.0751066781e+001,3.6096410374e+000,
3.0468750000e+001,3.0629382259e+000,3.4350909326e+000,2.8446515323e+000,2.8661983160e+000,2.8242142795e+000,3.8876693372e+000,2.8778246853e+000,3.3396052018e+000,3.4474446799e+000,3.8263930486e+000,2.9586593099e+000,3.3319465666e+000,1.0704874162e+001,3.5990116492e+000,
3.0562500000e+001,3.0623622874e+000,3.4049880383e+000,2.8644055400e+000,2.7893252705e+000,2.8763581829e+000,3.7848106848e+000,2.9097081063e+000,3.1851297416e+000,3.4072246342e+000,3.7774533797e+000,3.0584530853e+000,3.6240137709e+000,1.0734642010e+001,3.7463376350e+000,
3.0656250000e+001,3.1732491586e+000,3.3937506892e+000,2.9242055250e+000,2.8776235927e+000,3.0277725710e+000,3.7133257737e+000,2.8405605684e+000,3.1237706641e+000,3.4209349533e+000,3.7011315242e+000,3.0251656871e+000,3.5155400360e+000,1.0693639319e+001,3.6446566303e+000,
3.0750000000e+001,3.4146161936e+000,3.4971446894e+000,3.0083466115e+000,2.8795689402e+000,3.2139929353e+000,3.6920856144e+000,2.8991424230e+000,3.2087172872e+000,3.3656002663e+000,3.6587600105e+000,3.0648844769e+000,3.5092021550e+000,1.0615041972e+001,3.6459132051e+000,
3.0843750000e+001,3.3807026588e+000,3.4347564979e+000,3.0068417118e+000,2.8333703214e+000,3.2322125587e+000,3.6954199688e+000,2.8929412772e+000,3.2161503005e+000,3.3536321393e+000,3.6581181377e+000,3.0638290498e+000,3.4584059972e+000,1.0500332634e+001,3.6066047605e+000,
3.0937500000e+001,3.3535148735e+000,3.3493169459e+000,3.0405463758e+000,2.7424918615e+000,3.3265671362e+000,3.5262587856e+000,2.8427094929e+000,3.2364907760e+000,3.2644720152e+000,3.4779350171e+000,2.8907693601e+000,3.5313195590e+000,1.0211969747e+001,3.7244910371e+000,
3.1031250000e+001,3.3571000824e+000,3.3238154169e+000,2.9216742407e+000,2.7381208664e+000,3.3132319675e+000,3.3865790200e+000,2.8911254823e+000,3.2020989448e+000,3.3510029863e+000,3.2945526745e+000,2.9271757768e+000,3.4444011354e+000,9.8253087760e+000,3.6760538326e+000,
3.1125000000e+001,3.2490583669e+000,3.3377646460e+000,2.8397126136e+000,2.7087124298e+000,3.2601004924e+000,3.2372245610e+000,2.8870398019e+000,3.1742687098e+000,3.2084208469e+000,3.1717970856e+000,2.9445454752e+000,3.3830710821e+000,9.7343227972e+000,3.6308673110e+000,
3.1218750000e+001,3.2775404959e+000,3.3542169233e+000,2.8951701081e+000,2.6757311728e+000,3.2426935339e+000,3.3655528702e+000,2.7464497517e+000,3.1953918322e+000,3.1638562543e+000,3.3329280961e+000,3.0492351462e+000,3.3961700060e+000,9.7937650541e+000,3.6043153973e+000,
3.1312500000e+001,3.2689696464e+000,3.2952922684e+000,2.8197877910e+000,2.5810955026e+000,3.2581315430e+000,3.3145362975e+000,2.5954296470e+000,3.1371375343e+000,3.0673952457e+000,3.3443615565e+000,2.9969859967e+000,3.3173987276e+000,9.7592357039e+000,3.6034652249e+000,
3.1406250000e+001,3.2548985697e+000,3.2938292306e+000,2.7305510273e+000,2.5334003511e+000,3.2584124325e+000,3.3435990830e+000,2.5209828819e+000,3.1131613426e+000,3.0588551424e+000,3.5213358417e+000,3.4086885915e+000,3.3751706214e+000,1.0064495081e+001,3.5789899651e+000,
3.1500000000e+001,3.2599736846e+000,3.3761219191e+000,2.7243334848e+000,2.6610575389e+000,3.2130351321e+000,3.4891181191e+000,2.4422215762e+000,3.2772578194e+000,3.0365326990e+000,3.5305239598e+000,3.6323087011e+000,3.5122349044e+000,1.0127848877e+001,3.6037235230e+000,
3.1593750000e+001,3.2783022525e+000,3.4134303276e+000,2.7846357918e+000,2.8359040059e+000,3.2401475714e+000,3.5598783134e+000,2.4911943212e+000,3.2843110348e+000,2.8511753069e+000,3.5887789393e+000,3.6498527702e+000,3.3374757735e+000,1.0064034475e+001,3.4524153278e+000,
3.1687500000e+001,2.9462275618e+000,3.2912218476e+000,2.6568972717e+000,2.7967109706e+000,3.1154135909e+000,3.5454635579e+000,2.3499127760e+000,3.2365354420e+000,2.8215744875e+000,3.5708560003e+000,3.6788242434e+000,3.3467017172e+000,1.0028341963e+001,3.5092358132e+000,
3.1781250000e+001,2.7511258364e+000,3.2066059125e+000,2.5000495780e+000,2.7737362723e+000,2.9585594283e+000,3.5171943665e+000,2.2424478308e+000,3.1382770622e+000,2.8419387281e+000,3.5578476722e+000,3.7105411836e+000,3.3838648708e+000,1.0132074134e+001,3.4945041671e+000,
3.1875000000e+001,2.7854034486e+000,3.2319314074e+000,2.4614944436e+000,2.8741363834e+000,2.8193670905e+000,3.5646226984e+000,2.2448845708e+000,3.1408784638e+000,2.8179213835e+000,3.6253742819e+000,3.8584105074e+000,3.4467350948e+000,1.0209437228e+001,3.5877623954e+000,
3.1968750000e+001,2.8004076506e+000,3.2353638148e+000,2.4159868297e+000,2.8588680890e+000,2.7967455314e+000,3.6082523223e+000,2.1110257271e+000,3.1350111586e+000,2.8171888682e+000,3.6857471882e+000,3.9100201338e+000,3.5472215091e+000,1.0223074354e+001,3.7066117013e+000,
3.2062500000e+001,2.8252800397e+000,3.2955165627e+000,2.5721911917e+000,2.9459871451e+000,2.8431224843e+000,3.6814551182e+000,1.9589532509e+000,3.2968662325e+000,2.7386818746e+000,3.7113878762e+000,4.0304558075e+000,3.6920732957e+000,1.0429758973e+001,3.7822742002e+000,
3.2156250000e+001,2.9263824007e+000,3.3086980884e+000,2.6236323949e+000,3.0662880727e+000,2.8564308854e+000,3.6892245600e+000,2.0399056117e+000,3.4455504793e+000,2.7781119262e+000,3.7007222891e+000,4.1227014138e+000,3.7132196538e+000,1.0454803980e+001,3.7880329113e+000,
3.2250000000e+001,2.9933150553e+000,3.3303906814e+000,2.5613415653e+000,3.1658496325e+000,2.9765406553e+000,3.7006486479e+000,2.0620694146e+000,3.5060335304e+000,2.9935274190e+000,3.7043940916e+000,4.1771438315e+000,3.6961472004e+000,1.0528911056e+001,3.8204539509e+000,
3.2343750000e+001,3.1167216749e+000,3.4075805150e+000,2.6489299139e+000,3.2295461046e+000,2.8603357396e+000,3.8055493002e+000,2.1469905744e+000,3.5798820595e+000,3.0042579782e+000,3.7068304646e+000,4.3011698916e+000,3.7453847448e+000,1.0600396685e+001,3.8712602929e+000,
3.2437500000e+001,3.1589416590e+000,3.4352725792e+000,2.6916380306e+000,3.2574823939e+000,2.8800307281e+000,3.8557883728e+000,2.2146289096e+000,3.6570269473e+000,2.9970739936e+000,3.6252926950e+000,4.1863322403e+000,3.7444710043e+000,1.0517147814e+001,3.8641233027e+000,
3.2531250000e+001,3.1145835650e+000,3.3859867673e+000,2.6725379519e+000,3.1986103241e+000,2.9027907556e+000,3.7649049941e+000,2.1786856189e+000,3.7525667642e+000,3.0573300262e+000,3.5507703281e+000,4.4395024242e+000,3.6832142521e+000,1.0746725514e+001,3.9087771788e+000,
3.2625000000e+001,3.1484333208e+000,3.4021582217e+000,2.6328830206e+000,3.1781642229e+000,2.9484295966e+000,3.7801822843e+000,2.2270690342e+000,3.8203215247e+000,3.1138011770e+000,3.5916108449e+000,4.4479193061e+000,3.6706529635e+000,1.0759193146e+001,3.9146526974e+000,
3.2718750000e+001,3.1398934918e+000,3.9782923030e+000,2.6228219287e+000,3.1461828428e+000,2.9216074799e+000,3.8318148580e+000,2.2779049882e+000,3.8768604225e+000,3.1730193552e+000,3.6384124153e+000,4.4667627700e+000,3.6725942889e+000,1.0729891100e+001,3.8674227912e+000,
3.2812500000e+001,3.0986437820e+000,4.1031672356e+000,2.6818171633e+000,3.1915379622e+000,2.9366240824e+000,3.8430313341e+000,2.2857557982e+000,3.9021368933e+000,3.3671493436e+000,3.6053092316e+000,4.4095018959e+000,3.6488641024e+000,1.0638704967e+001,3.8647316106e+000,
3.2906250000e+001,3.1966457385e+000,4.1312577360e+000,2.7852071217e+000,3.2056114912e+000,2.9505464642e+000,3.8748992849e+000,2.4039972528e+000,3.9278548384e+000,3.3966366659e+000,3.6278658328e+000,4.3619422410e+000,3.6112074070e+000,1.0599615570e+001,3.7254350787e+000,
3.3000000000e+001,3.1463988176e+000,4.1093607412e+000,2.8432524169e+000,3.1607630844e+000,2.8917496774e+000,3.8476475992e+000,2.5928050962e+000,3.8903470621e+000,3.4185824496e+000,3.6513105359e+000,4.3447569226e+000,3.6066133131e+000,1.0499920491e+001,3.6355733776e+000,
3.3093750000e+001,3.1458044675e+000,4.0890740905e+000,2.8373187931e+000,3.1246267278e+000,2.9119957863e+000,3.8042513437e+000,2.7282652213e+000,3.9270907815e+000,3.6517179952e+000,3.6142844792e+000,4.2764429813e+000,3.5308095641e+000,1.0315651217e+001,3.6088102747e+000,
3.3187500000e+001,3.1015924571e+000,4.0946398819e+000,2.8740562634e+000,3.0235975639e+000,2.8579721740e+000,3.8159252529e+000,2.7314894567e+000,3.9489095668e+000,3.8248303091e+000,3.6382484329e+000,4.2080037342e+000,3.6522580153e+000,1.0193698614e+001,3.6781046195e+000,
3.3281250000e+001,3.0183163828e+000,4.1254989558e+000,2.8739426717e+000,2.9365896166e+000,2.7119310980e+000,3.9011830903e+000,2.7528348486e+000,3.8912067719e+000,3.7694132741e+000,3.8081311729e+000,4.3567974402e+000,3.6536693832e+000,1.0608262718e+001,3.6366152105e+000,
3.3375000000e+001,3.0346314748e+000,4.1599515110e+000,2.8949236349e+000,2.9495304456e+000,2.7995449939e+000,3.9047758710e+000,2.8304094895e+000,3.9053678738e+000,3.7754477462e+000,3.8775697996e+000,5.1535802521e+000,3.6778908686e+000,1.0800750468e+001,3.6789784259e+000,
3.3468750000e+001,3.1233281143e+000,4.1327925848e+000,2.9964476606e+000,2.9074168142e+000,2.9844327767e+000,3.8846021262e+000,2.9694753534e+000,3.6942063995e+000,3.9623255328e+000,3.9167914214e+000,5.2028913729e+000,3.5523548216e+000,1.0705276136e+001,3.5489883365e+000,
3.3562500000e+001,3.2070538663e+000,4.1186078247e+000,3.0435986804e+000,2.9998614878e+000,3.0984697754e+000,3.9803112930e+000,3.0055324172e+000,3.7256649242e+000,3.9270685269e+000,3.9469015000e+000,5.2682649605e+000,3.6142622899e+000,1.0725032089e+001,3.6505593547e+000,
3.3656250000e+001,3.2598922092e+000,4.0769215287e+000,3.0620974116e+000,2.9996646141e+000,3.0872191213e+000,4.3750235872e+000,3.0808887863e+000,3.7540972318e+000,4.0869856992e+000,4.3741763336e+000,5.3510069828e+000,3.6597273933e+000,1.1501491417e+001,3.7116859391e+000,
3.3750000000e+001,3.3156857424e+000,3.3977824491e+000,3.1086350036e+000,3.1158705964e+000,3.0983194394e+000,4.3752110769e+000,3.0826884598e+000,3.7908159282e+000,4.0768909407e+000,4.4017317067e+000,5.4151474502e+000,3.6923924053e+000,1.1593544277e+001,3.7549389586e+000,
3.3843750000e+001,3.3099662407e+000,3.3209830079e+000,3.0091008027e+000,3.0862682181e+000,3.1030473119e+000,4.3572857015e+000,3.0160412593e+000,3.7919397312e+000,4.0406945993e+000,4.3820785749e+000,5.4447499228e+000,3.7102247211e+000,1.1617612169e+001,3.7553777095e+000,
3.3937500000e+001,3.2887256768e+000,3.3638031297e+000,2.9753136894e+000,3.2025100628e+000,3.2661182616e+000,4.3804949584e+000,2.9675576443e+000,3.8137087821e+000,4.0657810515e+000,4.3699229738e+000,5.4640217821e+000,3.5337947526e+000,1.1643800234e+001,3.7092473853e+000,
3.4031250000e+001,3.2526354613e+000,3.4210739820e+000,2.9195865599e+000,3.1975945694e+000,3.2520953681e+000,4.4138832093e+000,2.9285751430e+000,3.8202778797e+000,4.0007193207e+000,4.3848559085e+000,5.4867620098e+000,3.5472265719e+000,1.1655434055e+001,3.6840370858e+000,
3.4125000000e+001,3.2306706934e+000,3.3745056337e+000,2.8926347156e+000,3.1402197112e+000,3.2102126659e+000,4.4252445674e+000,2.8533542420e+000,3.7679835534e+000,3.9154785175e+000,4.3913931948e+000,5.4894071974e+000,3.5635959237e+000,1.1655909329e+001,3.6303314706e+000,
3.4218750000e+001,3.2159794203e+000,3.3722410267e+000,2.8519604020e+000,3.1323355246e+000,3.2761441287e+000,4.4139350867e+000,2.9435566475e+000,3.7841585121e+000,3.7786606019e+000,4.3121224145e+000,5.4513929856e+000,3.4336745771e+000,1.1596290192e+001,3.5761508166e+000,
3.4312500000e+001,3.2267753940e+000,3.2994699058e+000,2.9499258973e+000,3.1027466155e+000,3.2422542106e+000,4.3193685867e+000,2.8729866181e+000,3.8025290373e+000,3.8362724111e+000,4.1915076870e+000,5.0136471366e+000,3.4406229379e+000,1.1345248777e+001,3.5812176444e+000,
3.4406250000e+001,3.2064665441e+000,3.3420934244e+000,2.9873943053e+000,3.1118334490e+000,3.2234157842e+000,4.2914453794e+000,2.7917682184e+000,3.7787171670e+000,3.8535285798e+000,4.1907103381e+000,4.7877549179e+000,3.6104375983e+000,1.1302461077e+001,3.6168655657e+000,
3.4500000000e+001,3.0859175638e+000,3.3669527334e+000,2.8672262149e+000,3.0214596929e+000,3.0579659050e+000,4.2490942511e+000,2.6246398672e+000,3.8518613501e+000,3.7548881759e+000,4.1207204718e+000,4.4009353112e+000,3.5760535624e+000,1.1209356012e+001,3.5466311793e+000,
3.4593750000e+001,3.0049184800e+000,3.4603058309e+000,2.8521659629e+000,3.0509325903e+000,2.9497769358e+000,4.1525922519e+000,2.6147344068e+000,3.8617801020e+000,3.7947042720e+000,4.0272323396e+000,4.1936794047e+000,3.5064854702e+000,1.0940733894e+001,3.5870304428e+000,
3.4687500000e+001,2.9339646149e+000,3.5421818065e+000,2.8401753564e+000,3.1282772212e+000,2.9983699868e+000,3.7481581767e+000,2.6261777274e+000,3.8172409698e+000,3.5891760911e+000,3.4436477343e+000,3.8456217539e+000,3.5316413663e+000,9.0657649370e+000,3.5154929182e+000,
3.4781250000e+001,2.9185397886e+000,3.5151407491e+000,2.7747091857e+000,3.0120606521e+000,2.9498020033e+000,3.7157104894e+000,2.6014464563e+000,3.6836269941e+000,3.5545402907e+000,3.4810774210e+000,3.5944937586e+000,3.5166508315e+000,8.7388501675e+000,3.6259300322e+000,
3.4875000000e+001,2.9552139962e+000,3.4848755450e+000,2.7907628369e+000,2.8985049897e+000,3.0563663583e+000,3.7118907963e+000,2.7651366039e+000,3.7339249391e+000,3.6936411114e+000,3.4418469351e+000,3.5083698587e+000,3.5564995189e+000,8.3785185401e+000,3.7029950147e+000,
3.4968750000e+001,2.9095409968e+000,3.4321883872e+000,2.7918001139e+000,2.8592812812e+000,2.9273262164e+000,3.6955110416e+000,2.7333484451e+000,3.6708507859e+000,3.6617734141e+000,3.4788202071e+000,3.1100575329e+000,3.5581222595e+000,6.7816905895e+000,3.7029836543e+000,
3.5062500000e+001,3.0610764031e+000,3.4918934145e+000,2.9108733056e+000,2.9107555189e+000,3.0732047817e+000,3.6956135024e+000,2.9229402000e+000,3.6623470588e+000,3.6645709643e+000,3.4505122225e+000,3.1706797103e+000,3.6128918673e+000,6.7011610991e+000,3.7385423746e+000,
3.5156250000e+001,3.1509755862e+000,3.5212819235e+000,2.9880447253e+000,2.9208708390e+000,3.1367120624e+000,3.7019551640e+000,2.9139410175e+000,3.6663846255e+000,3.7271390647e+000,3.4719651768e+000,3.1614871755e+000,3.5811036379e+000,6.8294396678e+000,3.7383904805e+000,
3.5250000000e+001,3.1384060192e+000,3.4803723838e+000,2.9270098657e+000,2.9375652281e+000,3.0843359901e+000,3.6650540311e+000,2.8326119683e+000,3.5750611639e+000,3.7463600823e+000,3.4731818927e+000,3.1651644069e+000,3.5470755811e+000,6.9220574629e+000,3.7470121060e+000,
3.5343750000e+001,3.0718665067e+000,3.4714311033e+000,2.8444260185e+000,2.9793255856e+000,3.0533326341e+000,3.7284961190e+000,2.8250094207e+000,3.6267377041e+000,3.6824151441e+000,3.5887217996e+000,3.0737701184e+000,3.6602841048e+000,7.2089678539e+000,3.7831179622e+000,
3.5437500000e+001,3.1372990400e+000,3.5811104031e+000,2.8611307403e+000,3.0150766940e+000,2.9975140389e+000,3.8902403028e+000,2.8969373724e+000,3.7591544215e+000,3.6157604227e+000,3.8880034623e+000,3.1317560233e+000,3.7788006215e+000,7.2557980568e+000,3.8178118943e+000,
3.5531250000e+001,3.0964796787e+000,3.4766824989e+000,2.7922408658e+000,2.9798895867e+000,2.9709797802e+000,3.8950159653e+000,2.8271187854e+000,3.6957490893e+000,3.6309690203e+000,3.9155746981e+000,3.1053736629e+000,3.8990174363e+000,7.4585275353e+000,3.9349371295e+000,
3.5625000000e+001,3.1535551204e+000,3.3728538165e+000,2.7701763133e+000,2.9618805561e+000,2.9335601175e+000,3.8295672820e+000,2.7641596305e+000,3.6416364004e+000,3.4673755075e+000,3.9220196582e+000,3.0771251923e+000,3.8329084873e+000,7.6432959099e+000,3.8577274103e+000,
3.5718750000e+001,3.2849017766e+000,3.4057387090e+000,2.8989686217e+000,2.9298351750e+000,3.2946615805e+000,3.8541355772e+000,2.9243149196e+000,3.6338465042e+000,3.4415197577e+000,3.8944854046e+000,3.1241340385e+000,3.8910597937e+000,7.6499833101e+000,3.9266998324e+000,
3.5812500000e+001,3.3635488153e+000,3.4909134005e+000,2.9962241466e+000,2.9882759339e+000,3.2612001998e+000,3.9686910430e+000,2.9249550656e+000,3.7443266384e+000,3.3477057875e+000,3.8862236226e+000,3.1628501358e+000,3.9350684292e+000,7.6860426538e+000,3.8965109633e+000,
3.5906250000e+001,3.4015449001e+000,3.4913099428e+000,3.0463347816e+000,2.9784554225e+000,3.2860214324e+000,3.9107305431e+000,2.8900374176e+000,3.6896947923e+000,3.2730937986e+000,3.8776185120e+000,3.1291386452e+000,3.9577941186e+000,7.6567653312e+000,3.8886674435e+000,
3.6000000000e+001,3.4062427859e+000,3.5103444718e+000,3.0068143872e+000,2.9077815491e+000,3.2061472923e+000,3.9278307451e+000,2.7589895449e+000,3.7084215932e+000,3.3275699192e+000,3.8728334863e+000,2.9968330321e+000,3.9440064876e+000,7.6438117082e+000,3.8526106541e+000,
3.6093750000e+001,3.3672022888e+000,3.4728744933e+000,2.9753083825e+000,2.9784933119e+000,3.1884947704e+000,3.9219401269e+000,2.7378883166e+000,3.6535425819e+000,3.1850788564e+000,3.8511680848e+000,2.9037040282e+000,3.8874603965e+000,7.5329114298e+000,3.8193952664e+000,
3.6187500000e+001,3.4093368372e+000,3.5427986819e+000,2.9921423859e+000,3.1226217220e+000,3.2682781851e+000,3.8825820988e+000,2.8211208254e+000,3.7013398554e+000,3.1498909246e+000,3.8782405367e+000,2.8456753624e+000,3.9382930701e+000,7.4713803079e+000,3.8823692443e+000,
3.6281250000e+001,3.4197164351e+000,3.5671449751e+000,3.0280192876e+000,3.1414958117e+000,3.3065766625e+000,3.9148365885e+000,2.8952509476e+000,3.7057570015e+000,3.1725010181e+000,3.9349128767e+000,2.8575649312e+000,4.0034757280e+000,7.4249746112e+000,3.8761963168e+000,
3.6375000000e+001,3.3838684910e+000,3.5148144167e+000,3.0750958913e+000,3.0713810571e+000,3.3262011286e+000,3.8460355864e+000,2.9037960767e+000,3.6583345467e+000,3.1899808346e+000,3.7596120417e+000,2.7816303412e+000,3.8709620566e+000,7.2185703532e+000,3.8261454603e+000,
3.6468750000e+001,3.3320085486e+000,3.3970569385e+000,3.0393727222e+000,3.0204810799e+000,3.3386363905e+000,3.6576164812e+000,2.8886472351e+000,3.5079800418e+000,3.1709783730e+000,3.4094129889e+000,2.8532166414e+000,3.6462806802e+000,7.3078522524e+000,3.6717321466e+000,
3.6562500000e+001,3.3434170858e+000,3.5108163711e+000,3.0140471580e+000,3.0371806870e+000,3.3328755167e+000,3.6652238247e+000,2.8896547631e+000,3.5701562850e+000,3.1163292710e+000,3.4012789087e+000,2.9528204194e+000,3.5560460859e+000,7.3887158269e+000,3.5499692975e+000,
3.6656250000e+001,3.4066426586e+000,3.5744510995e+000,3.0218463788e+000,3.0305931909e+000,3.2571669203e+000,3.6788161059e+000,2.9142514449e+000,3.6088631668e+000,3.2009231517e+000,3.3937556442e+000,2.8844733166e+000,3.5579826456e+000,7.3600363792e+000,3.4671435879e+000,
3.6750000000e+001,3.1937559012e+000,3.5073894683e+000,2.8803835611e+000,2.9545082019e+000,2.9622630896e+000,3.5474338518e+000,2.7176273162e+000,3.5230216490e+000,3.3611975320e+000,3.3505517512e+000,2.8307630760e+000,3.5232620162e+000,7.4527355884e+000,3.4918920495e+000,
3.6843750000e+001,3.1349519831e+000,3.5490444631e+000,2.8089376198e+000,2.9417636267e+000,2.9664250715e+000,3.4677405178e+000,2.7394040998e+000,3.5490767315e+000,3.4536790150e+000,3.3253696132e+000,2.8547395510e+000,3.4084254013e+000,7.6744329407e+000,3.3702910065e+000,
3.6937500000e+001,2.9511329127e+000,3.5378359214e+000,2.6325973327e+000,2.8370916410e+000,2.9409135518e+000,3.4173663944e+000,2.7086275310e+000,3.5652773852e+000,3.3837202067e+000,3.2238708260e+000,2.7667078782e+000,3.4440111528e+000,7.8565522092e+000,3.4745813096e+000,
3.7031250000e+001,2.8878764380e+000,4.4853157323e+000,2.6458565042e+000,2.9473607065e+000,2.8614048042e+000,3.3422718008e+000,2.7011244896e+000,3.5266331957e+000,3.3527833913e+000,3.1774118518e+000,2.7842293707e+000,3.4866293896e+000,7.8315212626e+000,3.5555382676e+000,
3.7125000000e+001,2.8728736561e+000,4.6784996043e+000,2.6591412403e+000,2.8046912287e+000,2.8421991085e+000,3.3350808261e+000,2.6441505384e+000,3.5190713545e+000,3.3264052355e+000,3.1569700403e+000,3.0389792815e+000,3.4657695893e+000,8.0644584896e+000,3.5678957268e+000,
3.7218750000e+001,2.6955843290e+000,4.7011257603e+000,2.5099131509e+000,2.7065913596e+000,2.5939006250e+000,3.3551843517e+000,2.5369864617e+000,3.4325280796e+000,3.3158873385e+000,3.0434041042e+000,3.0177051862e+000,3.4701407962e+000,8.1378037027e+000,3.5820096718e+000,
3.7312500000e+001,2.7789539790e+000,4.7185965551e+000,2.4816043560e+000,2.8393905681e+000,2.6117801205e+000,3.4481055976e+000,2.5351314069e+000,3.5027191066e+000,3.3495216001e+000,3.1926762554e+000,2.9810742963e+000,3.5799279904e+000,8.1831592928e+000,3.7676372197e+000,
3.7406250000e+001,2.8339608608e+000,4.7266888681e+000,2.4446066431e+000,2.8565723241e+000,2.6288860092e+000,3.5134263489e+000,2.4867678776e+000,3.5077248126e+000,3.3341569791e+000,3.1922134575e+000,3.0886366750e+000,3.5624965442e+000,8.1884858270e+000,3.8058333625e+000,
3.7500000000e+001,2.9492732102e+000,4.7415688100e+000,2.4894932658e+000,2.8969920806e+000,2.6619643529e+000,3.5675388183e+000,2.4294645594e+000,3.4890925526e+000,3.4262174243e+000,3.1958758347e+000,3.1100921543e+000,3.5400183095e+000,8.1200233494e+000,3.8623151157e+000,
3.7593750000e+001,2.8821909723e+000,4.7037259312e+000,2.5376406519e+000,2.8429989210e+000,2.7509507094e+000,3.6107102699e+000,2.5522843805e+000,3.4395000627e+000,3.4650962937e+000,3.1873811121e+000,3.1204701214e+000,3.5121294683e+000,8.0555829730e+000,3.9398192241e+000,
3.7687500000e+001,2.7937669796e+000,4.6912249522e+000,2.5430903706e+000,2.8723115110e+000,2.6599836818e+000,3.5675054261e+000,2.5205202408e+000,3.3947131133e+000,3.3704222831e+000,3.1656205750e+000,3.1489964118e+000,3.4804151723e+000,7.9802882823e+000,3.9080060438e+000,
3.7781250000e+001,2.7661156950e+000,4.6920181109e+000,2.5387371677e+000,2.7712936388e+000,2.6155502103e+000,3.6789749352e+000,2.5267204378e+000,3.3704148062e+000,3.2117715891e+000,3.2668893551e+000,3.0995183726e+000,3.4540478936e+000,7.8610228779e+000,3.8704122360e+000,
3.7875000000e+001,2.7861037073e+000,4.6636212583e+000,2.5944423104e+000,2.8775094747e+000,2.6665124589e+000,3.7436869292e+000,2.6095971802e+000,3.3160525485e+000,3.2789786532e+000,3.3523929613e+000,3.1586233674e+000,3.5379230162e+000,7.6596386183e+000,3.9144110804e+000,
3.7968750000e+001,2.8262014786e+000,4.6316308813e+000,2.6042138091e+000,2.9908664903e+000,2.6544461467e+000,3.7628050218e+000,2.6312754492e+000,3.3553910927e+000,3.2596583478e+000,3.4769485949e+000,3.1675971529e+000,3.5673631050e+000,7.6609697956e+000,3.8300208853e+000,
3.8062500000e+001,2.9194812064e+000,3.8134724607e+000,2.7171615871e+000,3.0398579527e+000,2.7740189348e+000,3.8786843333e+000,2.7647423983e+000,3.3864254844e+000,3.3397170108e+000,3.6026911603e+000,3.1364933001e+000,3.5932984399e+000,7.6392242959e+000,3.8414237626e+000,
3.8156250000e+001,3.0853794176e+000,3.6205619609e+000,2.7726057533e+000,3.1182163463e+000,3.1056050060e+000,3.9133570803e+000,2.8102126798e+000,3.4685565410e+000,3.3690407580e+000,3.6102892051e+000,3.1796801803e+000,3.5680481667e+000,7.1854296239e+000,3.7523099543e+000,
3.8250000000e+001,3.4792107034e+000,3.7965052474e+000,3.0625097962e+000,3.2941264369e+000,3.3079285658e+000,4.1398430140e+000,2.8494595757e+000,3.6878957456e+000,3.3165272949e+000,3.8832135841e+000,3.2578184710e+000,3.7060422021e+000,7.1339860584e+000,3.7887209016e+000,
3.8343750000e+001,3.6905144819e+000,4.0061684002e+000,3.2034264811e+000,3.3146997750e+000,3.4216597094e+000,4.0894690452e+000,2.9221788350e+000,3.7171373893e+000,3.2358003229e+000,3.8358351918e+000,3.2293681294e+000,3.5157523299e+000,6.9709776314e+000,3.7023872552e+000,
3.8437500000e+001,3.6271490676e+000,3.9724440522e+000,3.1817872734e+000,3.2782365852e+000,3.4234263497e+000,4.0753743720e+000,2.9591329225e+000,3.6802627611e+000,3.2914058849e+000,3.8794071598e+000,3.1764874810e+000,3.5182543073e+000,6.9684211631e+000,3.6328575619e+000,
3.8531250000e+001,3.6780138457e+000,4.0329303140e+000,3.1563029838e+000,3.2548835296e+000,3.5090762514e+000,4.0655752684e+000,3.0128851494e+000,3.6669882509e+000,3.1001705718e+000,3.8843999833e+000,3.0007523984e+000,3.5527960919e+000,6.8793917771e+000,3.6225274906e+000,
3.8625000000e+001,3.7295336055e+000,4.0730713739e+000,3.1461166691e+000,3.2728434400e+000,3.5688578290e+000,4.0616735723e+000,3.0134555470e+000,3.6421126229e+000,3.0261402673e+000,3.9248594120e+000,3.0213391156e+000,3.5667379283e+000,6.7610393075e+000,3.5901210447e+000,
3.8718750000e+001,3.7511999435e+000,4.0571105094e+000,3.1055308976e+000,3.3011892499e+000,3.5952944694e+000,4.0348176115e+000,2.9766871090e+000,3.6203698644e+000,3.0864144963e+000,3.8975999547e+000,3.0153784814e+000,3.5621917587e+000,6.7572159869e+000,3.6793680166e+000,
3.8812500000e+001,3.7534260538e+000,4.0555842132e+000,3.0898748246e+000,3.3167010483e+000,3.6032130306e+000,3.9884744411e+000,2.8987640031e+000,3.6455363664e+000,3.0753314533e+000,3.8786941203e+000,3.0158629298e+000,3.5467650215e+000,6.7550966141e+000,3.7579258185e+000,
3.8906250000e+001,3.7320073599e+000,4.0506742055e+000,3.0584883997e+000,3.3183668382e+000,3.5703095011e+000,3.9943434142e+000,2.8650973313e+000,3.6737253318e+000,3.0786192166e+000,3.8937645154e+000,3.0120208100e+000,3.5269849384e+000,6.6888695129e+000,3.8151430721e+000,
3.9000000000e+001,3.7297688615e+000,3.9830658901e+000,3.0307774733e+000,3.2423258016e+000,3.5485480794e+000,3.9349442846e+000,2.7448505912e+000,3.6478476509e+000,3.0423213368e+000,3.8379526908e+000,2.9604577444e+000,3.5057014229e+000,6.5159712060e+000,3.8970338255e+000,
3.9093750000e+001,3.7040939730e+000,3.9754004385e+000,3.0069130235e+000,3.1847792299e+000,3.4913113982e+000,3.8555013403e+000,2.6843717407e+000,3.6712662643e+000,2.9435860125e+000,3.7617459323e+000,2.9797621627e+000,3.4702422011e+000,6.4194959311e+000,3.8617265732e+000,
3.9187500000e+001,3.5615845105e+000,3.8580307648e+000,2.9922666198e+000,3.1726787782e+000,3.2745514211e+000,3.8613197222e+000,2.6112480013e+000,3.7312610799e+000,2.9652032283e+000,3.8275469718e+000,2.8010085996e+000,3.6027235628e+000,6.4589169679e+000,3.9456857733e+000,
3.9281250000e+001,3.0050595029e+000,3.2918166565e+000,2.5016852122e+000,2.8411011787e+000,3.0074764990e+000,3.4643902612e+000,2.4490154431e+000,3.3894619071e+000,2.9938663265e+000,3.4284538329e+000,2.7919724451e+000,3.3407951147e+000,6.2601909737e+000,3.8214794531e+000,
3.9375000000e+001,3.0224918895e+000,3.1473343622e+000,2.4666153777e+000,2.9078355343e+000,2.9639090781e+000,3.4152517344e+000,2.4114458226e+000,3.3010914580e+000,3.0875778044e+000,3.3749068823e+000,2.8315921322e+000,3.4464672371e+000,6.3780579697e+000,3.8478386249e+000,
3.9468750000e+001,3.0129407455e+000,3.1237714146e+000,2.4621942892e+000,2.9518613142e+000,2.9908150670e+000,3.4169262393e+000,2.3810343154e+000,3.3114130544e+000,3.1747924503e+000,3.4143402727e+000,2.8419132295e+000,3.5003984182e+000,6.4708687088e+000,3.9118647596e+000,
3.9562500000e+001,2.9306138868e+000,2.9306089004e+000,2.4665481212e+000,2.9182877364e+000,2.8475660867e+000,3.3776825546e+000,2.2773684047e+000,3.3343361847e+000,3.2764604465e+000,3.3994590497e+000,2.8954230930e+000,3.5487205626e+000,6.4975306038e+000,3.9434657851e+000,
3.9656250000e+001,2.7363613760e+000,3.6874474789e+000,2.4946395231e+000,2.8312034434e+000,2.6950322135e+000,3.3523497069e+000,2.2767105330e+000,3.4136496985e+000,3.2621542430e+000,3.3699948898e+000,2.9007907638e+000,3.5805160213e+000,6.7217593370e+000,3.9391176797e+000,
3.9750000000e+001,2.7797459449e+000,3.8187947075e+000,2.4802187205e+000,2.7343361601e+000,2.5810366423e+000,3.4267678435e+000,2.3522436961e+000,3.4566905124e+000,3.2926310950e+000,3.4063711398e+000,2.8842109852e+000,3.6074564668e+000,6.7656181397e+000,3.8002562308e+000,
3.9843750000e+001,2.8337343013e+000,3.8403239402e+000,2.5076164339e+000,2.7706272317e+000,2.5644616391e+000,3.4994228492e+000,2.6352862247e+000,3.5199397603e+000,3.2560971931e+000,3.4061456106e+000,3.0061136644e+000,3.6865376259e+000,6.8487947269e+000,3.7923991376e+000,
3.9937500000e+001,2.8985817254e+000,3.8948436550e+000,2.5762395411e+000,2.8203898237e+000,2.6025179850e+000,3.4286320866e+000,2.7464545636e+000,3.5672282622e+000,3.3125015485e+000,3.3462214238e+000,2.9379263960e+000,3.6087758329e+000,6.9376832867e+000,3.6648214047e+000,
4.0031250000e+001,2.9999561595e+000,3.9202996052e+000,2.6333212385e+000,2.8808554908e+000,2.6951878115e+000,3.4969235148e+000,2.8017769860e+000,3.5966330402e+000,3.3546586635e+000,3.3803337027e+000,2.9460764415e+000,3.6737508953e+000,6.9432106973e+000,3.6145647140e+000,
4.0125000000e+001,3.1359543904e+000,3.9512810986e+000,2.6069226069e+000,2.9253759720e+000,2.8971318361e+000,3.6578827565e+000,2.7777969974e+000,3.6321847228e+000,3.4441432168e+000,3.4982993375e+000,2.8638797108e+000,3.7928813739e+000,6.9472895511e+000,3.6846929808e+000,
4.0218750000e+001,3.2611554674e+000,4.0578792887e+000,2.7007841220e+000,3.1058752397e+000,3.1371154464e+000,3.6609764563e+000,2.9891079449e+000,3.6233238491e+000,3.4862117879e+000,3.4812636971e+000,2.8504504631e+000,3.6951711693e+000,6.9753936102e+000,3.6002886789e+000,
4.0312500000e+001,3.1941860966e+000,4.0340937299e+000,2.7027499071e+000,3.0064594627e+000,3.1573613019e+000,3.6514013725e+000,3.0047982919e+000,3.6339467182e+000,3.4397217998e+000,3.3823507719e+000,2.8087766785e+000,3.6156108425e+000,7.0082699143e+000,3.5169818906e+000,
4.0406250000e+001,3.2443266451e+000,4.0554600490e+000,2.7338054399e+000,2.9941410291e+000,3.2047782962e+000,3.6796247121e+000,3.1519776949e+000,3.6926815164e+000,3.3997710846e+000,3.4829410209e+000,2.8525670792e+000,3.6765320672e+000,7.0132820767e+000,3.6146412498e+000,
4.0500000000e+001,3.2168799458e+000,4.2006143455e+000,2.8253692708e+000,3.0983725003e+000,3.1194544264e+000,3.7842785444e+000,3.1448286727e+000,3.6814949060e+000,3.4515231648e+000,3.4222526666e+000,2.8610679685e+000,3.5808468970e+000,7.0915569639e+000,3.4090794680e+000,
4.0593750000e+001,3.4813441038e+000,4.4261489703e+000,2.8706374525e+000,3.1562438245e+000,3.4796644956e+000,3.8139292097e+000,3.2052907407e+000,3.7145175146e+000,3.4739544124e+000,3.3995157619e+000,2.8817180662e+000,3.7526700291e+000,6.9394925121e+000,3.6942717010e+000,
4.0687500000e+001,3.7730271089e+000,4.0623555227e+000,2.9523699397e+000,3.1458812906e+000,3.7969717033e+000,3.7847203151e+000,3.2001203663e+000,3.6686783679e+000,3.5435452175e+000,3.3689893216e+000,2.8465047983e+000,3.7492080727e+000,6.8181349664e+000,3.7241069726e+000,
4.0781250000e+001,3.9077596827e+000,4.1100470342e+000,3.0209897924e+000,3.2414061219e+000,3.8916195757e+000,3.8607419158e+000,3.2151865409e+000,3.7369743664e+000,3.5189449643e+000,3.3707868881e+000,2.8251733034e+000,3.7354618843e+000,6.8307544833e+000,3.7505477224e+000,
4.0875000000e+001,3.9247244959e+000,4.0765336028e+000,3.0011564100e+000,3.1477224698e+000,3.8820456465e+000,3.8183773218e+000,3.1538129620e+000,3.6254268379e+000,3.4833646400e+000,3.3859259638e+000,2.7258170629e+000,3.7843972453e+000,6.7970100613e+000,3.7665142728e+000,
4.0968750000e+001,3.9163365927e+000,4.1179334115e+000,2.9427638209e+000,3.0399455897e+000,3.8620564746e+000,3.7940518741e+000,3.1042060047e+000,3.5233801240e+000,3.3331438566e+000,3.3314298313e+000,2.7134950739e+000,3.7358626161e+000,6.6292414899e+000,3.7009028504e+000,
4.1062500000e+001,3.8797663116e+000,4.1479864882e+000,2.9502746080e+000,3.0892819794e+000,3.8146910337e+000,3.8059820390e+000,3.0918117273e+000,3.5294156819e+000,3.3483815983e+000,3.4112312960e+000,2.8177214222e+000,3.6829543040e+000,6.7564332457e+000,3.7247330755e+000,
4.1156250000e+001,3.9242270049e+000,4.1585845801e+000,2.9827951007e+000,3.1337283130e+000,3.8420920463e+000,3.8340766434e+000,3.0469638899e+000,3.5703822090e+000,3.5507456823e+000,3.5346904676e+000,2.9172704258e+000,3.9254277677e+000,6.8548842731e+000,3.9660088214e+000,
