Time (s),AF3,AF4,F3,F4,F7,F8,FC5,FC6,T7,T8,P7,P8,O1,O2,Sampling Rate
0.0000000000e+000,3.3523675029e+000,3.7576239956e+000,2.9025834022e+000,3.5911020440e+000,5.0800827106e+000,5.0226776673e+000,3.0483830374e+000,4.6848944110e+000,5.6012590812e+000,5.4964994507e+000,2.7546208658e+000,3.0819912605e+000,2.7248066987e+000,2.7248284472e+000,1
9.3750000000e-002,3.3249311595e+000,3.7252675414e+000,2.9005642783e+000,3.5861663390e+000,5.0029417283e+000,4.9237434819e+000,2.9228299404e+000,4.6846768726e+000,5.6692297612e+000,5.4358428698e+000,2.7139224551e+000,3.0353238993e+000,2.4876154356e+000,2.6912540545e+000,
1.8750000000e-001,3.1569652085e+000,3.5787033766e+000,2.9000632813e+000,3.4590156429e+000,4.9977482349e+000,4.8744194318e+000,2.8979690542e+000,4.6459868187e+000,5.8323100971e+000,5.3963518659e+000,2.7619611549e+000,2.8396997565e+000,2.5261265914e+000,2.6288869002e+000,
2.8125000000e-001,3.1693413970e+000,3.5750998992e+000,2.9340143792e+000,3.3979918434e+000,5.0005665367e+000,4.8146838688e+000,3.1055458671e+000,4.5939131076e+000,5.8197762820e+000,5.3245639521e+000,2.7569955342e+000,2.8810924167e+000,2.4897026071e+000,2.6559186674e+000,
3.7500000000e-001,3.1735335397e+000,3.5393167689e+000,2.9739776074e+000,3.3901694775e+000,5.0351734964e+000,4.8435824698e+000,3.1822066553e+000,4.5651805785e+000,6.0214422405e+000,5.4073671864e+000,2.7345265682e+000,2.9392689500e+000,2.6210752513e+000,2.5978303709e+000,
4.6875000000e-001,3.1878408017e+000,3.5147713793e+000,3.0203325642e+000,3.3888125567e+000,5.0517871050e+000,4.8401233041e+000,3.1904583693e+000,4.5791491258e+000,5.9987006212e+000,5.4937199016e+000,2.6681625625e+000,2.8956837736e+000,2.6757290733e+000,2.5720482863e+000,
5.6250000000e-001,3.3476909257e+000,3.7180328932e+000,3.2252844460e+000,3.4724615849e+000,5.1591515709e+000,4.9181745211e+000,3.2168092445e+000,4.6277040273e+000,6.0336925421e+000,5.4993875930e+000,2.6542732487e+000,2.8713608899e+000,2.5057769017e+000,2.5894620803e+000,
6.5625000000e-001,3.3370835645e+000,3.6758539685e+000,3.2422444765e+000,3.4687324076e+000,5.1857672967e+000,4.7759507464e+000,3.1551266102e+000,4.6043867746e+000,6.0497870966e+000,5.5106257000e+000,2.5933672279e+000,3.0219177734e+000,2.4311688426e+000,2.5934200121e+000,
7.5000000000e-001,3.3759119003e+000,3.8036950147e+000,3.2553080095e+000,3.5418066085e+000,5.1479045110e+000,4.7619133363e+000,3.1677734244e+000,4.6366552315e+000,6.0906310704e+000,5.5598026224e+000,2.4594986216e+000,3.0165407267e+000,2.3440566409e+000,2.4732401536e+000,
8.4375000000e-001,3.5433834198e+000,3.8981982901e+000,3.4165809854e+000,3.5605132596e+000,5.3749386463e+000,4.7066308536e+000,3.2202344877e+000,4.5383543404e+000,6.1193707695e+000,5.4789632120e+000,2.4941701813e+000,3.0525226052e+000,2.4171019509e+000,2.3799459245e+000,
9.3750000000e-001,3.5506483021e+000,3.9734938854e+000,3.4629964034e+000,3.5626886953e+000,5.3795255096e+000,4.7656908408e+000,3.3754249506e+000,4.5763363367e+000,6.1765798846e+000,5.5044594485e+000,2.4715486341e+000,2.9686623572e+000,2.4852856527e+000,2.2836109603e+000,
1.0312500000e+000,3.6224925907e+000,4.0064551462e+000,3.5317823612e+000,3.5541838898e+000,5.4096538995e+000,4.8072509737e+000,3.4079956335e+000,4.6295366064e+000,6.2334204077e+000,5.4514832021e+000,2.5015906485e+000,3.0476822884e+000,2.6411671628e+000,2.3690475944e+000,
1.1250000000e+000,3.5814865778e+000,4.0184123850e+000,3.5728030953e+000,3.5463346268e+000,5.3556198027e+000,4.8343002139e+000,3.5001044646e+000,4.5506246382e+000,6.2411457071e+000,5.4299206400e+000,2.3624085866e+000,3.1556549260e+000,2.7004169755e+000,2.4541065017e+000,
1.2187500000e+000,3.6063189890e+000,3.9664911816e+000,3.5520538178e+000,3.4716452072e+000,5.3513738796e+000,4.8515444599e+000,3.4750274401e+000,4.2651540808e+000,6.2142375241e+000,5.5121877065e+000,2.2386479027e+000,3.2167575006e+000,2.7331657606e+000,2.4049705559e+000,
1.3125000000e+000,3.6394946077e+000,3.9830439282e+000,3.5070889191e+000,3.5062280913e+000,5.4420011813e+000,4.8977994221e+000,3.4627238518e+000,4.3615613472e+000,6.1396992230e+000,5.5469836123e+000,2.1193117649e+000,3.2506827856e+000,2.6830350887e+000,2.4446278691e+000,
1.4062500000e+000,3.6303930725e+000,3.9835055245e+000,3.4661807210e+000,3.4373513425e+000,5.4065238945e+000,4.8552996228e+000,3.4728801305e+000,4.4221082491e+000,6.0605674817e+000,5.5108328111e+000,2.3105332855e+000,3.3297318820e+000,2.8628976796e+000,2.7297107453e+000,
1.5000000000e+000,3.6257219125e+000,3.9969644329e+000,3.4074310352e+000,3.4172885898e+000,5.4918413337e+000,4.9696574113e+000,3.4466187499e+000,4.4507023202e+000,6.0815121359e+000,5.4881718764e+000,2.3697360841e+000,3.3993939059e+000,2.8542985349e+000,2.8707609321e+000,
1.5937500000e+000,3.5098367918e+000,3.8444813105e+000,3.2799407508e+000,3.3055265397e+000,5.4732559693e+000,5.0861748904e+000,3.5155920551e+000,4.4585237274e+000,6.0300440882e+000,5.4405612669e+000,2.3893638936e+000,3.3959871426e+000,2.9348275226e+000,2.9135442418e+000,
1.6875000000e+000,3.6775537432e+000,3.9673552725e+000,3.4507074919e+000,3.4073414230e+000,5.6450039287e+000,5.2012927575e+000,3.5216887534e+000,4.4964009609e+000,5.9151394936e+000,5.4912239640e+000,2.4760230824e+000,3.3761449037e+000,3.0461626854e+000,2.9138415648e+000,
1.7812500000e+000,3.5698816642e+000,3.8036726197e+000,3.3549307440e+000,3.3437107892e+000,5.5641642157e+000,5.2370471796e+000,3.5027147784e+000,4.4587910341e+000,5.9132074885e+000,5.4828343857e+000,2.4884279449e+000,3.3647433317e+000,3.0861795038e+000,2.9437785496e+000,
1.8750000000e+000,3.4906595075e+000,3.7306390497e+000,3.2139058697e+000,3.3115441183e+000,5.4565823012e+000,5.2990136742e+000,3.3661668720e+000,4.5494079523e+000,5.9153974379e+000,5.3759698851e+000,2.3575412119e+000,3.3218805547e+000,3.0608726530e+000,2.9660931662e+000,
1.9687500000e+000,3.5025331339e+000,3.6863268250e+000,3.2550891768e+000,3.3645184996e+000,5.4098756910e+000,5.3376476451e+000,3.3174205273e+000,4.5605950619e+000,5.7980602564e+000,5.3964466540e+000,2.3724406419e+000,3.2934470068e+000,3.0400421797e+000,3.0390873205e+000,
2.0625000000e+000,3.5416027522e+000,3.7499506592e+000,3.2167069354e+000,3.3900276566e+000,5.4029098835e+000,5.2840818337e+000,3.2905165715e+000,4.5393265457e+000,5.7253041921e+000,5.4733087212e+000,2.3562768167e+000,3.3841228695e+000,3.0821732179e+000,3.0540130816e+000,
2.1562500000e+000,3.5824430915e+000,3.8046239972e+000,3.2016909934e+000,3.4626852417e+000,5.4253617648e+000,5.3260245739e+000,3.2239187667e+000,4.6512132624e+000,5.6580874297e+000,5.4914048216e+000,2.3197838210e+000,3.3142288672e+000,3.0435349405e+000,3.0956756385e+000,
2.2500000000e+000,3.5602867938e+000,3.8048841147e+000,3.1665065840e+000,3.4667869056e+000,5.3909434181e+000,5.2726808100e+000,3.1308595127e+000,4.6696829726e+000,5.7143772427e+000,5.5566202001e+000,2.3249928724e+000,3.2253515484e+000,2.9910642083e+000,3.0731115846e+000,
2.3437500000e+000,3.5258023749e+000,3.7955521353e+000,3.1424615423e+000,3.3999468118e+000,5.3525261712e+000,5.2730872489e+000,3.1127169633e+000,4.6978906596e+000,5.8329408862e+000,5.5001507827e+000,2.2451990957e+000,3.0918621797e+000,2.9184344658e+000,2.9928371370e+000,
2.4375000000e+000,3.4978862391e+000,3.7385470473e+000,3.1202232795e+000,3.4495899834e+000,5.3107444038e+000,5.2105880019e+000,3.1810303570e+000,4.6509805496e+000,5.8833933720e+000,5.4826686878e+000,2.1935217854e+000,3.1541223266e+000,2.8646919450e+000,2.9624296346e+000,
2.5312500000e+000,3.4685974183e+000,3.7262671382e+000,3.1389764605e+000,3.3618357258e+000,5.2047483054e+000,5.1486823375e+000,3.2735713947e+000,4.6398490924e+000,5.8407642931e+000,5.4386386525e+000,2.2572799659e+000,3.0762081703e+000,2.8654842741e+000,2.8212402488e+000,
2.6250000000e+000,3.4193553184e+000,3.7491607422e+000,3.1253379811e+000,3.3498945279e+000,5.1512724410e+000,5.0570162516e+000,3.2537839716e+000,4.6216292010e+000,5.7404804899e+000,5.4255734746e+000,2.3560327879e+000,3.0529465602e+000,2.8264561839e+000,2.7243268776e+000,
2.7187500000e+000,3.2053771626e+000,3.5937225747e+000,2.8589473697e+000,3.2222832873e+000,4.8505809950e+000,5.0038969713e+000,3.2060757148e+000,4.6237998904e+000,5.7733967060e+000,5.3852920636e+000,2.2585744000e+000,3.0241465135e+000,2.7691602914e+000,2.6944699148e+000,
2.8125000000e+000,3.3110772760e+000,3.7471765442e+000,2.9705317367e+000,3.3128457618e+000,4.9925584527e+000,5.1019064135e+000,3.2999788980e+000,4.6253707981e+000,5.7010032414e+000,5.3940529178e+000,2.2950143682e+000,3.1288982361e+000,2.8229395264e+000,2.7336148157e+000,
2.9062500000e+000,3.2302813509e+000,3.6729916609e+000,2.9173081217e+000,3.2309556681e+000,4.9397617479e+000,5.0912770027e+000,3.3277271661e+000,4.5581861267e+000,5.7569743613e+000,5.4345568502e+000,2.2178418540e+000,3.2635247996e+000,2.8221775723e+000,2.8042577546e+000,
3.0000000000e+000,3.3504467780e+000,3.7863881609e+000,3.0065202359e+000,3.3160279883e+000,4.9748911980e+000,5.1676796668e+000,3.3422784421e+000,4.5385022921e+000,5.7658793622e+000,5.3384277680e+000,2.3430693938e+000,3.3875647056e+000,2.7738415643e+000,2.8207809074e+000,
3.0937500000e+000,3.3231854327e+000,3.8366662163e+000,2.9668232468e+000,3.3557914101e+000,4.9829740633e+000,5.2287216622e+000,3.2802209004e+000,4.5358486414e+000,5.8179295512e+000,5.3772306357e+000,2.5107979282e+000,3.3819002998e+000,2.9553073878e+000,3.0750887550e+000,
3.1875000000e+000,3.1634051461e+000,3.8133168077e+000,2.8963080763e+000,3.2963240226e+000,4.9452521908e+000,5.2079121551e+000,3.2855918297e+000,4.3909176800e+000,5.9278209571e+000,5.2150080398e+000,2.6058348298e+000,3.3149206462e+000,2.9293066675e+000,3.0968332963e+000,
3.2812500000e+000,3.1471360794e+000,3.7833420925e+000,2.9684299454e+000,3.3233288495e+000,4.8631271077e+000,5.1473385866e+000,3.2549386791e+000,4.3904196740e+000,5.9234522019e+000,5.3322642361e+000,2.6620409363e+000,3.3490943973e+000,2.9655072620e+000,3.1898099386e+000,
3.3750000000e+000,3.3665141394e+000,3.8916718236e+000,3.0737691854e+000,3.3759790802e+000,5.0396643034e+000,5.2414465467e+000,3.2036381573e+000,4.4533424218e+000,5.8228435572e+000,5.3423420137e+000,2.7245494742e+000,3.3922455234e+000,3.0256189803e+000,3.1851800296e+000,
3.4687500000e+000,3.3930964441e+000,3.9218691370e+000,3.0326205559e+000,3.4004736835e+000,5.0750069524e+000,5.3970484211e+000,2.9113653483e+000,4.4818083970e+000,5.9067337709e+000,5.3627321605e+000,2.7935693564e+000,3.3702059569e+000,3.0635258710e+000,3.1422575731e+000,
3.5625000000e+000,3.5361342425e+000,4.0665275607e+000,3.1969765412e+000,3.5183234212e+000,5.1432182127e+000,5.4340690148e+000,2.8138805454e+000,4.4817130645e+000,5.9143169520e+000,5.4350326904e+000,2.7408437331e+000,3.4452660259e+000,3.0722613901e+000,3.2308518844e+000,
3.6562500000e+000,3.6206703141e+000,4.0926730663e+000,3.2732686629e+000,3.5333733157e+000,5.1956279190e+000,5.4775104998e+000,2.8920680622e+000,4.4781059475e+000,6.1269342714e+000,5.4293479627e+000,2.8117113036e+000,3.6103551501e+000,3.0628586459e+000,3.3302014952e+000,
3.7500000000e+000,3.7658062387e+000,4.2441343308e+000,3.4268560913e+000,3.6678243041e+000,5.2855731254e+000,5.5444955869e+000,2.9099798395e+000,4.4771332517e+000,6.2141428526e+000,5.4794121412e+000,2.8299720941e+000,3.6052330730e+000,3.0509678661e+000,3.4408035311e+000,
3.8437500000e+000,3.7782138858e+000,4.2031656613e+000,3.3642953459e+000,3.6170018162e+000,5.3118853117e+000,5.4702529868e+000,2.8808411934e+000,4.4443663400e+000,6.2457571420e+000,5.4732768775e+000,2.8005780648e+000,3.5700596370e+000,2.9560401197e+000,3.4400050231e+000,
3.9375000000e+000,3.7912821483e+000,4.2003214089e+000,3.4022758650e+000,3.6075531291e+000,5.3313008727e+000,5.4569897155e+000,2.9219556164e+000,4.4571510720e+000,6.2217711063e+000,5.4847935474e+000,2.8316788676e+000,3.4345306417e+000,2.9791360172e+000,3.3929464897e+000,
4.0312500000e+000,3.8014948490e+000,4.1985438305e+000,3.4376104765e+000,3.6825137958e+000,5.3998001954e+000,5.4148479409e+000,2.9981939149e+000,4.5086108953e+000,6.2043086794e+000,5.4817070628e+000,2.7298238929e+000,3.3287959435e+000,2.7931833052e+000,3.2468690597e+000,
4.1250000000e+000,3.8993523613e+000,4.1978960658e+000,3.4703832774e+000,3.6067769146e+000,5.4658518258e+000,5.4418911814e+000,3.0701440549e+000,4.4614806304e+000,6.2561997680e+000,5.5899047679e+000,2.7059366506e+000,3.3834957172e+000,2.7164497918e+000,3.1705739164e+000,
4.2187500000e+000,3.9500611904e+000,4.1850871428e+000,3.4935856972e+000,3.6095567019e+000,5.5078418296e+000,5.4292118194e+000,3.0844177292e+000,4.4411219224e+000,6.1578136813e+000,5.6545323640e+000,2.6699374170e+000,3.3962199299e+000,2.7419076790e+000,3.1947884745e+000,
4.3125000000e+000,3.9195391827e+000,4.1770968322e+000,3.4324466055e+000,3.5811580667e+000,5.5181553646e+000,5.4629202073e+000,3.0743048144e+000,4.4676382921e+000,6.1818631656e+000,5.5615198241e+000,2.6557692028e+000,3.3741738601e+000,2.6768761069e+000,3.1339225905e+000,
4.4062500000e+000,3.8539844376e+000,4.1571499276e+000,3.3789302571e+000,3.5282016964e+000,5.4067612306e+000,5.4366497168e+000,3.1980235756e+000,4.4255864677e+000,6.2453989331e+000,5.5109161877e+000,2.5610916198e+000,3.3372079310e+000,2.6786484077e+000,3.1800288055e+000,
4.5000000000e+000,3.8239011915e+000,4.1236367419e+000,3.4079713248e+000,3.4050124748e+000,5.5942029383e+000,5.2668330633e+000,3.4165259254e+000,4.3984019668e+000,6.2283041210e+000,5.4850825163e+000,2.6095424815e+000,3.3986502496e+000,2.6814513498e+000,3.1409296902e+000,
4.5937500000e+000,3.7479090494e+000,4.0325689812e+000,3.3330635597e+000,3.3993582523e+000,5.5493009738e+000,5.2459490258e+000,3.4897881679e+000,4.4025919360e+000,6.1971330751e+000,5.5207538646e+000,2.6222288986e+000,3.2645014244e+000,2.6448255959e+000,2.9595695298e+000,
4.6875000000e+000,3.6930653848e+000,3.9575608277e+000,3.2045491910e+000,3.3055220305e+000,5.4998326160e+000,5.2231061467e+000,3.4135109154e+000,4.4330518693e+000,6.0582825559e+000,5.5604365456e+000,2.5316603411e+000,3.1095709942e+000,2.6139779095e+000,2.8847319162e+000,
4.7812500000e+000,3.7936952284e+000,3.9370738988e+000,3.3818662935e+000,3.3318192938e+000,5.8000505964e+000,5.1687524501e+000,3.5815609105e+000,4.3223873964e+000,5.9622242852e+000,5.5175318954e+000,2.6683253145e+000,3.2217765510e+000,2.7158427063e+000,2.8383472571e+000,
4.8750000000e+000,3.8191160723e+000,4.0200406814e+000,3.4324432458e+000,3.3469431297e+000,5.8515122869e+000,5.2355457061e+000,3.6241223600e+000,4.4844182965e+000,5.9671671602e+000,5.5772729791e+000,2.6496105916e+000,3.2117512749e+000,2.6959072912e+000,2.7058061038e+000,
4.9687500000e+000,3.6769864412e+000,3.9443596271e+000,3.3118638794e+000,3.2910948383e+000,5.7887937818e+000,5.2794679106e+000,3.6298725737e+000,4.5109334389e+000,6.0529038609e+000,5.6068588588e+000,2.5928554161e+000,3.2104841956e+000,2.7173981603e+000,2.7249594309e+000,
5.0625000000e+000,3.7442553255e+000,3.9308038315e+000,3.2712133333e+000,3.2007863135e+000,5.8518003076e+000,5.3312184848e+000,3.6593562485e+000,4.4998918663e+000,6.1200604794e+000,5.5108704402e+000,2.6517096789e+000,3.1684173851e+000,2.7676867505e+000,2.8058068771e+000,
5.1562500000e+000,3.7308338356e+000,3.8857658927e+000,3.3041995305e+000,3.2513234652e+000,5.8404880146e+000,5.3080986348e+000,3.6795177642e+000,4.5572918290e+000,6.0525742457e+000,5.4213833196e+000,2.5551215902e+000,3.0662356673e+000,2.7121327835e+000,2.7706545801e+000,
5.2500000000e+000,3.7384518365e+000,3.8915724837e+000,3.3042863087e+000,3.2683394362e+000,5.9291481751e+000,5.3118997026e+000,3.7245569098e+000,4.6027949889e+000,6.0312972796e+000,5.4472430408e+000,2.6416819111e+000,3.1189737412e+000,2.7556967616e+000,2.7292059559e+000,
5.3437500000e+000,3.7814166319e+000,3.8657690657e+000,3.3087802524e+000,3.1799732530e+000,5.9368488481e+000,5.3090356621e+000,3.7190477784e+000,4.6003618243e+000,5.9659556329e+000,5.5442032649e+000,2.6428169308e+000,3.1814661338e+000,2.7565256600e+000,2.7204108268e+000,
5.4375000000e+000,3.8137811328e+000,3.8404600008e+000,3.4122504193e+000,3.2971841189e+000,6.0098262470e+000,5.2902585143e+000,3.6911627650e+000,4.6571447608e+000,5.9407784270e+000,5.5335459755e+000,2.5901418373e+000,3.1607093158e+000,2.6426802056e+000,2.6066750949e+000,
5.5312500000e+000,3.7966980279e+000,3.8219729644e+000,3.3931394168e+000,3.3152844298e+000,5.9888637472e+000,5.2827329853e+000,3.5947951042e+000,4.6320732312e+000,6.0839572303e+000,5.5897683475e+000,2.5484832352e+000,3.2840994681e+000,2.7266153520e+000,2.7291755280e+000,
5.6250000000e+000,3.7533935245e+000,3.8535125576e+000,3.3715884839e+000,3.3200655118e+000,5.9674902235e+000,5.2589797087e+000,3.5730369334e+000,4.6892945930e+000,6.0457790148e+000,5.5817405169e+000,2.5497244087e+000,3.3428102345e+000,2.8419032804e+000,2.8125073560e+000,
5.7187500000e+000,3.8089257206e+000,3.9548499692e+000,3.4273059334e+000,3.4176533053e+000,5.9543303409e+000,5.3341385161e+000,3.6310991499e+000,4.7549786611e+000,6.0974652946e+000,5.5655791782e+000,2.5513545972e+000,3.3769681380e+000,2.8620357493e+000,2.8482948365e+000,
5.8125000000e+000,3.7573483778e+000,3.9091027316e+000,3.3748773570e+000,3.4536280093e+000,5.7995275164e+000,5.2949539164e+000,3.4961413382e+000,4.8010839154e+000,6.1276415078e+000,5.5886043739e+000,2.6014714967e+000,3.3210470652e+000,2.7813852862e+000,2.8310857094e+000,
5.9062500000e+000,3.7852725720e+000,3.8799581705e+000,3.3756563171e+000,3.5163823556e+000,5.7753664094e+000,5.1613179747e+000,3.4313150130e+000,4.7537929812e+000,6.0438892732e+000,5.5652726950e+000,2.6565325683e+000,3.3624738632e+000,2.7679099123e+000,2.8484352940e+000,
6.0000000000e+000,3.9272179126e+000,3.9949859963e+000,3.4598423704e+000,3.5562399952e+000,5.8040888893e+000,5.1929457375e+000,3.3792800784e+000,4.7422453054e+000,5.9806036884e+000,5.5532514061e+000,2.6434468591e+000,3.3760216607e+000,2.6955756104e+000,2.8948055567e+000,
6.0937500000e+000,3.9027504340e+000,4.0205787507e+000,3.4956681118e+000,3.5972828395e+000,5.7687062198e+000,5.1630869425e+000,3.3450168664e+000,4.7318212207e+000,5.8984162787e+000,5.5981264822e+000,2.6901352435e+000,3.4350053023e+000,2.6949250546e+000,2.8176141598e+000,
6.1875000000e+000,3.8212603165e+000,4.0363755326e+000,3.4837403311e+000,3.6139304284e+000,5.6925495882e+000,5.1704666933e+000,3.3369546059e+000,4.8168812448e+000,5.9133025832e+000,5.7139199355e+000,2.8452949024e+000,3.4554106060e+000,2.8049209249e+000,2.8581258671e+000,
6.2812500000e+000,3.8227424113e+000,4.0135590322e+000,3.5159847425e+000,3.6506085355e+000,5.6842960578e+000,5.0860463561e+000,3.2973103910e+000,4.7984724332e+000,5.9938574804e+000,5.6110062765e+000,2.8017767004e+000,3.4488462914e+000,2.7647145178e+000,2.8295223627e+000,
6.3750000000e+000,3.8456591457e+000,4.0005870596e+000,3.5105820864e+000,3.6600288401e+000,5.6785441239e+000,5.0748194910e+000,3.2447354717e+000,4.7488588666e+000,5.9910788411e+000,5.5477944508e+000,2.7946079607e+000,3.4361238469e+000,2.7014828305e+000,2.8877437865e+000,
6.4687500000e+000,3.7917385134e+000,3.9691759591e+000,3.4309192889e+000,3.6748870417e+000,5.6204692727e+000,5.0516440104e+000,3.2282176458e+000,4.7533235685e+000,5.9076132197e+000,5.5440832524e+000,2.8335387822e+000,3.5057650784e+000,2.7752909932e+000,3.0119482164e+000,
6.5625000000e+000,3.8145888577e+000,4.0907133788e+000,3.4475599908e+000,3.7177059883e+000,5.4987180928e+000,5.1098932594e+000,3.2166511655e+000,4.8080511325e+000,5.9245467932e+000,5.5261469225e+000,2.8332475030e+000,3.4255640851e+000,2.7799425193e+000,3.1213553378e+000,
6.6562500000e+000,4.0590602228e+000,4.8644796007e+000,3.4351835595e+000,9.8377194637e+000,5.5588339003e+000,4.9987817330e+000,3.2883684833e+000,5.4723592829e+000,6.0113009633e+000,5.5658860170e+000,2.7822262944e+000,3.4922053003e+000,2.9552608419e+000,3.4327587201e+000,
6.7500000000e+000,4.2625941169e+000,5.9006358428e+000,3.3048549600e+000,1.1243463271e+001,5.5208828517e+000,4.9632307647e+000,3.3875333754e+000,6.4398944235e+000,6.0199843239e+000,5.4033923658e+000,2.7140674643e+000,3.5469562739e+000,3.0116803155e+000,3.5960827383e+000,
6.8437500000e+000,4.3030596640e+000,5.9361512215e+000,3.2217883695e+000,1.1348344006e+001,5.4820308972e+000,5.0034965852e+000,3.3655118839e+000,6.4908330284e+000,6.0604560701e+000,5.4821814021e+000,2.5984539224e+000,3.4643237891e+000,3.0427202636e+000,3.6441440328e+000,
6.9375000000e+000,4.2316829907e+000,5.9365019412e+000,3.2660804293e+000,1.1349756794e+001,5.4333863583e+000,5.0268017379e+000,3.3864755957e+000,6.5168825745e+000,6.1400180259e+000,5.4099612553e+000,2.5733472624e+000,3.4046278480e+000,3.0702252465e+000,3.6582665586e+000,
7.0312500000e+000,4.1860951893e+000,5.9218954925e+000,3.1839019044e+000,1.1350127066e+001,5.3076449524e+000,4.8169337333e+000,3.3550571419e+000,6.5040907309e+000,6.1615275829e+000,5.3823621834e+000,2.5490225398e+000,3.3824053763e+000,3.0653720214e+000,3.6468976302e+000,
7.1250000000e+000,4.1465780191e+000,5.9101795693e+000,3.0851017217e+000,1.1350826575e+001,5.2425488886e+000,4.7820118616e+000,3.3248961939e+000,6.4984290236e+000,6.2888836984e+000,5.4520109815e+000,2.4296518847e+000,3.4273613492e+000,3.0030534035e+000,3.6553682171e+000,
7.2187500000e+000,4.1829100868e+000,5.9067879427e+000,3.0184047135e+000,1.1350935826e+001,5.1445028557e+000,4.7208344448e+000,3.2922214792e+000,6.4807256743e+000,6.2300315435e+000,5.3818434263e+000,2.2485398529e+000,3.3617385369e+000,2.9769890721e+000,3.6317833659e+000,
7.3125000000e+000,4.2415555505e+000,5.9167329152e+000,3.0459343207e+000,1.1350964139e+001,5.2007980293e+000,4.8193224604e+000,3.3031023272e+000,6.4729284698e+000,6.1821076171e+000,5.3720862248e+000,2.2842326825e+000,3.3587047830e+000,2.9509693370e+000,3.6963071262e+000,
7.4062500000e+000,4.2128973190e+000,5.9209606525e+000,3.0679869332e+000,1.1350990668e+001,5.1273445664e+000,4.8103846485e+000,3.1764746779e+000,6.5010889576e+000,6.2559366290e+000,5.3879080745e+000,2.3301754932e+000,3.4313422436e+000,2.9968775319e+000,3.7034065001e+000,
7.5000000000e+000,4.1906232296e+000,5.9101463449e+000,3.0501006896e+000,1.1350972246e+001,5.0640609876e+000,4.7346599640e+000,3.2563929843e+000,6.4900673414e+000,6.2203023626e+000,5.4442250574e+000,2.4424221599e+000,3.4475315097e+000,2.9293675054e+000,3.6291135027e+000,
7.5937500000e+000,4.1644812001e+000,5.8990749979e+000,2.9308161405e+000,1.1345564472e+001,5.2851853515e+000,4.6110468201e+000,3.3575823605e+000,6.4923884629e+000,6.2564666765e+000,5.5137495598e+000,2.4724516652e+000,3.4007690714e+000,2.7678912748e+000,3.5157107889e+000,
7.6875000000e+000,3.8545655266e+000,5.2548209764e+000,2.9575683144e+000,1.0833115749e+001,5.2077859617e+000,4.7212932671e+000,3.1763409699e+000,5.9700143255e+000,6.3086988200e+000,5.5358251343e+000,2.4676195039e+000,3.3280727127e+000,2.5067824328e+000,3.1550835472e+000,
7.7812500000e+000,3.5778236027e+000,3.7079534113e+000,3.0485721527e+000,7.5013971788e+000,5.2858734295e+000,4.7880980611e+000,3.1221927604e+000,4.6656733746e+000,6.3451474045e+000,5.5861675077e+000,2.6516123219e+000,3.2551937242e+000,2.4769754610e+000,2.9567042907e+000,
7.8750000000e+000,3.5018753745e+000,4.0773971097e+000,3.0595888413e+000,5.5136890826e+000,5.2854775305e+000,4.7987906632e+000,3.0847990792e+000,4.5468437568e+000,6.2290214905e+000,5.5464323360e+000,2.6783118685e+000,3.3490392129e+000,2.4104023977e+000,2.9634958199e+000,
7.9687500000e+000,3.4771679546e+000,4.2525027747e+000,2.8118553410e+000,4.7022408116e+000,5.1979094358e+000,4.7979973549e+000,3.0174202654e+000,4.4473889651e+000,6.2496162073e+000,5.5690979039e+000,2.6528226584e+000,3.4018228466e+000,2.5085899074e+000,2.9779940280e+000,
8.0625000000e+000,3.5055035688e+000,4.4105203580e+000,2.7986105388e+000,4.2975370365e+000,5.2212670053e+000,4.8828157839e+000,2.9498121940e+000,4.5045272093e+000,6.2446035779e+000,5.5757220364e+000,2.6229477751e+000,3.2735758767e+000,2.4856924689e+000,2.9418040046e+000,
8.1562500000e+000,3.5224968495e+000,4.4444084893e+000,2.8669850178e+000,3.3641049871e+000,5.2643697951e+000,4.8963569301e+000,2.9074708374e+000,4.5398171258e+000,6.1344077761e+000,5.5825698502e+000,2.6152630186e+000,3.3741399489e+000,2.6591249294e+000,3.1012731914e+000,
8.2500000000e+000,3.4159812310e+000,4.4601946680e+000,2.9349825130e+000,3.2653346082e+000,5.1729222345e+000,4.9019676200e+000,2.9419086848e+000,4.5216930977e+000,6.1636134306e+000,5.5633206280e+000,2.6917773278e+000,3.4587084951e+000,2.6676078586e+000,3.0915660411e+000,
8.3437500000e+000,3.4227616806e+000,6.2370037712e+000,2.9125554340e+000,3.2092323616e+000,5.1621843952e+000,4.8072246818e+000,2.9121498363e+000,4.5629799305e+000,6.1729080935e+000,5.6006691377e+000,2.7852321511e+000,3.5633712744e+000,2.6865978694e+000,3.1829455526e+000,
8.4375000000e+000,3.4203295942e+000,8.8339376973e+000,2.8855309056e+000,3.0112955916e+000,5.1176469884e+000,4.9853658914e+000,2.9029051287e+000,4.4233130471e+000,6.0266738298e+000,5.5608547800e+000,2.7072087085e+000,3.4373627272e+000,2.6882447764e+000,3.1146081010e+000,
8.5312500000e+000,3.4287955952e+000,9.1543625875e+000,2.8754870420e+000,3.0297491498e+000,5.0318191691e+000,5.0186390435e+000,2.9333444886e+000,4.4746261968e+000,5.9602417003e+000,5.5504118176e+000,2.6546182958e+000,3.3883103931e+000,2.7197843263e+000,3.1883891833e+000,
8.6250000000e+000,3.4109566189e+000,9.1677170182e+000,2.8672015803e+000,3.1170362999e+000,4.7278220238e+000,5.0283832977e+000,2.9650602976e+000,4.4182364668e+000,5.8945038726e+000,5.5359402064e+000,2.6372785058e+000,3.4021633558e+000,2.7204428709e+000,3.2237311276e+000,
8.7187500000e+000,3.3075046842e+000,9.1677425419e+000,2.7572876230e+000,3.0497366186e+000,4.5340192488e+000,4.9657561666e+000,2.7574100193e+000,4.4671864194e+000,5.6560039804e+000,5.5660973048e+000,2.5451369244e+000,3.3579519359e+000,2.7622584650e+000,3.1563902829e+000,
8.8125000000e+000,3.1837618106e+000,9.1678086018e+000,2.6937195117e+000,3.0621459476e+000,4.4179010485e+000,4.9151384134e+000,2.8461288632e+000,4.4851333152e+000,5.5089557363e+000,5.5296549450e+000,2.5058803284e+000,3.3662390295e+000,2.8085310424e+000,3.0862103179e+000,
8.9062500000e+000,3.1216456160e+000,9.1695348920e+000,2.7542745788e+000,3.0203078443e+000,4.3601814671e+000,4.8688979869e+000,2.8148746996e+000,4.4579488877e+000,5.5840147968e+000,5.5633920925e+000,2.4092245726e+000,3.2358982806e+000,2.8003396409e+000,3.0746695663e+000,
9.0000000000e+000,3.1537524021e+000,9.1723538740e+000,2.8503620132e+000,3.0704882070e+000,4.6245633983e+000,4.8094853171e+000,2.8855828066e+000,4.4475779223e+000,5.6929152892e+000,5.6092574950e+000,2.4243348597e+000,3.2973747168e+000,2.7539981138e+000,3.1454212479e+000,
9.0937500000e+000,3.1007864814e+000,1.1208825958e+001,2.8720253948e+000,3.1198756656e+000,4.6488868752e+000,5.4786271491e+000,3.0075308251e+000,4.4244721979e+000,5.5786473294e+000,5.5179991435e+000,2.3871045965e+000,3.3383293709e+000,2.6745887339e+000,3.0811992631e+000,
9.1875000000e+000,3.1210162572e+000,1.1327091205e+001,2.8240577278e+000,3.0947799165e+000,4.6957529842e+000,5.5444179773e+000,3.0175287170e+000,4.5503792813e+000,5.6146166922e+000,5.5318681402e+000,2.3904559345e+000,3.2801344196e+000,2.5623818572e+000,2.9983598483e+000,
9.2812500000e+000,3.1161804186e+000,1.1361921134e+001,2.7849646011e+000,3.0478360936e+000,4.7490269906e+000,5.6522380720e+000,3.0534856678e+000,4.5850777682e+000,5.6617855040e+000,5.5361309260e+000,2.2847744430e+000,3.1352269667e+000,2.6315422742e+000,2.8124960101e+000,
9.3750000000e+000,3.1216161090e+000,1.1354546792e+001,2.7672313129e+000,3.1256635755e+000,4.8061682101e+000,5.6580404865e+000,3.0713040479e+000,4.5257761995e+000,5.6390066865e+000,5.5049182269e+000,2.1242329134e+000,3.0505842682e+000,2.7485695242e+000,2.8215647586e+000,
9.4687500000e+000,3.2091471857e+000,1.1269403988e+001,2.7454324105e+000,3.1826174642e+000,4.9669925347e+000,5.6271963846e+000,3.0753122167e+000,4.5161043915e+000,5.6630592846e+000,5.5364488907e+000,2.1774689661e+000,2.9632177828e+000,2.6095016320e+000,2.8003709940e+000,
9.5625000000e+000,3.1758532983e+000,1.1249574626e+001,2.8006640590e+000,3.1568454122e+000,4.9862773186e+000,5.6030683438e+000,2.9827050605e+000,4.4754318681e+000,5.6387040490e+000,5.4699562512e+000,2.0944608533e+000,2.8470630752e+000,2.5461918754e+000,2.7786530547e+000,
9.6562500000e+000,3.2519071672e+000,1.1249358774e+001,2.8701462595e+000,3.1561504802e+000,5.0246525598e+000,5.6258031250e+000,2.9244014808e+000,4.5020060052e+000,5.6378921341e+000,5.4343645334e+000,2.1074351248e+000,2.8043150085e+000,2.4775572205e+000,2.7966348855e+000,
9.7500000000e+000,3.2144068900e+000,1.1249279006e+001,2.8505320158e+000,3.1166528837e+000,5.0426255593e+000,5.6101819726e+000,2.9285991351e+000,4.3839640538e+000,5.6113712323e+000,5.2837973742e+000,2.1562404745e+000,2.8383230430e+000,2.3232364064e+000,2.8491537771e+000,
9.8437500000e+000,3.2278118308e+000,1.1249122783e+001,2.8579531861e+000,3.1952622971e+000,5.0642117648e+000,5.6237513863e+000,3.0285317574e+000,4.3270292703e+000,5.7028413717e+000,5.2450350000e+000,2.0713956487e+000,2.9547356688e+000,2.3486769657e+000,2.9519370362e+000,
9.9375000000e+000,3.2560371391e+000,1.1248628327e+001,2.9101808873e+000,3.2285800014e+000,5.0585393986e+000,5.6144976509e+000,3.1660765425e+000,4.3279254166e+000,5.5643728439e+000,5.1230570408e+000,2.1073619625e+000,2.8826577209e+000,2.3400884859e+000,2.8686397197e+000,
1.0031250000e+001,3.3137743918e+000,1.1027569017e+001,3.0289755210e+000,3.3305011641e+000,5.0038826530e+000,5.4114559559e+000,3.2523216180e+000,4.4231014504e+000,5.5377294326e+000,5.2372178457e+000,2.2256062291e+000,3.0163288296e+000,2.6045550994e+000,2.8800397853e+000,
1.0125000000e+001,3.2384819827e+000,8.8394087338e+000,3.0110072391e+000,3.3196704844e+000,4.9853715408e+000,4.9870286498e+000,3.1912947859e+000,4.3458323619e+000,5.6221865161e+000,5.2134002813e+000,2.2905913388e+000,3.1037083637e+000,2.6768106977e+000,2.9041091269e+000,
1.0218750000e+001,3.2045668320e+000,7.5811839295e+000,3.0524866857e+000,3.4363551885e+000,4.9901223422e+000,4.9520356301e+000,3.2001660839e+000,4.1948036953e+000,5.7162284735e+000,5.2238302512e+000,2.5554764203e+000,3.3025014332e+000,2.8277115845e+000,3.1579687826e+000,
1.0312500000e+001,3.3140780477e+000,5.4213166698e+000,3.1366698245e+000,3.5147683001e+000,5.0380250020e+000,4.7903564513e+000,3.1976223693e+000,4.3353057149e+000,5.6846236647e+000,5.1935707760e+000,2.6137339201e+000,3.3105700764e+000,2.8098215561e+000,3.1887056956e+000,
1.0406250000e+001,3.2710951476e+000,4.1164680932e+000,3.1730396704e+000,3.5556066792e+000,5.0040167237e+000,4.8382760836e+000,3.2738130611e+000,4.3700761143e+000,5.7080584463e+000,5.1910603024e+000,2.5613389611e+000,3.3416851939e+000,2.7982707815e+000,3.1780439190e+000,
1.0500000000e+001,3.2822960334e+000,3.7100743097e+000,4.0211300103e+000,3.4829776003e+000,5.0343146068e+000,4.7402206239e+000,3.1670582336e+000,4.2679059239e+000,5.7960965745e+000,5.3610755779e+000,2.5145641864e+000,3.5676168760e+000,2.8584404583e+000,3.2979801182e+000,
1.0593750000e+001,3.6440201090e+000,3.7775398033e+000,1.1080106023e+001,3.7733324708e+000,5.1363582927e+000,4.8315524027e+000,3.2389445971e+000,4.3583101433e+000,5.8448193319e+000,5.4146624425e+000,2.4956683929e+000,3.6557844602e+000,3.0000433304e+000,3.3529797359e+000,
1.0687500000e+001,3.7185645252e+000,3.9170087712e+000,1.1117830074e+001,3.8159292510e+000,5.1646387264e+000,4.8025270430e+000,3.2511027136e+000,4.3533579301e+000,6.0042580037e+000,5.4441308173e+000,2.5722657939e+000,3.6637406988e+000,3.0563812265e+000,3.4145476851e+000,
1.0781250000e+001,3.8164697305e+000,3.9691828263e+000,1.1127441155e+001,3.8240417001e+000,5.1983028526e+000,4.8517328500e+000,3.1811087364e+000,4.4394738311e+000,6.1231720345e+000,5.4941864516e+000,2.5782578204e+000,3.6973280606e+000,3.1477507182e+000,3.4494918697e+000,
1.0875000000e+001,3.8273184046e+000,3.9679617513e+000,1.1148141231e+001,3.8450529268e+000,5.2610754917e+000,4.8941384857e+000,3.1313195874e+000,4.5131507832e+000,6.0449528670e+000,5.5819927185e+000,2.5702932776e+000,3.6820369504e+000,3.1853596003e+000,3.4031786943e+000,
1.0968750000e+001,3.8459895744e+000,3.9503285973e+000,1.1164203068e+001,3.7850980705e+000,5.2821141417e+000,4.8121969100e+000,2.9929369544e+000,4.5307228746e+000,6.0603518316e+000,5.5718775065e+000,2.5148612001e+000,3.7387068690e+000,3.2232567413e+000,3.4409150551e+000,
1.1062500000e+001,3.8001489246e+000,3.8593101436e+000,1.1168404681e+001,3.7388421742e+000,5.1732839536e+000,4.7981875202e+000,2.9425169838e+000,4.4760511036e+000,6.0623428917e+000,5.4995696632e+000,2.4705565222e+000,3.8385413080e+000,3.1138748943e+000,3.5608493540e+000,
1.1156250000e+001,3.8906325945e+000,3.9263780770e+000,1.1202000877e+001,3.7631041306e+000,5.2268004840e+000,4.7717972348e+000,2.9881151253e+000,4.4703048883e+000,6.0203089259e+000,5.5149914737e+000,2.3405943642e+000,3.7670877908e+000,3.0620921348e+000,3.4894032021e+000,
1.1250000000e+001,3.8912073064e+000,3.9355677453e+000,1.1315526974e+001,3.7513289443e+000,5.2505611833e+000,4.8257108683e+000,2.9737366206e+000,4.4907848629e+000,5.9299755779e+000,5.5273576674e+000,2.2444783506e+000,3.7398998299e+000,3.0369057160e+000,3.4772987532e+000,
1.1343750000e+001,3.8190812645e+000,3.8869129627e+000,1.1323651680e+001,3.7455012693e+000,5.2049152648e+000,4.7711531930e+000,2.9121883323e+000,4.3045973338e+000,5.9442600984e+000,5.5343609263e+000,2.2540913167e+000,3.8452428853e+000,3.0125040410e+000,3.4951988724e+000,
1.1437500000e+001,3.8215021051e+000,3.8585175411e+000,1.1323699370e+001,3.7056436331e+000,5.1647204179e+000,4.7830120802e+000,2.8749875028e+000,4.3526792158e+000,5.8477912377e+000,5.4605501289e+000,2.3429845994e+000,3.9299461736e+000,3.0566417036e+000,3.5416981322e+000,
1.1531250000e+001,3.7420431252e+000,3.8963913229e+000,1.1215493679e+001,3.7339866904e+000,5.1403551665e+000,4.7419160917e+000,2.9920363865e+000,4.3675180725e+000,5.8329122086e+000,5.2000950236e+000,2.4859594706e+000,3.8317214123e+000,3.0122276526e+000,3.4180037386e+000,
1.1625000000e+001,3.5120737691e+000,3.7333935367e+000,1.0065272793e+001,3.5796776815e+000,5.0890012383e+000,4.7754440437e+000,2.9385944382e+000,4.5103132704e+000,5.6510752534e+000,5.2730223593e+000,2.4732163062e+000,3.8846791158e+000,3.0034658229e+000,3.4340515329e+000,
1.1718750000e+001,3.4027483289e+000,3.6937107987e+000,9.9838465748e+000,3.5306428268e+000,5.0253251069e+000,4.7154031157e+000,2.9864082597e+000,4.4789120356e+000,5.5634735990e+000,5.3130761237e+000,2.3812436769e+000,3.9353217930e+000,3.0660970068e+000,3.4170735634e+000,
1.1812500000e+001,3.4169461495e+000,3.7781471227e+000,9.9585170592e+000,3.5507396144e+000,5.0954586942e+000,4.8073764003e+000,3.0734231601e+000,4.5254262269e+000,5.5094301631e+000,5.2716179945e+000,2.4363115523e+000,3.9283718670e+000,3.0716701222e+000,3.4270423363e+000,
1.1906250000e+001,3.2753137700e+000,3.7142928566e+000,9.8864540634e+000,3.5240887188e+000,5.1350965974e+000,4.7353382843e+000,3.0579416609e+000,4.4385744167e+000,5.4324411514e+000,5.2540684116e+000,2.4556333087e+000,3.9662467301e+000,3.0206812095e+000,3.4265667124e+000,
1.2000000000e+001,3.2773517567e+000,3.7848028518e+000,9.8353438235e+000,3.5818946387e+000,5.1724036936e+000,4.7780842433e+000,3.0495909811e+000,4.5279059196e+000,5.4689752231e+000,5.2825602711e+000,2.4915785962e+000,3.9318217851e+000,3.0183445670e+000,3.3409499005e+000,
1.2093750000e+001,3.2779608949e+000,3.7804833264e+000,9.8343507298e+000,3.5725300116e+000,5.1741869497e+000,4.7798153306e+000,3.0061009182e+000,4.5252613952e+000,5.5708092223e+000,5.2610600067e+000,2.5831832885e+000,3.8404630092e+000,3.0623326868e+000,3.2867522466e+000,
1.2187500000e+001,3.2080844969e+000,3.7990553586e+000,9.2071982578e+000,3.5630573211e+000,5.1474492829e+000,4.8751761302e+000,3.0139355320e+000,4.5874992669e+000,5.6178326912e+000,5.2771560224e+000,2.5817014607e+000,3.8908977391e+000,3.1245179683e+000,3.2311017586e+000,
1.2281250000e+001,3.2269700707e+000,3.8532402377e+000,9.3668931921e+000,3.5756409075e+000,5.0963303850e+000,4.9022371354e+000,3.0049572316e+000,4.6512357300e+000,5.6592244684e+000,5.2791898832e+000,2.5721257789e+000,3.8772496938e+000,3.0638155800e+000,3.3049593675e+000,
1.2375000000e+001,3.5121521085e+000,3.9574066453e+000,9.3433254713e+000,3.5722959118e+000,5.1793712980e+000,4.9309542031e+000,3.1130386839e+000,4.6484024136e+000,5.6899296947e+000,5.3119762490e+000,2.6292831044e+000,3.7856772720e+000,3.0171723112e+000,3.2840291532e+000,
1.2468750000e+001,3.5124505700e+000,3.9808558513e+000,9.3365015922e+000,3.6021039512e+000,5.1961425945e+000,4.9333964436e+000,3.1475639493e+000,4.6632875808e+000,5.8102879799e+000,5.3102285428e+000,2.5805997581e+000,3.7037396914e+000,3.0168452963e+000,3.2668409553e+000,
1.2562500000e+001,3.7859955016e+000,3.9898336144e+000,9.8652891442e+000,3.5707202183e+000,5.1642846747e+000,4.9152015573e+000,3.1296349712e+000,4.6328277585e+000,5.8411709825e+000,5.3063314519e+000,2.6957830005e+000,3.7039817043e+000,3.1069593348e+000,3.2532037102e+000,
1.2656250000e+001,5.3188694065e+000,5.0021408016e+000,1.0529027652e+001,5.3539434908e+000,5.7848082877e+000,5.7673427519e+000,4.7163710037e+000,5.6759732040e+000,6.2899416665e+000,6.0434995339e+000,5.0994249748e+000,5.3106034432e+000,5.3804580470e+000,4.9193232546e+000,
1.2750000000e+001,6.3024575937e+000,5.7472520515e+000,1.0602084902e+001,6.3422446518e+000,6.4465609958e+000,6.6166232316e+000,5.6663577175e+000,6.5490858769e+000,7.1782201255e+000,6.8478374770e+000,6.1842465492e+000,6.3561740576e+000,6.4768147255e+000,5.9834129855e+000,
1.2843750000e+001,6.3373739163e+000,5.7689924146e+000,1.0607120767e+001,6.3585231053e+000,6.4707744142e+000,6.6332624240e+000,5.7007463028e+000,6.5811646566e+000,7.2110872020e+000,6.8671758195e+000,6.2162278154e+000,6.3933721318e+000,6.5044737033e+000,6.0175402618e+000,
1.2937500000e+001,6.3374831979e+000,5.7719126113e+000,1.0599831502e+001,6.3582755419e+000,6.4533188689e+000,6.6336093642e+000,5.6994649449e+000,6.5942723077e+000,7.2004438161e+000,6.8931589989e+000,6.2173336736e+000,6.3952482274e+000,6.5079538569e+000,6.0200179956e+000,
1.3031250000e+001,6.3379876601e+000,5.7696183277e+000,1.0599352902e+001,6.3550763886e+000,6.4557535268e+000,6.6303010658e+000,5.7024614209e+000,6.5789699311e+000,7.1998795156e+000,6.8962728919e+000,6.2157300965e+000,6.3913383134e+000,6.5058194558e+000,6.0204600016e+000,
1.3125000000e+001,6.3412891677e+000,5.7764185172e+000,1.0599289892e+001,6.3585110720e+000,6.4905492949e+000,6.6403788188e+000,5.7060685055e+000,6.5844106010e+000,7.1902381492e+000,6.8973527455e+000,6.2155149616e+000,6.3914644275e+000,6.5041707126e+000,6.0166281803e+000,
1.3218750000e+001,6.3387245173e+000,5.7671266330e+000,1.0501555287e+001,6.3532681200e+000,6.5018354805e+000,6.6248193165e+000,5.7069005026e+000,6.5732294172e+000,7.1850042790e+000,6.8873301450e+000,6.2143032597e+000,6.3857928343e+000,6.5021712037e+000,6.0106991782e+000,
1.3312500000e+001,6.3342801070e+000,5.7529288380e+000,1.0476439422e+001,6.3505557289e+000,6.4974318552e+000,6.6117073760e+000,5.7094042271e+000,6.5748007563e+000,7.1991596414e+000,6.8875921922e+000,6.2170211990e+000,6.3822353085e+000,6.5032581757e+000,6.0059846206e+000,
1.3406250000e+001,6.3212934174e+000,5.7355837588e+000,1.0475829878e+001,6.3498484639e+000,6.4724501354e+000,6.6003363876e+000,5.7037032499e+000,6.5797276595e+000,7.1921592213e+000,6.8944275064e+000,6.2164294179e+000,6.3857842828e+000,6.5085524607e+000,6.0069897206e+000,
1.3500000000e+001,6.3220918815e+000,5.7353567429e+000,1.0475568203e+001,6.3480273147e+000,6.4836952085e+000,6.5888883878e+000,5.6993560216e+000,6.5730456519e+000,7.1528440957e+000,6.8827420857e+000,6.2162715866e+000,6.3840384850e+000,6.5089277194e+000,6.0103030649e+000,
1.3593750000e+001,6.1607296932e+000,5.5499394004e+000,9.3518267991e+000,6.2189339397e+000,6.3955190648e+000,6.4639869607e+000,5.5765459780e+000,6.4620881512e+000,7.0487830788e+000,6.7965906398e+000,6.0830165752e+000,6.2731405385e+000,6.3876699459e+000,5.9102294262e+000,
1.3687500000e+001,4.9625415364e+000,4.3918227112e+000,7.0567781036e+000,4.9177821708e+000,5.6939399430e+000,5.4164929601e+000,4.5071330288e+000,5.3012060065e+000,6.4180758105e+000,6.0541316011e+000,4.9556401849e+000,5.2050421599e+000,5.2457538365e+000,4.8480817218e+000,
1.3781250000e+001,3.3852285895e+000,3.4889558306e+000,4.6799129253e+000,3.2684569610e+000,5.0974515751e+000,4.4884814489e+000,3.1714984065e+000,4.4331685229e+000,5.7011749147e+000,5.3684549691e+000,2.9457835651e+000,3.5871563286e+000,3.2111098904e+000,3.2473816223e+000,
1.3875000000e+001,3.1709724155e+000,3.4658195991e+000,3.5414803750e+000,3.1048558723e+000,4.9904935519e+000,4.5122229158e+000,2.9243752365e+000,4.1733595097e+000,5.6331468622e+000,5.2814227988e+000,2.5773664481e+000,3.2728326680e+000,2.8101914332e+000,2.9419684393e+000,
1.3968750000e+001,3.2187539774e+000,3.4749030202e+000,3.2835168794e+000,3.1186846937e+000,4.9177284043e+000,4.6136291289e+000,2.9729897728e+000,4.1454143945e+000,5.6346380681e+000,5.1463644358e+000,2.5472830280e+000,3.2842356985e+000,2.7477259363e+000,2.9386175282e+000,
1.4062500000e+001,3.2777078781e+000,3.5690034293e+000,3.3035621528e+000,3.2399147979e+000,4.7605897454e+000,4.7340357813e+000,2.9247112675e+000,4.1252221145e+000,5.6235437394e+000,5.1085812115e+000,2.5121927010e+000,3.2690675116e+000,2.7639489275e+000,2.8897891112e+000,
1.4156250000e+001,3.3483782080e+000,3.5830550476e+000,3.3013333554e+000,3.2942089082e+000,4.8489985440e+000,4.6646382551e+000,2.9280389780e+000,4.1608975417e+000,5.5406452989e+000,5.1619539890e+000,2.4928320122e+000,3.2404925521e+000,2.7351263343e+000,2.9191809286e+000,
1.4250000000e+001,3.3734089366e+000,3.5970598460e+000,3.3058731764e+000,3.3042934028e+000,4.8822205559e+000,4.7216208755e+000,2.9210484681e+000,4.1605296488e+000,5.4915934351e+000,5.0886107327e+000,2.3179944251e+000,3.3152532483e+000,2.7485987379e+000,2.9820833618e+000,
1.4343750000e+001,3.3456511315e+000,3.5872012774e+000,3.2554575804e+000,3.2536842950e+000,4.9049167034e+000,4.7383653829e+000,2.9894948267e+000,4.2834438618e+000,5.5456922900e+000,5.1266108755e+000,2.3662797779e+000,3.2220920866e+000,2.6900288531e+000,2.9741848151e+000,
1.4437500000e+001,3.4026783164e+000,3.7035954864e+000,3.2688245731e+000,3.2357795902e+000,4.9508261692e+000,4.8474886607e+000,3.1005381556e+000,4.3714560855e+000,5.6058769431e+000,5.2220971393e+000,2.3573030984e+000,3.2168631677e+000,2.6223725816e+000,3.0758197039e+000,
1.4531250000e+001,3.4361636280e+000,3.7943804119e+000,3.2177308022e+000,3.4239970351e+000,4.9173952369e+000,4.8878592862e+000,3.1109062150e+000,4.4876063090e+000,5.6358187366e+000,5.3322302079e+000,2.4785761298e+000,3.2193898975e+000,2.6216841230e+000,3.0097264478e+000,
1.4625000000e+001,3.4975129558e+000,3.7645759661e+000,3.1703310301e+000,3.4229943058e+000,4.9397598564e+000,4.8053528538e+000,3.0829900784e+000,4.5931115364e+000,5.6300244625e+000,5.3001793072e+000,2.5346263354e+000,3.1742375229e+000,2.6346604388e+000,2.8740077137e+000,
1.4718750000e+001,3.4587046448e+000,3.7490099814e+000,3.1758809881e+000,3.4011997797e+000,4.9324522549e+000,4.7816420860e+000,3.0090225671e+000,4.5693783285e+000,5.6190856929e+000,5.2781979492e+000,2.4453639029e+000,3.1527067477e+000,2.7099951390e+000,2.8560186471e+000,
1.4812500000e+001,3.4300651511e+000,3.7663615018e+000,3.1711241820e+000,3.3727486473e+000,4.9262211098e+000,4.7881302608e+000,2.9745641504e+000,4.6026955482e+000,5.6246934367e+000,5.2546931135e+000,2.4855450080e+000,3.1293983858e+000,2.7845204116e+000,2.9433270882e+000,
1.4906250000e+001,3.3735994545e+000,3.7266015468e+000,3.2092114830e+000,3.3745496343e+000,4.9480002961e+000,4.7734335069e+000,2.9850144872e+000,4.5706132665e+000,5.6192391834e+000,5.2811128546e+000,2.5148922840e+000,3.1452730752e+000,2.8242304355e+000,2.9897115245e+000,
1.5000000000e+001,3.3856866837e+000,3.7269544946e+000,3.2098358752e+000,3.3129256074e+000,5.1000334344e+000,4.6890781029e+000,3.1044635344e+000,4.5861695644e+000,5.6997980078e+000,5.2464894254e+000,2.6026300115e+000,3.1661644797e+000,2.8173919689e+000,3.0037944787e+000,
1.5093750000e+001,3.4281082135e+000,3.7437765922e+000,3.1887820038e+000,3.4007707361e+000,5.2744680092e+000,4.7429824474e+000,3.2558195451e+000,4.7288405601e+000,5.8302825443e+000,5.2331654822e+000,2.6384255299e+000,3.2085649682e+000,2.8172221610e+000,3.0397034804e+000,
1.5187500000e+001,3.3818751845e+000,3.6564525576e+000,3.1867543733e+000,3.2671680329e+000,5.1509609356e+000,4.6855416917e+000,3.2048399417e+000,4.7005365057e+000,5.8535349353e+000,5.2453795434e+000,2.6639264669e+000,3.3798820190e+000,2.9545767312e+000,3.1369351317e+000,
1.5281250000e+001,3.4215153952e+000,3.6410537972e+000,3.1591348939e+000,3.2860502487e+000,5.0996881572e+000,4.6969312739e+000,3.1480330632e+000,4.6646201419e+000,6.0420903366e+000,5.4682451870e+000,2.6367640576e+000,3.4001566657e+000,2.9018764384e+000,3.1708139267e+000,
1.5375000000e+001,3.4717359694e+000,3.6355541398e+000,3.2021419700e+000,3.2714570075e+000,5.1430507546e+000,4.6931831395e+000,3.0430334922e+000,4.5723632812e+000,6.1412131775e+000,5.4315010674e+000,2.6423186692e+000,3.3654501940e+000,2.9543936355e+000,3.0706958608e+000,
1.5468750000e+001,3.3776800941e+000,3.5611512368e+000,3.2212207884e+000,3.2498180107e+000,5.0731665754e+000,4.6069056954e+000,2.8558297588e+000,4.5890469412e+000,6.1451927223e+000,5.4055873759e+000,2.6736439463e+000,3.4385890548e+000,3.0258490424e+000,3.1054919622e+000,
1.5562500000e+001,3.4488981813e+000,3.5387861445e+000,3.2066007029e+000,3.1701090764e+000,5.1697077603e+000,4.5681661565e+000,2.8837504345e+000,4.5477819130e+000,6.3236143449e+000,5.3574356049e+000,2.6477236407e+000,3.4416346341e+000,3.0736077424e+000,3.0686971607e+000,
1.5656250000e+001,3.5007557209e+000,3.6382062116e+000,3.3397323000e+000,3.3311475191e+000,5.2311819713e+000,4.6225957254e+000,2.9181567397e+000,4.6219720771e+000,6.3856358044e+000,5.4817675526e+000,2.7221606288e+000,3.5340714346e+000,3.1823071241e+000,3.1208672286e+000,
1.5750000000e+001,3.6004567911e+000,3.7140831246e+000,3.3790100731e+000,3.4146802250e+000,5.4055172635e+000,4.6622947332e+000,2.8428515594e+000,4.6632194067e+000,6.3912666848e+000,5.5348433851e+000,2.6759115276e+000,3.5824139819e+000,3.1476483761e+000,3.2856393798e+000,
1.5843750000e+001,3.5916625942e+000,3.6852120875e+000,3.4020350444e+000,3.4269422251e+000,5.4001987426e+000,4.7323078030e+000,2.9353189373e+000,4.6049223772e+000,6.4534008010e+000,5.5191687378e+000,2.6053046715e+000,3.5890091269e+000,3.1177438287e+000,3.2951888532e+000,
1.5937500000e+001,3.5685830915e+000,3.6337491146e+000,3.3410173733e+000,3.4911588568e+000,5.3857100229e+000,4.7165570353e+000,2.8534932068e+000,4.5938179978e+000,6.4980066243e+000,5.5651928529e+000,2.5958680372e+000,3.6318774749e+000,3.1267541774e+000,3.3094959469e+000,
1.6031250000e+001,3.4922893974e+000,3.5615679702e+000,3.2685959139e+000,3.4764182069e+000,5.2186891536e+000,4.5939441270e+000,2.6825010708e+000,4.5539234891e+000,6.5015975134e+000,5.5705329011e+000,2.4878108250e+000,3.5886383539e+000,3.1276571552e+000,3.3250030600e+000,
1.6125000000e+001,3.5897232804e+000,3.5810216671e+000,3.2092066452e+000,3.4889709912e+000,5.2800939911e+000,4.5542009480e+000,2.7665485374e+000,4.4873878228e+000,6.5374307861e+000,5.4742398154e+000,2.5143057017e+000,3.4604782876e+000,3.0914656806e+000,3.2325203325e+000,
1.6218750000e+001,3.6128408144e+000,3.6652005582e+000,3.1835702749e+000,3.5086114360e+000,5.2704230587e+000,4.5902086480e+000,2.7660351345e+000,4.4647291970e+000,6.5538645466e+000,5.4470280119e+000,2.4996192723e+000,3.4200068303e+000,3.0491313844e+000,3.1653448297e+000,
1.6312500000e+001,3.5242418070e+000,3.6576262122e+000,3.1842909997e+000,3.5083136659e+000,5.2401110401e+000,4.4960003336e+000,2.7501833523e+000,4.4232658478e+000,6.4735143134e+000,5.3190344949e+000,2.4992661830e+000,3.3509774416e+000,3.0373174687e+000,2.9490978485e+000,
1.6406250000e+001,3.5224392323e+000,3.6079590094e+000,3.1250149526e+000,3.4481468248e+000,5.3029440549e+000,4.5523697719e+000,2.8348808617e+000,4.3108677019e+000,6.4437555186e+000,5.3519717343e+000,2.3934434357e+000,3.4413107156e+000,2.9123281325e+000,2.9496147804e+000,
1.6500000000e+001,3.4876765706e+000,3.5685786670e+000,3.0438921163e+000,3.4947832158e+000,5.2488602201e+000,4.5876141782e+000,2.8283923607e+000,4.2783730176e+000,6.4569490993e+000,5.2905327973e+000,2.3373844664e+000,3.3996912728e+000,2.7881754379e+000,2.9268276465e+000,
1.6593750000e+001,3.3760881794e+000,3.5063611997e+000,3.0054827146e+000,3.4053539934e+000,5.2895139792e+000,4.6209255044e+000,2.8331609039e+000,4.1905651235e+000,6.4470149290e+000,5.2674489906e+000,2.2185211693e+000,3.4580434726e+000,2.7343516139e+000,2.9167590547e+000,
1.6687500000e+001,3.2708041338e+000,3.4010837957e+000,2.8753911373e+000,3.2304149572e+000,5.1848073743e+000,4.6494875838e+000,2.9076763062e+000,4.0321285842e+000,6.3740329983e+000,5.2659152237e+000,2.2300652369e+000,3.2935386763e+000,2.5813850224e+000,2.7228556987e+000,
1.6781250000e+001,3.2406269608e+000,3.4429978658e+000,2.8181347450e+000,3.2601604462e+000,5.1070573713e+000,4.7405752744e+000,2.8853190320e+000,4.0628898526e+000,6.3349717659e+000,5.3254841482e+000,2.2911663775e+000,3.2228672754e+000,2.4819354669e+000,2.6561064876e+000,
1.6875000000e+001,3.2371764232e+000,3.3982240241e+000,2.8089677634e+000,3.2610218244e+000,5.1026784040e+000,4.6980514852e+000,2.9553093041e+000,4.0479730799e+000,6.4523929647e+000,5.2393131822e+000,2.3397512663e+000,3.1689085917e+000,2.5988728758e+000,2.6806971082e+000,
1.6968750000e+001,3.3270832663e+000,3.3941377779e+000,2.7998539634e+000,3.2557628012e+000,5.1374105708e+000,4.6790599362e+000,2.9445513739e+000,4.1331367054e+000,6.8585186189e+000,5.2318018043e+000,2.3779932469e+000,3.2029276217e+000,2.5649484915e+000,2.7690740099e+000,
1.7062500000e+001,3.4417439364e+000,3.4910094633e+000,2.9188236883e+000,3.2492141918e+000,5.2418239075e+000,4.7706419975e+000,2.9734836553e+000,4.2519462531e+000,6.9013105492e+000,5.2065754704e+000,2.3929019378e+000,3.2517404379e+000,2.5513591859e+000,2.8344632741e+000,
1.7156250000e+001,3.3729478620e+000,3.4749874521e+000,2.9670372257e+000,3.2303367288e+000,5.1592543949e+000,4.8707551450e+000,3.0462113295e+000,4.2659559657e+000,6.8042884316e+000,5.3712276392e+000,2.5179214903e+000,3.3053183189e+000,2.7095992765e+000,3.0137621855e+000,
1.7250000000e+001,3.3971121702e+000,3.4429147693e+000,3.0909376827e+000,3.1938277584e+000,5.1441225868e+000,4.9773708801e+000,3.1018482447e+000,4.3075081125e+000,6.7750816437e+000,5.3902027890e+000,2.5426097438e+000,3.3582871952e+000,2.7411243721e+000,3.0595105242e+000,
1.7343750000e+001,3.4420810367e+000,3.4507212931e+000,3.2161851091e+000,3.2781234065e+000,5.2660158099e+000,5.0691628657e+000,3.0961862119e+000,4.3670007114e+000,6.7503063121e+000,5.4076987792e+000,2.6744417032e+000,3.3854703445e+000,2.8422748952e+000,3.1842539078e+000,
1.7437500000e+001,3.4144908844e+000,3.4854611588e+000,3.2207832212e+000,3.2268164028e+000,5.3296983545e+000,5.0012686734e+000,3.1074721158e+000,4.4140893098e+000,6.7357514421e+000,5.3576109232e+000,2.7098746831e+000,3.2930731007e+000,2.8851198265e+000,3.2229307293e+000,
1.7531250000e+001,3.3440558498e+000,3.4576284180e+000,3.2146013518e+000,3.2899318548e+000,5.3300687624e+000,4.9788641533e+000,3.1087666671e+000,4.5425295457e+000,6.6590833035e+000,5.3300519181e+000,2.7405641830e+000,3.4945230263e+000,2.8911487122e+000,3.2731033437e+000,
1.7625000000e+001,3.3613021558e+000,3.5468541917e+000,3.2171497354e+000,3.3765437130e+000,5.1500354177e+000,4.9595797889e+000,3.1928174510e+000,4.5251329402e+000,6.6808643994e+000,5.3438834737e+000,2.8002530582e+000,3.5439288445e+000,2.8890597158e+000,3.2971591164e+000,
1.7718750000e+001,3.3935002590e+000,3.5498355672e+000,3.2443053378e+000,3.4501367978e+000,5.2092119579e+000,4.9027368951e+000,3.2711436095e+000,4.5527528065e+000,6.6640160660e+000,5.3212053245e+000,2.7690590774e+000,3.6709651454e+000,3.0147928304e+000,3.3713238997e+000,
1.7812500000e+001,3.5031110112e+000,3.5374741794e+000,3.3491103180e+000,3.4744103228e+000,5.3035954479e+000,4.9524198582e+000,3.3234158904e+000,4.6210562627e+000,6.7178794846e+000,5.2820920504e+000,2.7173825750e+000,3.7656557319e+000,3.0311267506e+000,3.3944961212e+000,
1.7906250000e+001,3.4919602322e+000,3.6161715436e+000,3.4083694960e+000,3.5141028151e+000,5.3215047614e+000,4.9696750775e+000,3.3212458796e+000,4.6632288729e+000,6.2008733429e+000,5.3139106512e+000,2.7840990321e+000,3.7692565144e+000,3.0430424062e+000,3.3255443523e+000,
1.8000000000e+001,3.5849483550e+000,3.6866370090e+000,3.4282287466e+000,3.4792821111e+000,5.3712346681e+000,5.0268148250e+000,3.3166091421e+000,4.6729954296e+000,5.7468093432e+000,5.3238924746e+000,2.7623614127e+000,3.7119657048e+000,3.0326807693e+000,3.2599977304e+000,
1.8093750000e+001,3.3919914858e+000,3.4991864872e+000,3.3525178841e+000,3.4037788056e+000,5.2324660262e+000,4.9100264655e+000,3.2209005980e+000,4.5763396479e+000,5.7630996243e+000,5.2824156178e+000,2.6909763291e+000,3.6517609518e+000,2.8934792986e+000,3.1344810247e+000,
1.8187500000e+001,3.3581854367e+000,3.5178238419e+000,3.2874069057e+000,3.4948166909e+000,5.2342585651e+000,4.8316865985e+000,3.2163399608e+000,4.5429808654e+000,5.8209892238e+000,5.2342547978e+000,2.7037099625e+000,3.6399896669e+000,2.9424019781e+000,3.1643669169e+000,
1.8281250000e+001,3.3329151070e+000,3.5074736771e+000,3.2905821426e+000,3.5308578823e+000,5.2062296728e+000,4.6811021723e+000,3.2151813427e+000,4.5567373851e+000,5.8479909957e+000,5.1604156301e+000,2.6535763288e+000,3.6016827419e+000,2.8357032837e+000,3.1907505549e+000,
1.8375000000e+001,3.3645382759e+000,3.6643584006e+000,3.2190006040e+000,3.6334349512e+000,4.9713161268e+000,4.7540353213e+000,3.2138720026e+000,4.6864868237e+000,5.7964187279e+000,5.1700882345e+000,2.6368535114e+000,3.6110554688e+000,2.9367571137e+000,3.1626133272e+000,
1.8468750000e+001,3.4777475516e+000,3.7748130558e+000,3.2461414483e+000,3.7481204997e+000,5.0240755239e+000,4.8465971203e+000,3.2127088371e+000,4.6623931750e+000,5.8374002803e+000,5.3082126357e+000,2.6793361955e+000,3.5943277466e+000,2.8869721729e+000,3.1724415605e+000,
1.8562500000e+001,3.5395477684e+000,3.8222094730e+000,3.2582888260e+000,3.6578269510e+000,5.0382190030e+000,4.8784028009e+000,3.2022969345e+000,4.5431064991e+000,5.9010888208e+000,5.4037542776e+000,2.6919205353e+000,3.5002073478e+000,2.8885435508e+000,3.2619990570e+000,
1.8656250000e+001,3.5227974385e+000,3.7930087772e+000,3.2590154663e+000,3.6770423519e+000,4.9930183783e+000,4.8312770783e+000,3.0783442531e+000,4.5348531324e+000,6.0033013759e+000,5.4319290266e+000,2.6507150787e+000,3.4453237180e+000,2.9065428821e+000,3.2309402299e+000,
1.8750000000e+001,3.5296857724e+000,3.7824854892e+000,3.2629403760e+000,3.6448304512e+000,4.9890678514e+000,4.7405579471e+000,3.0544658577e+000,4.4862630820e+000,5.9392161760e+000,5.3746340629e+000,2.6664447990e+000,3.4315560729e+000,2.7893463979e+000,3.2087700731e+000,
1.8843750000e+001,3.5035644717e+000,3.8040363592e+000,3.0954810667e+000,3.6513344580e+000,4.9039765505e+000,4.6578141520e+000,3.0535744208e+000,4.4273603756e+000,5.9364751384e+000,5.3354155838e+000,2.6527982671e+000,3.3427979129e+000,2.7246433293e+000,3.1436426504e+000,
1.8937500000e+001,3.4574857766e+000,3.7974378264e+000,3.0480859266e+000,3.6162360878e+000,4.9341871410e+000,4.6478481457e+000,3.0769584970e+000,4.3364881751e+000,5.9227246693e+000,5.3807390779e+000,2.6915186606e+000,3.3778579085e+000,2.8083404532e+000,3.1601594938e+000,
1.9031250000e+001,3.4822252287e+000,3.8389076092e+000,3.0327422290e+000,3.6387093432e+000,5.0952090894e+000,4.6451379802e+000,3.0894140524e+000,4.3717843572e+000,5.8681498209e+000,5.3731436215e+000,2.7044344145e+000,3.4088072241e+000,2.8120858054e+000,3.1467962157e+000,
1.9125000000e+001,3.6103148509e+000,3.9334774038e+000,3.1019466396e+000,3.6443580256e+000,5.2331453143e+000,4.6088071181e+000,3.1274039656e+000,4.3428324179e+000,5.8638497803e+000,5.3404385688e+000,2.7062478439e+000,3.4888955160e+000,2.8922110891e+000,3.1912137695e+000,
1.9218750000e+001,3.6001106216e+000,3.9302449558e+000,3.0966539739e+000,3.5983726221e+000,5.2676281762e+000,4.8127174412e+000,3.0422799330e+000,4.3521368185e+000,5.8560382198e+000,5.3739575413e+000,2.7353208572e+000,3.4890329452e+000,2.8408408941e+000,3.1163591603e+000,
1.9312500000e+001,3.5958682200e+000,3.8932789534e+000,3.0206609224e+000,3.5387034289e+000,5.2686765833e+000,4.7831993208e+000,3.0508686261e+000,4.1378502424e+000,5.9968386982e+000,5.3552089213e+000,2.7922980939e+000,3.4936414809e+000,2.7759712405e+000,3.1041789223e+000,
1.9406250000e+001,3.5238855510e+000,3.7525303578e+000,3.0661221058e+000,3.4488466496e+000,5.3049796812e+000,4.7233753740e+000,3.0643253597e+000,4.0113123214e+000,5.9455030686e+000,5.2958536518e+000,2.7226686289e+000,3.4722220704e+000,2.7735174745e+000,3.1489661160e+000,
1.9500000000e+001,3.4725646397e+000,3.6820241403e+000,3.0525639442e+000,3.2533710638e+000,5.3124807880e+000,4.7174555963e+000,3.1844680973e+000,4.0410141619e+000,5.9119773280e+000,5.1699567113e+000,2.7111634807e+000,3.4911616660e+000,2.8198004913e+000,3.0075546677e+000,
1.9593750000e+001,3.5292504972e+000,3.7304901305e+000,3.1262867240e+000,3.3515924783e+000,5.3570475235e+000,4.6948073401e+000,3.2291615423e+000,4.1243348877e+000,5.8027502304e+000,5.2562078976e+000,2.6929555584e+000,3.4791881177e+000,2.8595544871e+000,3.0481806858e+000,
1.9687500000e+001,3.5831496101e+000,3.8953726124e+000,3.1786968482e+000,3.4066945271e+000,5.3782662637e+000,4.8051858390e+000,3.1887608068e+000,4.2631632076e+000,5.5743046097e+000,5.2090208265e+000,2.7329725089e+000,3.4322874739e+000,2.9053524410e+000,3.0170906826e+000,
1.9781250000e+001,3.5389784118e+000,3.8885794080e+000,3.2266574154e+000,3.3999573831e+000,5.3547386081e+000,4.8400166228e+000,3.1179605587e+000,4.3527113957e+000,5.7185023595e+000,5.1992203808e+000,2.8147097901e+000,3.5054856838e+000,2.9571534076e+000,3.0762496306e+000,
1.9875000000e+001,3.5216286075e+000,3.8574690783e+000,3.1893316946e+000,3.3226998842e+000,5.3027150278e+000,4.8106249979e+000,3.0327048557e+000,4.3109636297e+000,5.7265355043e+000,5.1842670908e+000,2.7607370621e+000,3.5298856745e+000,2.9098292249e+000,3.1676746065e+000,
1.9968750000e+001,3.6778408499e+000,3.9134435414e+000,3.3321327360e+000,3.4320323769e+000,5.2973649966e+000,4.9372063494e+000,3.1706160140e+000,4.4357352948e+000,5.8090365428e+000,5.2190532388e+000,2.7618562475e+000,3.5608205039e+000,2.8440801650e+000,3.2007584075e+000,
2.0062500000e+001,3.7426487657e+000,3.9198170931e+000,3.3711339627e+000,3.4761691011e+000,5.0671865698e+000,4.9347372463e+000,3.2335313410e+000,4.4238310325e+000,5.8130160834e+000,5.2918456310e+000,2.7440442531e+000,3.5306300965e+000,2.8201848288e+000,3.1815958481e+000,
2.0156250000e+001,3.6981408625e+000,3.8979615061e+000,3.3943968263e+000,3.4532339609e+000,5.0701811095e+000,4.8391389560e+000,3.3065115501e+000,4.4353938442e+000,5.8287498582e+000,5.2868145252e+000,2.8264614044e+000,3.5486961638e+000,2.9139676457e+000,3.1433067706e+000,
2.0250000000e+001,3.6999391920e+000,3.8933343816e+000,3.4160268437e+000,3.4523300371e+000,5.0697240103e+000,4.6932647891e+000,3.2774680217e+000,4.4433040605e+000,5.7806434025e+000,5.2510655983e+000,2.7660324844e+000,3.5489670810e+000,3.0351612205e+000,3.1646589885e+000,
2.0343750000e+001,3.6967836416e+000,3.9006854175e+000,3.4395241709e+000,3.4624502923e+000,5.0268157345e+000,4.7096974353e+000,3.3541322777e+000,4.4536014275e+000,5.6243547018e+000,5.3191427177e+000,2.7718326835e+000,3.5884297727e+000,3.0856494709e+000,3.1450251597e+000,
2.0437500000e+001,3.6338741066e+000,3.8368882953e+000,3.3338880060e+000,3.3738039383e+000,4.9599229365e+000,4.7084155382e+000,3.2023029919e+000,4.4685224973e+000,5.6866679312e+000,5.3028269089e+000,2.8373009162e+000,3.5806684511e+000,3.1621799348e+000,3.1501904156e+000,
2.0531250000e+001,3.5924168107e+000,3.7468403088e+000,3.3700225577e+000,3.3576098021e+000,5.0223101418e+000,4.7131100818e+000,3.2424313844e+000,4.4621154644e+000,5.6817502900e+000,5.2865826471e+000,2.8648038967e+000,3.5371538905e+000,3.1216842324e+000,3.0842666535e+000,
2.0625000000e+001,3.5888279029e+000,3.6785206059e+000,3.3958146036e+000,3.3650879126e+000,5.0542100461e+000,4.6375997058e+000,3.3157855751e+000,4.4020931339e+000,5.7419218178e+000,5.2313635323e+000,2.8562456003e+000,3.5017521568e+000,3.0222933029e+000,2.9897394487e+000,
2.0718750000e+001,3.5613874607e+000,3.6031840122e+000,3.3584215484e+000,3.2723288752e+000,5.0807809207e+000,4.6462625057e+000,3.3485424652e+000,4.2931203158e+000,5.6731340631e+000,5.2438038129e+000,2.7533540535e+000,3.5792817067e+000,3.0033175360e+000,2.9621591874e+000,
2.0812500000e+001,3.5402648527e+000,3.6178798778e+000,3.3262618681e+000,3.3221361744e+000,5.0962675415e+000,4.7994823841e+000,3.3595761189e+000,4.3777650857e+000,5.6887489512e+000,5.4565329744e+000,2.7530497608e+000,3.4787812809e+000,3.0205577388e+000,2.9116363144e+000,
2.0906250000e+001,3.5410250983e+000,3.6971442980e+000,3.3417535947e+000,3.4143903792e+000,5.1307382851e+000,4.8954302993e+000,3.3696258865e+000,4.4259489997e+000,5.6528659223e+000,5.6010641809e+000,2.7356373113e+000,3.4866272432e+000,3.0389392837e+000,2.8843335491e+000,
2.1000000000e+001,3.2449352735e+000,3.5243498344e+000,3.1697176320e+000,3.3334680646e+000,5.0798121768e+000,4.8562027006e+000,3.1652894475e+000,4.3706337255e+000,5.6017454585e+000,5.6433247642e+000,2.7105971209e+000,3.4657420692e+000,3.0312124749e+000,2.8892743971e+000,
2.1093750000e+001,3.1126242886e+000,3.3943531806e+000,3.1030637299e+000,3.2705793206e+000,5.1113232397e+000,4.8100675453e+000,3.0686689808e+000,4.3398779714e+000,5.5483169635e+000,5.6084675874e+000,2.5612564428e+000,3.4197976464e+000,2.9201970732e+000,2.8955113561e+000,
2.1187500000e+001,3.0706897001e+000,3.4125648570e+000,2.9986765068e+000,3.3569400863e+000,5.1512897451e+000,4.8730634296e+000,2.9897441653e+000,4.3774675803e+000,5.4893233186e+000,5.6030810663e+000,2.5344248633e+000,3.3329513022e+000,2.8570296232e+000,2.8587428827e+000,
2.1281250000e+001,3.1071777659e+000,3.4953797015e+000,2.9394559292e+000,3.4094388769e+000,5.1349068783e+000,4.8639417139e+000,2.9425334821e+000,4.3879774930e+000,5.6198326819e+000,5.6578518266e+000,2.4721525545e+000,3.3405997864e+000,2.7142782728e+000,2.9216643389e+000,
2.1375000000e+001,3.1936940730e+000,3.6154407561e+000,3.0105969810e+000,3.5064442743e+000,5.1879654829e+000,5.0164986319e+000,2.8850124784e+000,4.5676931943e+000,5.6742814821e+000,5.6486332417e+000,2.6018760803e+000,3.3477246353e+000,2.6412279360e+000,2.9148270792e+000,
2.1468750000e+001,3.2015644096e+000,3.7243674087e+000,3.0633880067e+000,3.5646064049e+000,5.2047767143e+000,5.0450120988e+000,2.8600816927e+000,4.6203807145e+000,5.6876343732e+000,5.6096632990e+000,2.4666576651e+000,3.3400916202e+000,2.5583787201e+000,2.9371312083e+000,
2.1562500000e+001,3.1377968000e+000,3.8093690613e+000,3.1033321383e+000,3.5418279646e+000,5.1102083090e+000,5.0297189725e+000,2.8866499498e+000,4.6133112227e+000,5.6962325460e+000,5.6037443832e+000,2.3639438456e+000,3.3039268813e+000,2.5207464787e+000,2.9552054551e+000,
2.1656250000e+001,3.3572976496e+000,3.9151103162e+000,3.1984759377e+000,3.6234259592e+000,5.3313139244e+000,5.0765195151e+000,2.9233024904e+000,4.6930182096e+000,5.7255841771e+000,5.7049819370e+000,2.5089948777e+000,3.3189780997e+000,2.5515626664e+000,2.9715429279e+000,
2.1750000000e+001,3.5385669490e+000,3.9956067500e+000,3.2310255353e+000,3.6738323482e+000,5.4610012452e+000,5.1149857936e+000,3.0346632955e+000,4.7239966698e+000,5.7533703457e+000,5.7106356414e+000,2.6051890435e+000,3.2435734679e+000,2.5255792659e+000,3.0646567436e+000,
2.1843750000e+001,3.6003416204e+000,4.0029598984e+000,3.1884860902e+000,3.6602312880e+000,5.4458595134e+000,4.9285854716e+000,3.0469387575e+000,4.6179694541e+000,6.0483618869e+000,5.4613575537e+000,2.6716036243e+000,3.2681587589e+000,2.4053939627e+000,3.0463804603e+000,
2.1937500000e+001,3.5924041928e+000,3.9450796353e+000,3.1802468660e+000,3.6146590277e+000,5.4908860105e+000,4.8387375224e+000,3.0910655054e+000,4.6695231346e+000,6.0657190497e+000,5.5049617045e+000,2.7273008223e+000,3.3467544522e+000,2.3537529525e+000,3.0399311560e+000,
2.2031250000e+001,3.6854584122e+000,4.0010134496e+000,3.1526482447e+000,3.5916491530e+000,5.5118047235e+000,4.9207001130e+000,3.1297793189e+000,4.6399449915e+000,6.0926598259e+000,5.4488139346e+000,2.7614283896e+000,3.2932679579e+000,2.3735655813e+000,2.9519152148e+000,
2.2125000000e+001,3.7064299698e+000,4.0572464368e+000,3.2429870305e+000,3.6704101528e+000,5.6026116157e+000,4.9918637269e+000,3.2537333182e+000,4.6568195511e+000,6.1285849454e+000,5.3699462844e+000,2.7718703830e+000,3.2817154970e+000,2.4479426622e+000,2.9156994444e+000,
2.2218750000e+001,3.6463928079e+000,3.9793461116e+000,3.2476366294e+000,3.6048011833e+000,5.5829596329e+000,4.9280049308e+000,3.3634739390e+000,4.6051972131e+000,6.1477257551e+000,5.4086134220e+000,2.7742087840e+000,3.3489434770e+000,2.5267732857e+000,2.9883778713e+000,
2.2312500000e+001,3.5962511393e+000,3.9044235272e+000,3.2379192854e+000,3.4939184796e+000,5.6393870515e+000,4.9383328685e+000,3.3656818844e+000,4.5403292204e+000,6.0508283901e+000,5.4775709624e+000,2.7755087540e+000,3.3372160369e+000,2.5347601743e+000,2.8414861988e+000,
2.2406250000e+001,3.6819319892e+000,3.9608862162e+000,3.3252194568e+000,3.5558016554e+000,5.5962696294e+000,4.9543311335e+000,3.3894224648e+000,4.3993836310e+000,6.0937652290e+000,5.4155237791e+000,2.7031549460e+000,3.2768973818e+000,2.5036941109e+000,2.8780835019e+000,
2.2500000000e+001,3.6860080061e+000,3.8942069132e+000,3.2944956060e+000,3.5654609874e+000,5.6766580457e+000,4.9358127202e+000,3.3911626899e+000,4.2895661510e+000,6.0761039522e+000,5.4303589929e+000,2.7154394183e+000,3.3390754069e+000,2.6078294388e+000,2.8124258012e+000,
2.2593750000e+001,3.7007772861e+000,3.7934366344e+000,3.1239892204e+000,3.4787583520e+000,5.6910402483e+000,4.9052995511e+000,3.3413956499e+000,4.2625496040e+000,6.2297311034e+000,5.5708360915e+000,2.6551897988e+000,3.5734167688e+000,2.9788866931e+000,2.8574013579e+000,
2.2687500000e+001,3.5301543115e+000,3.7097204659e+000,3.1965811389e+000,3.4989787992e+000,5.4657315257e+000,4.8733254922e+000,3.3288803183e+000,4.1957304977e+000,6.2143061221e+000,5.4217929246e+000,2.6190811150e+000,3.6724841744e+000,3.0416493892e+000,2.9753571345e+000,
2.2781250000e+001,3.3999297167e+000,3.6731759741e+000,3.2333700828e+000,3.5049524121e+000,5.3740664232e+000,4.8235149371e+000,3.2237730632e+000,4.3358872573e+000,6.2944079103e+000,5.4173167717e+000,2.5121866408e+000,3.6484218654e+000,3.0956882970e+000,2.9086634820e+000,
2.2875000000e+001,3.3728564128e+000,3.6283811042e+000,3.2538601680e+000,3.5337455989e+000,5.3014173970e+000,4.8800051242e+000,3.1623401366e+000,4.3192849237e+000,6.1137500435e+000,5.3883552175e+000,2.4241523403e+000,3.5642384463e+000,3.1523652976e+000,2.7732002341e+000,
2.2968750000e+001,3.3566528328e+000,3.7034311118e+000,3.3128374186e+000,3.5463536682e+000,5.2940555683e+000,4.9048817006e+000,3.1731139727e+000,4.2644314887e+000,6.1632892636e+000,5.3168545547e+000,2.3431370852e+000,3.5379558254e+000,3.1359671449e+000,2.7656475859e+000,
2.3062500000e+001,3.4519813898e+000,3.7655885811e+000,3.3195507102e+000,3.6021409532e+000,5.3414938542e+000,5.0920216269e+000,3.1347686859e+000,4.4186041238e+000,6.1811755102e+000,5.3452452832e+000,2.3282762860e+000,3.4928275901e+000,3.0809787140e+000,2.8450739236e+000,
2.3156250000e+001,3.4706214372e+000,3.7923962859e+000,3.3224062085e+000,3.5505998905e+000,5.3023394826e+000,5.0736813667e+000,3.1078717898e+000,4.3953948734e+000,6.1573917166e+000,5.3252148241e+000,2.3393426975e+000,3.5058142230e+000,3.0404671024e+000,2.8536079989e+000,
2.3250000000e+001,3.5050824696e+000,3.8935666806e+000,3.3316851854e+000,3.5679710851e+000,5.2699634319e+000,5.1279507924e+000,3.0343957026e+000,4.4697332423e+000,6.1778761965e+000,5.3319023689e+000,2.3183305765e+000,3.4903226983e+000,3.0898763525e+000,2.9726929889e+000,
2.3343750000e+001,3.5298838744e+000,3.8537777410e+000,3.3458122350e+000,3.5628499421e+000,5.2556115841e+000,5.0157335421e+000,3.1371468920e+000,4.4676770530e+000,6.2107399028e+000,5.3450976586e+000,2.3616583213e+000,3.5595657790e+000,3.1055994070e+000,3.0402169272e+000,
2.3437500000e+001,3.5355855374e+000,3.8023221738e+000,3.2662534062e+000,3.5244577408e+000,5.2272315532e+000,4.9050467175e+000,3.0712714850e+000,4.5141427759e+000,6.1694803545e+000,5.4184643429e+000,2.3609524884e+000,3.5739451389e+000,3.1837280173e+000,3.0684554428e+000,
2.3531250000e+001,3.5885673167e+000,3.8055986176e+000,3.2812158899e+000,3.4473786116e+000,5.2665268803e+000,4.9234349968e+000,3.1071164758e+000,4.4981496970e+000,6.0603468995e+000,5.4370380075e+000,2.4567283390e+000,3.4329484829e+000,2.9288785487e+000,3.0344542584e+000,
2.3625000000e+001,3.5790157072e+000,3.8420500893e+000,3.2710432084e+000,3.4432700487e+000,5.2880446464e+000,4.9373026912e+000,3.0894673383e+000,4.4818843735e+000,6.0377567888e+000,5.3470324918e+000,2.4752858200e+000,3.2867133859e+000,2.8207997372e+000,2.9936067609e+000,
2.3718750000e+001,3.5312889804e+000,3.7895890973e+000,3.1702697375e+000,3.3336483551e+000,5.2851615419e+000,4.9298787388e+000,3.0248245278e+000,4.4465614631e+000,5.9465898106e+000,5.4405493270e+000,2.4286755701e+000,3.0845846987e+000,2.7667782920e+000,2.9545635893e+000,
2.3812500000e+001,3.5152326657e+000,3.7826625901e+000,3.1100737373e+000,3.2442104412e+000,5.2899079727e+000,4.8842469348e+000,2.9434951061e+000,4.3779390830e+000,5.8940264422e+000,5.5433004575e+000,2.4580267521e+000,3.1648223537e+000,2.6307568280e+000,2.9752122013e+000,
2.3906250000e+001,3.5850953571e+000,3.9178875838e+000,3.1014697359e+000,3.1969750108e+000,5.2838767193e+000,4.9712347782e+000,2.9078737233e+000,4.3507899278e+000,5.8761574288e+000,5.5557648369e+000,2.5402089944e+000,3.2021696958e+000,2.6896245941e+000,3.0623125676e+000,
2.4000000000e+001,3.4589444572e+000,3.7881095024e+000,3.0878255391e+000,3.2777170962e+000,5.2200923325e+000,4.7385288312e+000,2.8146684072e+000,4.3595278992e+000,5.9641365567e+000,5.6018863834e+000,2.5366793777e+000,3.3590579371e+000,2.7526418781e+000,3.1169024632e+000,
2.4093750000e+001,3.3923173391e+000,3.6958723774e+000,3.1024960112e+000,3.1730755154e+000,5.1600491242e+000,4.6952600321e+000,2.9894959139e+000,4.3634630501e+000,5.9670955370e+000,5.5512571685e+000,2.6231493487e+000,3.3587369404e+000,2.8889488782e+000,3.1032470612e+000,
2.4187500000e+001,3.3842402631e+000,3.7005724108e+000,3.1020234392e+000,3.1530612968e+000,5.1690137348e+000,4.7531652963e+000,2.9575042901e+000,4.4091572038e+000,5.9967972836e+000,5.6313081090e+000,2.5830535895e+000,3.3783733670e+000,2.8366326218e+000,3.1356806540e+000,
2.4281250000e+001,3.3946973114e+000,3.6846089097e+000,3.1331769641e+000,3.1165953030e+000,5.1273860787e+000,4.7686761970e+000,2.9570967825e+000,4.3116436147e+000,6.0939756383e+000,5.7958612090e+000,2.6019046482e+000,3.3439347873e+000,2.7906137849e+000,3.0059193200e+000,
2.4375000000e+001,3.3872805673e+000,3.7465453720e+000,3.1096206525e+000,3.1961821486e+000,5.0514455194e+000,4.8429852521e+000,2.8900496031e+000,4.3497021787e+000,6.2677991818e+000,5.7303210938e+000,2.6156655365e+000,3.3511140745e+000,2.8500644465e+000,2.9857938067e+000,
2.4468750000e+001,3.2091748328e+000,3.7102503302e+000,3.1010429194e+000,3.1959036353e+000,4.9857799327e+000,4.8189871066e+000,2.8679973842e+000,4.2719426836e+000,6.2883312330e+000,5.6886132718e+000,2.5533410619e+000,3.3549560954e+000,2.7610826582e+000,3.0693418524e+000,
2.4562500000e+001,3.1815439657e+000,3.6643324788e+000,3.0248236426e+000,3.1789323553e+000,4.9423166197e+000,4.8705087412e+000,2.8241349084e+000,4.2914450102e+000,6.3144248959e+000,5.6840508236e+000,2.5184814940e+000,3.4098474064e+000,2.8434806077e+000,3.1607728818e+000,
2.4656250000e+001,3.1312341269e+000,3.6375686296e+000,3.0307164239e+000,3.1288151728e+000,4.8313918349e+000,4.8270959559e+000,2.8027142311e+000,4.2917290595e+000,6.3035690604e+000,5.6773078944e+000,2.5911054880e+000,3.3695671821e+000,2.9174025469e+000,3.2576334883e+000,
2.4750000000e+001,3.1179573296e+000,3.7064488446e+000,3.0571943542e+000,3.2952507810e+000,4.8629708531e+000,4.8312443720e+000,2.8679043509e+000,4.4110546115e+000,6.3327597662e+000,5.6908265268e+000,2.7826790385e+000,3.4312286851e+000,3.0526318020e+000,3.3151998615e+000,
2.4843750000e+001,3.1357460029e+000,3.6958806376e+000,3.0827838328e+000,3.3208162884e+000,4.9439863859e+000,4.8120619321e+000,3.0543699079e+000,4.3484315044e+000,6.2279100836e+000,5.6487099322e+000,2.7688965588e+000,3.3904024334e+000,3.0638995280e+000,3.2737740042e+000,
2.4937500000e+001,3.1349746669e+000,3.7201276942e+000,3.1456524140e+000,3.3671205830e+000,4.9926324779e+000,4.8922927688e+000,3.1124725013e+000,4.3751224022e+000,6.1924173521e+000,5.6820130297e+000,2.7286573431e+000,3.3764591469e+000,3.0306270755e+000,3.2654556553e+000,
2.5031250000e+001,3.1541564665e+000,3.7494328901e+000,3.0891386910e+000,3.3191710428e+000,4.9942013832e+000,4.8788264453e+000,3.1026828240e+000,4.2856936629e+000,6.1640096979e+000,5.7049235039e+000,2.7516517874e+000,3.2999909622e+000,2.9992032549e+000,3.2537796473e+000,
2.5125000000e+001,3.1852307585e+000,3.7840194732e+000,3.0354540876e+000,3.3566704354e+000,5.0725711725e+000,4.9508574539e+000,2.9975500646e+000,4.1836029379e+000,6.0877065974e+000,5.7339763771e+000,2.7495427573e+000,3.3632613142e+000,2.8901999496e+000,3.2480061229e+000,
2.5218750000e+001,3.2106944997e+000,3.7464954628e+000,3.0383088526e+000,3.3880874916e+000,5.0437006265e+000,4.8614501189e+000,3.0498499273e+000,4.1211418036e+000,6.0349087618e+000,5.4941720152e+000,2.7290149276e+000,3.2573360819e+000,2.9000470502e+000,3.2080863111e+000,
2.5312500000e+001,3.2435299948e+000,3.7952250622e+000,3.0618838860e+000,3.3800248509e+000,5.0727797134e+000,4.9279247698e+000,3.1079611912e+000,4.2960833488e+000,5.8439849080e+000,5.5107398757e+000,2.7551669593e+000,3.2922576314e+000,2.8130765681e+000,3.1929735511e+000,
2.5406250000e+001,3.2705229451e+000,3.7977028660e+000,3.0497819227e+000,3.3236826380e+000,5.0793616203e+000,4.9857303662e+000,3.1619258997e+000,4.4157540951e+000,5.5334290563e+000,5.4777634157e+000,2.7295521396e+000,3.2962561092e+000,2.7754143700e+000,3.2069658001e+000,
2.5500000000e+001,3.3676986423e+000,3.8990412397e+000,3.0868621850e+000,3.3605166128e+000,5.0870104836e+000,5.0349424397e+000,3.2962898520e+000,4.4644247421e+000,5.3954599684e+000,5.5135056204e+000,2.6846632893e+000,3.2222302084e+000,2.8026805467e+000,3.1222510111e+000,
2.5593750000e+001,3.6480262816e+000,4.0784409740e+000,3.3315496522e+000,3.5466290767e+000,5.1475426579e+000,5.1244040750e+000,3.4873473250e+000,4.4994905753e+000,5.6131437268e+000,5.4758256410e+000,2.7400188730e+000,3.1830425628e+000,2.8314566331e+000,3.0316675816e+000,
2.5687500000e+001,3.6862698181e+000,4.1451805376e+000,3.3052232800e+000,3.5513816667e+000,5.2124742176e+000,5.2470272555e+000,3.4780633918e+000,4.5252236438e+000,5.7019260225e+000,5.4506012901e+000,2.6812946610e+000,3.2067674168e+000,2.7735037446e+000,3.0452784237e+000,
2.5781250000e+001,3.7188856471e+000,4.1243734043e+000,3.3299152832e+000,3.4928557663e+000,5.1410549651e+000,5.2862826202e+000,3.4628839473e+000,4.4903186116e+000,5.7243407151e+000,5.3901894091e+000,2.4558328072e+000,2.9980477060e+000,2.6869246936e+000,2.8591156625e+000,
2.5875000000e+001,3.7046080877e+000,4.0552649436e+000,3.3198116447e+000,3.3825403658e+000,5.1268921867e+000,5.2063217354e+000,3.3857216611e+000,4.4946488879e+000,5.9159191362e+000,5.4678361447e+000,2.5262509165e+000,3.2214713389e+000,2.6815120355e+000,2.9598256031e+000,
2.5968750000e+001,3.6770800912e+000,4.0302700567e+000,3.3042141100e+000,3.3147936863e+000,5.2357393733e+000,5.2906822275e+000,3.3631851360e+000,4.5196864666e+000,5.9248983471e+000,5.5038081539e+000,2.5343526079e+000,3.3078294540e+000,2.6541965900e+000,2.9767857679e+000,
2.6062500000e+001,3.6510869532e+000,3.9473709614e+000,3.2595153452e+000,3.1845469964e+000,5.1492380623e+000,5.2720402257e+000,3.3194135484e+000,4.5026863317e+000,6.1594913825e+000,5.5551132186e+000,2.4870432617e+000,3.4547735826e+000,2.7399221729e+000,3.0192749567e+000,
2.6156250000e+001,3.6566121945e+000,3.9886834958e+000,3.2510427596e+000,3.2234330181e+000,5.1900258435e+000,5.2456685157e+000,3.2873257367e+000,4.5291242770e+000,6.1387082378e+000,5.4877221143e+000,2.4967285012e+000,3.4371125252e+000,2.8326707788e+000,2.9465615448e+000,
2.6250000000e+001,3.6637588390e+000,3.9210721122e+000,3.1977375408e+000,3.2576600062e+000,5.1711384968e+000,5.1946204675e+000,3.2229555367e+000,4.4925751532e+000,6.1358121408e+000,5.4633148960e+000,2.4369682400e+000,3.4483845664e+000,2.8168075468e+000,2.8825210318e+000,
2.6343750000e+001,3.6413831775e+000,3.8824727749e+000,3.1880820520e+000,3.2470398748e+000,5.1776058383e+000,5.1646602203e+000,3.1464139611e+000,4.4670530874e+000,6.2393636452e+000,5.4598087161e+000,2.4625567857e+000,3.4571911629e+000,2.8191456454e+000,2.8374211280e+000,
2.6437500000e+001,3.5413104912e+000,3.8607344265e+000,3.1810116513e+000,3.2269263924e+000,5.0736267874e+000,5.0597028936e+000,3.0098524136e+000,4.3566892478e+000,6.2268816276e+000,5.3587917871e+000,2.5344411883e+000,3.5367692345e+000,2.8904830096e+000,2.9330880916e+000,
2.6531250000e+001,3.3689985744e+000,3.7237425938e+000,3.0751697885e+000,3.0850047136e+000,5.1655403605e+000,5.0183318022e+000,2.7765983240e+000,4.3586083537e+000,6.3508872107e+000,5.3277161675e+000,2.5933904783e+000,3.5655850580e+000,2.7514679014e+000,3.0353435632e+000,
2.6625000000e+001,3.1856211605e+000,3.6022984269e+000,3.0124912214e+000,2.9017928336e+000,5.1046064539e+000,4.8841494759e+000,2.7782539799e+000,4.3389889487e+000,6.1775431880e+000,5.3558285781e+000,2.4996763183e+000,3.6076933247e+000,2.6838923515e+000,3.0494152608e+000,
2.6718750000e+001,3.0977557345e+000,3.4433736524e+000,3.0182639787e+000,2.9017010526e+000,5.2586132162e+000,4.6936367439e+000,2.7189971952e+000,4.1816860569e+000,6.3006215255e+000,5.3938881546e+000,2.5734833619e+000,3.6939668162e+000,2.6372747337e+000,3.1804836461e+000,
2.6812500000e+001,3.0171887210e+000,3.4036477619e+000,2.9690990774e+000,2.9951563990e+000,5.2953836542e+000,4.6907076538e+000,2.6461041801e+000,4.1692109123e+000,6.2799710378e+000,5.4121388836e+000,2.5873163455e+000,3.7185699767e+000,2.6391573872e+000,3.2127279961e+000,
2.6906250000e+001,3.0790182105e+000,3.4273389905e+000,2.9170142224e+000,3.0219852567e+000,5.2594937652e+000,4.6498535399e+000,2.5666528949e+000,4.1326878937e+000,6.2458831013e+000,5.3125144201e+000,2.6682074988e+000,3.5757903466e+000,2.7371762317e+000,3.1384600283e+000,
2.7000000000e+001,3.1553075925e+000,3.5249215535e+000,3.0433283550e+000,3.1829402476e+000,5.2028121910e+000,4.6027666204e+000,2.6679736837e+000,4.2507604950e+000,6.1746586590e+000,5.3218472585e+000,2.6829838490e+000,3.5479881791e+000,2.7014115947e+000,3.0314944041e+000,
2.7093750000e+001,3.1196743122e+000,3.4732603774e+000,3.0277389011e+000,3.1051572160e+000,5.3968205114e+000,4.4952796813e+000,2.7498125471e+000,4.3092315206e+000,6.0460105737e+000,5.4008428937e+000,2.6755586801e+000,3.4833642333e+000,2.6812546427e+000,2.9762900185e+000,
2.7187500000e+001,3.1598649319e+000,3.4978095865e+000,3.1018130981e+000,3.1372724390e+000,5.4481689426e+000,4.6079680600e+000,2.8143596991e+000,4.3690224436e+000,6.0530385569e+000,5.4113155011e+000,2.6913316028e+000,3.5216710482e+000,2.5878536057e+000,3.0115167079e+000,
2.7281250000e+001,3.1823700445e+000,3.5919571248e+000,3.1361408689e+000,3.1693810229e+000,5.5327548757e+000,4.7604325910e+000,2.9065129007e+000,4.3619162987e+000,6.0001338308e+000,5.4438784139e+000,2.6404036100e+000,3.4753742544e+000,2.5679953615e+000,2.9786691416e+000,
2.7375000000e+001,3.2826132297e+000,3.6931781000e+000,3.2863594214e+000,3.2606094357e+000,5.5479617491e+000,4.8121312981e+000,2.8992357247e+000,4.3229174527e+000,5.9973616243e+000,5.4209482160e+000,2.5949247761e+000,3.3958364371e+000,2.5651392294e+000,2.8644266930e+000,
2.7468750000e+001,3.3416402852e+000,3.7311149775e+000,3.2506983793e+000,3.2327074240e+000,5.5496520975e+000,4.7822743518e+000,2.8069352281e+000,4.3878403024e+000,5.9446924484e+000,5.5598492860e+000,2.5113310863e+000,3.3578879421e+000,2.5135155809e+000,2.7244416601e+000,
2.7562500000e+001,3.3791867539e+000,3.7949845224e+000,3.3087255116e+000,3.1565999218e+000,5.5251935959e+000,4.7589572972e+000,2.8084249880e+000,4.3746584941e+000,5.9235651163e+000,5.6645406368e+000,2.4681336539e+000,3.3839760015e+000,2.6511951610e+000,2.8662227792e+000,
2.7656250000e+001,3.4117190035e+000,3.7097647110e+000,3.2730076123e+000,3.0652530329e+000,5.4016743050e+000,4.8031829440e+000,2.7480979528e+000,4.3055437207e+000,5.9053850065e+000,5.7592826550e+000,2.4699591368e+000,3.3225234789e+000,2.6831480341e+000,2.8378196725e+000,
2.7750000000e+001,3.4480130997e+000,3.8076612516e+000,3.2881806138e+000,3.1194075335e+000,5.3749498100e+000,4.8586306080e+000,2.8503771732e+000,4.3164337521e+000,5.7199367376e+000,5.7504617647e+000,2.3408643008e+000,3.2266640956e+000,2.7109404866e+000,2.7256131570e+000,
2.7843750000e+001,3.5156077378e+000,3.8568014947e+000,3.3271872323e+000,3.1492563505e+000,5.4641716022e+000,4.8526866766e+000,2.9085524182e+000,4.3125321061e+000,5.6395486453e+000,5.8314062407e+000,2.0895739365e+000,3.3429599398e+000,2.7299546137e+000,2.7558609772e+000,
2.7937500000e+001,3.5395091110e+000,3.9070924162e+000,3.2298044259e+000,3.0262253839e+000,5.4233475414e+000,4.9138366879e+000,2.9848793716e+000,4.3577549535e+000,5.4424830774e+000,5.8453216794e+000,2.1225348606e+000,3.3526371085e+000,2.8316367819e+000,2.7874785440e+000,
2.8031250000e+001,3.5729871932e+000,3.8937607490e+000,3.2736502126e+000,3.0042509348e+000,5.4172186144e+000,4.8395072044e+000,3.0885393461e+000,4.2666089135e+000,5.4510177231e+000,5.7729819944e+000,2.2834172545e+000,3.3191579066e+000,2.8559687942e+000,2.8075005810e+000,
2.8125000000e+001,3.5895794461e+000,3.9240546602e+000,3.3023213348e+000,3.0476777696e+000,5.2232417187e+000,4.8827636708e+000,3.0308157283e+000,4.2704074524e+000,5.5712718157e+000,5.8478751814e+000,2.3848011451e+000,3.3844301829e+000,2.8845269002e+000,2.8540570548e+000,
2.8218750000e+001,3.6337059887e+000,3.9977045528e+000,3.3722286210e+000,3.1909964629e+000,5.2327481374e+000,4.8891679150e+000,3.1276868018e+000,4.2551089478e+000,5.5432188075e+000,5.8754527779e+000,2.3832607820e+000,3.3659889904e+000,2.9949534922e+000,2.8073796489e+000,
2.8312500000e+001,3.5912407890e+000,3.9206613022e+000,3.2797154505e+000,3.0515618453e+000,5.1990706086e+000,4.7166223808e+000,3.1515893663e+000,4.2389340635e+000,5.5107531428e+000,5.8721329544e+000,2.4833795464e+000,3.3589284429e+000,3.0463296247e+000,2.8229471979e+000,
2.8406250000e+001,3.5921851010e+000,3.8431635447e+000,3.1541900398e+000,2.9325016830e+000,5.2433359744e+000,4.7849976259e+000,3.2815179966e+000,4.1268135831e+000,5.4857334888e+000,5.8620909931e+000,2.5131018440e+000,3.3241041398e+000,3.0157232042e+000,2.8410810759e+000,
2.8500000000e+001,3.5569693036e+000,3.8774730196e+000,3.1017112635e+000,3.0280873636e+000,5.2803670841e+000,4.8557248789e+000,3.3426737469e+000,4.1302382205e+000,5.4089405707e+000,5.8668256584e+000,2.5751180683e+000,3.3457259150e+000,3.0016624464e+000,2.7561572834e+000,
2.8593750000e+001,3.5418380618e+000,3.7723121178e+000,3.0845609786e+000,3.1777215860e+000,5.3011761688e+000,4.7906033192e+000,3.3674458436e+000,4.1510556303e+000,5.4692662152e+000,5.8534349739e+000,2.5883739586e+000,3.4049361635e+000,3.0218825398e+000,2.6949697328e+000,
2.8687500000e+001,3.5031638970e+000,3.8272349986e+000,3.0532990449e+000,3.2174980589e+000,5.3324947459e+000,4.8118595121e+000,3.3481715722e+000,4.1411232633e+000,5.6211384455e+000,5.7271128174e+000,2.6396047110e+000,3.3941251350e+000,3.0643980310e+000,2.6824767350e+000,
2.8781250000e+001,3.5860933560e+000,3.8270691509e+000,3.1787363136e+000,3.3088783220e+000,5.4935517039e+000,4.8156565013e+000,3.4338711014e+000,4.1172745954e+000,5.7061471543e+000,5.7054863155e+000,2.7628953331e+000,3.3144062758e+000,3.0826786058e+000,2.4418087184e+000,
2.8875000000e+001,3.5783553196e+000,3.9193897281e+000,3.2113148036e+000,3.4123709857e+000,5.4520168226e+000,4.8010106637e+000,3.4406675423e+000,4.3053251698e+000,5.7816733516e+000,5.6428401357e+000,2.8684900361e+000,3.3254764075e+000,3.1343529408e+000,2.5903183497e+000,
2.8968750000e+001,3.5265835384e+000,3.8991029360e+000,3.2462210979e+000,3.4956891789e+000,5.4547518837e+000,4.7003909556e+000,3.3612167281e+000,4.3672409518e+000,5.9437456389e+000,5.6058195169e+000,2.8520347021e+000,3.3236226030e+000,3.0451081253e+000,2.7062254060e+000,
2.9062500000e+001,3.4893633971e+000,3.8585532822e+000,3.2144975203e+000,3.5360151093e+000,5.4705951046e+000,4.7021336340e+000,3.3812420443e+000,4.3240985239e+000,5.9266849914e+000,5.5979604660e+000,2.7599150622e+000,3.3774740254e+000,3.0828303689e+000,2.6912593034e+000,
2.9156250000e+001,3.4796332516e+000,3.8741651377e+000,3.2072390775e+000,3.5370266156e+000,5.5067702832e+000,4.6876786825e+000,3.2816257469e+000,4.3011206865e+000,5.8688772941e+000,5.5245998319e+000,2.6705324126e+000,3.3968995592e+000,3.1190875629e+000,2.7759352783e+000,
2.9250000000e+001,3.5618821196e+000,3.9739645865e+000,3.1700189785e+000,3.5935914895e+000,5.5884699731e+000,4.6883498725e+000,3.2173909423e+000,4.3655706009e+000,5.9205452013e+000,5.5540813678e+000,2.6703764606e+000,3.4084497967e+000,3.0445762056e+000,2.7637302985e+000,
2.9343750000e+001,3.6355892179e+000,4.0686824258e+000,3.2546391377e+000,3.6809162094e+000,5.5298935520e+000,4.7182276902e+000,3.3449151338e+000,4.4663232864e+000,5.9321160908e+000,5.5614159922e+000,2.5304211245e+000,3.4987694188e+000,3.0769834939e+000,2.7795499568e+000,
2.9437500000e+001,3.5952017620e+000,4.0117599728e+000,3.2130884898e+000,3.6654182265e+000,5.5637692124e+000,4.6082618662e+000,3.3153550748e+000,4.5121013082e+000,5.9420020789e+000,5.5331616327e+000,2.5419606737e+000,3.4975152480e+000,3.1208905219e+000,2.7872817119e+000,
2.9531250000e+001,3.5925292455e+000,4.0236749250e+000,3.2568190547e+000,3.6438652888e+000,5.5166646937e+000,4.6097612179e+000,3.3852092006e+000,4.5326205264e+000,5.8840224603e+000,5.6567510092e+000,2.7070628634e+000,3.5053630485e+000,3.1883321664e+000,2.7186369097e+000,
2.9625000000e+001,3.6274648302e+000,4.0746081432e+000,3.3370658251e+000,3.6440646710e+000,5.5874377473e+000,4.7805112640e+000,3.3977743722e+000,4.5106737220e+000,5.8253545124e+000,5.8038028186e+000,2.7789429969e+000,3.5343638039e+000,3.1852682286e+000,2.8179202737e+000,
2.9718750000e+001,3.5413686446e+000,3.9375796878e+000,3.2494549768e+000,3.5869525560e+000,5.4647877129e+000,4.7220288657e+000,3.3227435379e+000,4.5117993530e+000,5.8170038422e+000,5.7950747624e+000,2.7511630430e+000,3.5769936393e+000,3.2018470565e+000,2.9089805869e+000,
2.9812500000e+001,3.5787801711e+000,3.9429472393e+000,3.2837717597e+000,3.5635382557e+000,5.5820819358e+000,4.6769453214e+000,3.2914768034e+000,4.4042397656e+000,5.7390671223e+000,5.7617682555e+000,2.6129725283e+000,3.6583550571e+000,3.1888348389e+000,3.0673539782e+000,
2.9906250000e+001,3.5807626767e+000,3.8957095818e+000,3.2636589695e+000,3.5737803896e+000,5.5535212297e+000,4.7500682587e+000,3.2173046485e+000,4.2191028702e+000,5.5223003173e+000,5.7657457942e+000,2.5947577533e+000,3.6065133887e+000,3.0767768632e+000,2.9770063502e+000,
3.0000000000e+001,3.6366489781e+000,3.9568150598e+000,3.3001347149e+000,3.5090190629e+000,5.6193194767e+000,4.7726980636e+000,3.2930295130e+000,4.1502721772e+000,5.5168716707e+000,5.6687397743e+000,2.5458577241e+000,3.4623197429e+000,3.1170738073e+000,2.8595670877e+000,
3.0093750000e+001,3.6234420842e+000,3.9751611294e+000,3.2777948138e+000,3.5021832970e+000,5.5797818749e+000,4.8900858140e+000,3.2715806618e+000,4.1916532723e+000,5.5641503846e+000,5.6989218829e+000,2.6241283383e+000,3.3170007528e+000,3.1318744732e+000,2.7975050299e+000,
3.0187500000e+001,3.7310782571e+000,3.9492637953e+000,3.4175708453e+000,3.4941947623e+000,5.5802609479e+000,4.8386391702e+000,3.3520911131e+000,4.2492600737e+000,5.5470046621e+000,5.7646194743e+000,2.5838793330e+000,3.4057807062e+000,3.1419702667e+000,2.9605765756e+000,
3.0281250000e+001,3.5812592861e+000,3.8546069432e+000,3.4067519204e+000,3.3501148865e+000,5.4180265679e+000,4.7915896728e+000,3.3142334617e+000,4.1473304943e+000,5.4798284931e+000,5.7355000244e+000,2.6083929017e+000,3.3447906009e+000,3.1157081334e+000,2.9725487763e+000,
3.0375000000e+001,3.5381695493e+000,3.7367031658e+000,3.3931160043e+000,3.2392682768e+000,5.3560904041e+000,4.7950337334e+000,3.2415836527e+000,4.0605840777e+000,5.5567941510e+000,5.7805689759e+000,2.6398054161e+000,3.2712382281e+000,3.0290144911e+000,2.8956264609e+000,
3.0468750000e+001,3.5918531261e+000,3.7482640314e+000,3.3970911431e+000,3.2761355979e+000,5.3955687221e+000,4.7816688681e+000,3.2661856502e+000,3.9593985250e+000,5.6244523661e+000,5.7867880756e+000,2.6730948664e+000,3.4248861739e+000,3.0952811987e+000,2.9478495370e+000,
3.0562500000e+001,3.5732573996e+000,3.6246450501e+000,3.3399643328e+000,3.1630233857e+000,5.3607161120e+000,4.7334391164e+000,3.1515294027e+000,3.9939406435e+000,5.6653629247e+000,5.5797656426e+000,2.4407707756e+000,3.3445450469e+000,2.9307089938e+000,2.9546835949e+000,
3.0656250000e+001,3.5375605144e+000,3.6134227708e+000,3.3236261546e+000,3.1644944338e+000,5.2528330831e+000,4.5208067759e+000,3.0615092622e+000,4.1736292502e+000,5.6295455491e+000,5.4680198523e+000,2.4149811623e+000,3.2856545674e+000,2.8787135549e+000,2.9124680383e+000,
3.0750000000e+001,3.4346080400e+000,3.5847535189e+000,3.2501630923e+000,3.1351308152e+000,5.0344834161e+000,4.4560618520e+000,3.0723572625e+000,4.3342134744e+000,5.7164922268e+000,5.6002037874e+000,2.3423553481e+000,3.2196162602e+000,2.8773625754e+000,2.8346160767e+000,
3.0843750000e+001,3.3887962141e+000,3.4755338121e+000,3.1632876056e+000,2.9991270682e+000,5.0491510052e+000,4.4274830469e+000,3.0331028354e+000,4.3355715717e+000,5.8972098306e+000,5.6100054679e+000,2.3564440556e+000,3.3130569792e+000,2.8531853040e+000,2.7994316874e+000,
3.0937500000e+001,3.2915854885e+000,3.4018566412e+000,3.0919773665e+000,2.8190012249e+000,5.1089413760e+000,4.3658248625e+000,2.9758578112e+000,4.3908335944e+000,6.0427726133e+000,5.6441661072e+000,2.3170715203e+000,3.2999966502e+000,2.8527977796e+000,2.7648625974e+000,
3.1031250000e+001,3.1960793756e+000,3.3485795239e+000,3.0094632254e+000,2.7420062015e+000,5.0981425689e+000,4.3181936340e+000,2.8126108569e+000,4.4040472659e+000,6.1262285408e+000,5.6342478840e+000,2.3041436080e+000,3.3263479226e+000,2.6655141994e+000,2.8092101791e+000,
3.1125000000e+001,3.1557001490e+000,3.2419779197e+000,3.0160094277e+000,2.6689494845e+000,5.1215229987e+000,4.1469400398e+000,2.8903788811e+000,4.3592222771e+000,6.1160941373e+000,5.5707771242e+000,2.3334070310e+000,3.3589123755e+000,2.5584685160e+000,2.8847214180e+000,
3.1218750000e+001,3.1153302088e+000,3.0735410226e+000,2.8739522535e+000,2.6336455891e+000,5.3263634513e+000,4.3378162659e+000,2.9773812885e+000,4.3458804981e+000,6.1544622700e+000,5.5713861621e+000,2.4060504038e+000,3.3437417930e+000,2.4915275486e+000,2.8179042437e+000,
3.1312500000e+001,3.2365591194e+000,3.1835039684e+000,2.9213767358e+000,2.9846258036e+000,5.3722223010e+000,4.4409839719e+000,2.9463703548e+000,4.4949522071e+000,6.1513484423e+000,5.4791171615e+000,2.4483383772e+000,3.2963384099e+000,2.5272690713e+000,2.8158286115e+000,
3.1406250000e+001,3.1238494667e+000,3.1778167876e+000,2.8491198701e+000,2.9676798276e+000,5.3686576479e+000,4.5858912480e+000,2.7391550403e+000,4.5233301567e+000,6.1171231996e+000,5.4590410992e+000,2.3705239075e+000,3.2620056152e+000,2.4428256857e+000,2.8875547100e+000,
3.1500000000e+001,3.1178038266e+000,3.3434412335e+000,2.8303174958e+000,3.0937237614e+000,5.3741921307e+000,4.6097807809e+000,2.7630826117e+000,4.5708081203e+000,6.0474890833e+000,5.3518965393e+000,2.3843802828e+000,3.2736360811e+000,2.4799656674e+000,2.8474850976e+000,
3.1593750000e+001,3.1736830800e+000,3.3975335761e+000,2.8370477295e+000,3.0942771700e+000,5.4380991670e+000,4.6411982186e+000,2.8305799000e+000,4.5274350129e+000,6.0589128909e+000,5.3866409660e+000,2.4194964949e+000,3.2327928510e+000,2.4624239789e+000,2.7128915766e+000,
3.1687500000e+001,3.3577804232e+000,3.6367614569e+000,3.0117310939e+000,3.3667607912e+000,5.5349061753e+000,4.7042437706e+000,2.9403261951e+000,4.5100270360e+000,6.0769251660e+000,5.3774185201e+000,2.5094244752e+000,3.3363278964e+000,2.6533674425e+000,2.7280466549e+000,
3.1781250000e+001,3.4930536125e+000,3.6920178998e+000,3.0057526115e+000,3.4352544089e+000,5.6431336408e+000,4.7333278876e+000,3.0650648208e+000,4.5723187660e+000,5.9666051342e+000,5.2920987960e+000,2.5741695567e+000,3.3507431678e+000,2.6282012915e+000,2.7953751492e+000,
3.1875000000e+001,3.5830808115e+000,3.7534106992e+000,3.1699402283e+000,3.4578246513e+000,5.6316088274e+000,4.7895974776e+000,3.1377432322e+000,4.6208435421e+000,5.7363932304e+000,5.2853025894e+000,2.6110900762e+000,3.2340699603e+000,2.5965728634e+000,2.7854763168e+000,
3.1968750000e+001,3.5921305380e+000,3.6746146564e+000,3.1823314746e+000,3.4142064207e+000,5.5387087135e+000,4.7708257427e+000,3.1812500394e+000,4.6171152999e+000,5.5932067833e+000,5.3446145739e+000,2.6172265446e+000,3.2847425618e+000,2.7382560923e+000,2.9580492691e+000,
3.2062500000e+001,3.6925683130e+000,3.8230241214e+000,3.2531888289e+000,3.6515929418e+000,5.5041575341e+000,4.8590229260e+000,3.1908085505e+000,4.7290092185e+000,5.4817825553e+000,5.4153033063e+000,2.5955575304e+000,3.3412361554e+000,2.8651014969e+000,2.9426508240e+000,
3.2156250000e+001,3.5808628757e+000,3.8475033924e+000,3.2621133812e+000,3.7301394310e+000,5.3392197638e+000,4.8637055339e+000,3.0298034871e+000,4.7579057255e+000,5.7914035155e+000,5.4798821587e+000,2.6428088721e+000,3.3488875607e+000,2.9700172832e+000,2.9509962661e+000,
3.2250000000e+001,3.6207731428e+000,3.9611242580e+000,3.3225899709e+000,3.7651540703e+000,5.3024392091e+000,4.9255446347e+000,2.8754663157e+000,4.7958327035e+000,5.8134446289e+000,5.4498631454e+000,2.6021864881e+000,3.4354119054e+000,2.9970138107e+000,3.1605163335e+000,
3.2343750000e+001,3.6791950116e+000,3.9491014904e+000,3.3313215538e+000,3.6757900213e+000,5.3087028972e+000,4.8553842946e+000,2.8422681933e+000,4.7065632072e+000,5.7763468655e+000,5.4892960143e+000,2.5995725451e+000,3.4694514152e+000,3.0132268530e+000,3.2123346130e+000,
3.2437500000e+001,3.7201428649e+000,3.9488854635e+000,3.3441634427e+000,3.6638389995e+000,5.3001673228e+000,4.8317556674e+000,2.8862360722e+000,4.7515911987e+000,5.7776932790e+000,5.5179672285e+000,2.6489714827e+000,3.4430849970e+000,2.9505826005e+000,3.2399742744e+000,
3.2531250000e+001,3.6387846266e+000,3.8980357644e+000,3.3587480199e+000,3.6601842310e+000,5.2027277161e+000,4.8592859657e+000,3.0597146110e+000,4.7452336353e+000,5.7849641932e+000,5.5309504410e+000,2.6773408980e+000,3.4764915734e+000,2.9217185824e+000,3.3093224927e+000,
3.2625000000e+001,3.7042334487e+000,3.9472031586e+000,3.3858245469e+000,3.7236590026e+000,5.2153694584e+000,4.9064576961e+000,3.0060177609e+000,4.7018837078e+000,5.7180684932e+000,5.5069157079e+000,2.6581718140e+000,3.4981017008e+000,2.9305571353e+000,3.3089046636e+000,
3.2718750000e+001,3.6228918922e+000,3.8631326374e+000,3.3928799380e+000,3.6257045771e+000,5.1468090202e+000,4.9537244348e+000,3.1832528875e+000,4.6761102463e+000,5.7706987168e+000,5.4185255510e+000,2.6318244995e+000,3.4140768052e+000,2.8503393364e+000,3.3220830085e+000,
3.2812500000e+001,3.4910791553e+000,3.7588957708e+000,3.3397042478e+000,3.5891272982e+000,4.8751187333e+000,4.9715546922e+000,3.1405392818e+000,4.5432509258e+000,5.8154372337e+000,5.4389390378e+000,2.6629234931e+000,3.4450413227e+000,2.8048009687e+000,3.3337951574e+000,
3.2906250000e+001,3.5471487251e+000,3.8951341619e+000,3.3694373984e+000,3.6830508614e+000,4.8833083490e+000,4.9750949857e+000,3.0902058204e+000,4.5411892679e+000,5.7439726312e+000,5.3622878559e+000,2.5830159412e+000,3.4669333111e+000,2.7719831924e+000,3.3115803020e+000,
3.3000000000e+001,3.5720538061e+000,3.9055649662e+000,3.4096697404e+000,3.6767610958e+000,4.8864696429e+000,4.9889466067e+000,3.1354022280e+000,4.5337324281e+000,5.7501738668e+000,5.2632182718e+000,2.5629606136e+000,3.4015736123e+000,2.6343496262e+000,3.2344717272e+000,
3.3093750000e+001,3.6038025555e+000,3.8997077948e+000,3.3802666162e+000,3.5723040827e+000,5.0076323489e+000,4.9847180081e+000,3.1838775833e+000,4.5259277142e+000,5.7216401758e+000,5.1673124334e+000,2.5721393541e+000,3.2774924528e+000,2.5532185376e+000,3.1655217732e+000,
3.3187500000e+001,3.6671222972e+000,3.9236532085e+000,3.3726940070e+000,3.5690079663e+000,5.2571166210e+000,4.9778282109e+000,3.1589639826e+000,4.5628728817e+000,5.4539665017e+000,5.3273616875e+000,2.5001019112e+000,3.3521431491e+000,2.7245336644e+000,3.1202966410e+000,
3.3281250000e+001,3.5895159290e+000,3.8678706333e+000,3.3839490134e+000,3.6076865829e+000,5.2605830159e+000,4.9834062460e+000,3.2305359076e+000,4.5471364024e+000,5.3805149999e+000,5.3532107143e+000,2.4971231316e+000,3.3036624763e+000,2.6714159980e+000,3.1647756927e+000,
3.3375000000e+001,3.6769922221e+000,3.9827335799e+000,3.4029787462e+000,3.6786430671e+000,5.3945935704e+000,5.0210439970e+000,3.2414054805e+000,4.6245507708e+000,5.3865665189e+000,5.4898790812e+000,2.5192413033e+000,3.2708822040e+000,2.8598731665e+000,3.1193955442e+000,
3.3468750000e+001,3.7642764818e+000,4.0172393867e+000,3.3956542034e+000,3.6843697442e+000,5.4404708200e+000,5.0560569145e+000,3.2026928949e+000,4.6027987664e+000,5.3602488496e+000,5.4206243430e+000,2.4269858879e+000,3.4185683666e+000,2.8761831948e+000,3.2467420978e+000,
3.3562500000e+001,3.7851289663e+000,4.0410243255e+000,3.3732545292e+000,3.6654419892e+000,5.4573901263e+000,5.0544796557e+000,3.1801070709e+000,4.6743997438e+000,5.3680056304e+000,5.6371954384e+000,2.4556726263e+000,3.4075775316e+000,2.8799718445e+000,3.2460357224e+000,
3.3656250000e+001,3.7363058311e+000,3.9678145242e+000,3.3336068339e+000,3.6297323556e+000,5.5080283040e+000,5.0540488217e+000,3.1343723886e+000,4.6954048882e+000,5.6307044090e+000,5.6203540545e+000,2.4536418726e+000,3.4349061536e+000,2.9878046750e+000,3.2746521521e+000,
3.3750000000e+001,3.7679115653e+000,4.0212116099e+000,3.3435302900e+000,3.5741085950e+000,5.5847075246e+000,5.0396329608e+000,2.8869771996e+000,4.7211992589e+000,5.5653258093e+000,5.6347390222e+000,2.4140608770e+000,3.4479845356e+000,3.0609408857e+000,3.2754910994e+000,
3.3843750000e+001,3.6674339347e+000,3.9799957313e+000,3.3232538995e+000,3.5435350356e+000,5.5590844897e+000,4.9434305427e+000,2.9156716593e+000,4.6888912728e+000,5.6226614068e+000,5.6785238636e+000,2.3494886702e+000,3.5093857974e+000,3.1652579798e+000,3.2989840777e+000,
3.3937500000e+001,3.6449266794e+000,3.9900402771e+000,3.2820610552e+000,3.4918403353e+000,5.5804434871e+000,4.9727879678e+000,3.0790345224e+000,4.6857053449e+000,5.7572650516e+000,5.7170778360e+000,2.5049327827e+000,3.5327258860e+000,3.2384096091e+000,3.3443978271e+000,
3.4031250000e+001,3.7027991079e+000,3.9885673459e+000,3.2931757981e+000,3.4247962277e+000,5.5721520059e+000,5.0519958544e+000,3.0504977442e+000,4.6087757074e+000,5.7540150116e+000,5.7616717762e+000,2.5734046618e+000,3.6171332113e+000,3.3063339820e+000,3.3503069886e+000,
3.4125000000e+001,3.7137372275e+000,3.9962240431e+000,3.3596555280e+000,3.5392034004e+000,5.4798129516e+000,4.9741830300e+000,3.0988689372e+000,4.6773053996e+000,5.7732161342e+000,5.7608199100e+000,2.6220824710e+000,3.5953691015e+000,3.2520885967e+000,3.3226434040e+000,
3.4218750000e+001,3.6367543252e+000,3.9472098779e+000,3.2480906661e+000,3.5180814483e+000,5.4021334244e+000,4.8941489528e+000,3.1110284383e+000,4.6115344423e+000,5.7936856195e+000,5.6600810957e+000,2.5896939848e+000,3.5367711640e+000,3.1573771716e+000,3.1277183344e+000,
3.4312500000e+001,3.6604697335e+000,3.8835333044e+000,3.2676948275e+000,3.4491497117e+000,5.4070307691e+000,4.7931381231e+000,3.0544567045e+000,4.6090598726e+000,5.7820222594e+000,5.5863113201e+000,2.5550061643e+000,3.5285952712e+000,3.1492291851e+000,3.0752561895e+000,
3.4406250000e+001,3.5095746944e+000,3.8390230266e+000,3.2871169025e+000,3.4028317711e+000,5.2651572574e+000,4.7521908458e+000,3.0587756926e+000,4.5863608754e+000,5.8149285305e+000,5.6321697356e+000,2.5051022591e+000,3.5784984846e+000,2.9704589041e+000,3.0853655203e+000,
3.4500000000e+001,3.3939802376e+000,3.8247798867e+000,3.3085169737e+000,3.4184668343e+000,5.1784474983e+000,4.7351231230e+000,2.9284145545e+000,4.5537633383e+000,5.8459845435e+000,5.6177640753e+000,2.3794025038e+000,3.5740509793e+000,2.9738065932e+000,3.0079802558e+000,
3.4593750000e+001,3.4379582491e+000,3.8399556353e+000,3.3202237771e+000,3.4674195500e+000,5.1684724057e+000,4.7837789304e+000,3.0771495495e+000,4.5076477603e+000,5.7996989685e+000,5.5065648243e+000,2.3620098971e+000,3.5432926559e+000,2.9520811961e+000,2.9389922433e+000,
3.4687500000e+001,3.3928679172e+000,3.8022933864e+000,3.2757919665e+000,3.4594414802e+000,4.9993107622e+000,4.6634548738e+000,3.1170737158e+000,4.4856320403e+000,5.8840069139e+000,5.5605626644e+000,2.5286252652e+000,3.5505677588e+000,2.8603958904e+000,2.9516221558e+000,
3.4781250000e+001,3.4053155482e+000,3.7975303726e+000,3.3157607743e+000,3.5748036835e+000,4.9869755727e+000,4.7040906271e+000,3.1335094867e+000,4.5248765492e+000,5.9023712114e+000,5.4998257007e+000,2.6332027289e+000,3.5396655520e+000,2.8938451614e+000,3.0387650966e+000,
3.4875000000e+001,3.4929107402e+000,3.8023677694e+000,3.2821906892e+000,3.5986424794e+000,5.0316967807e+000,4.6333819114e+000,3.0587523278e+000,4.5457893945e+000,5.6753400408e+000,5.5354099542e+000,2.6225290579e+000,3.5940683742e+000,3.0319646631e+000,3.1804249992e+000,
3.4968750000e+001,3.4875192932e+000,3.8114257155e+000,3.2326812564e+000,3.5644686793e+000,4.9866340006e+000,4.5339682293e+000,2.9819131215e+000,4.5629750652e+000,5.6368048869e+000,5.5656320985e+000,2.5818890599e+000,3.4387337367e+000,2.9193602866e+000,3.1275185652e+000,
3.5062500000e+001,3.4194903881e+000,3.7636374099e+000,3.2736688889e+000,3.6573761252e+000,5.1416111962e+000,4.4384720056e+000,3.0576596629e+000,4.5277744470e+000,5.6546279263e+000,5.5719921701e+000,2.6143160116e+000,3.4911907505e+000,3.0174150129e+000,3.2180769540e+000,
3.5156250000e+001,3.3571695970e+000,3.6775102004e+000,3.2189595747e+000,3.5369914536e+000,5.0822637540e+000,4.4606837093e+000,3.0248188581e+000,4.4882125631e+000,5.7513604379e+000,5.6223860933e+000,2.6276424415e+000,3.5780427012e+000,3.0768665595e+000,3.3233025504e+000,
3.5250000000e+001,3.3631072611e+000,3.6487605708e+000,3.2499147720e+000,3.5638336557e+000,5.0153401353e+000,4.5487580862e+000,2.9952977733e+000,4.4518840508e+000,5.6964565006e+000,5.6399029383e+000,2.6384570299e+000,3.6244632659e+000,3.0964217318e+000,3.3722112523e+000,
3.5343750000e+001,3.3770129673e+000,3.6146690686e+000,3.2247789816e+000,3.6060192632e+000,5.0239343630e+000,4.5531705446e+000,3.0715238172e+000,4.3858938812e+000,5.7460330620e+000,5.6332377675e+000,2.6491283549e+000,3.5902730894e+000,3.0867202396e+000,3.3492324219e+000,
3.5437500000e+001,3.3405097746e+000,3.5261617656e+000,3.1535273234e+000,3.5730239074e+000,5.0061714838e+000,4.4691167489e+000,3.0729391985e+000,4.3173904151e+000,5.7128024286e+000,5.5179101454e+000,2.6169889177e+000,3.3841898314e+000,3.0997928272e+000,3.3451938380e+000,
3.5531250000e+001,3.2592616768e+000,3.4291651748e+000,3.0759605811e+000,3.5477232554e+000,4.9978645477e+000,4.3785632459e+000,3.0493969090e+000,4.1806086346e+000,5.7814797415e+000,5.5054481489e+000,2.6195792739e+000,3.4518320077e+000,3.0569250160e+000,3.3510648037e+000,
3.5625000000e+001,3.2335927256e+000,3.4708995843e+000,3.0829616237e+000,3.5360780797e+000,4.9948149970e+000,4.3021984141e+000,2.8716615644e+000,4.2293177682e+000,5.7204805009e+000,5.4719183754e+000,2.6424837319e+000,3.4147521910e+000,3.0505456515e+000,3.3672277998e+000,
3.5718750000e+001,3.1955520861e+000,3.3475696457e+000,3.0530835466e+000,3.4601825944e+000,4.9169298281e+000,4.3512938910e+000,2.8088593077e+000,4.2019512448e+000,5.7033898939e+000,5.4212272720e+000,2.4977440291e+000,3.3534416570e+000,3.0443168213e+000,3.3097339821e+000,
3.5812500000e+001,3.2248671905e+000,3.4822561567e+000,3.0578427916e+000,3.5054708480e+000,4.8991769078e+000,4.4768525626e+000,2.8760883164e+000,4.2137137816e+000,5.6544121915e+000,5.4455656435e+000,2.4790586188e+000,3.3898093120e+000,2.9832862875e+000,3.3839384039e+000,
3.5906250000e+001,3.1657131441e+000,3.3435972285e+000,3.0937112492e+000,3.4432503880e+000,4.8788955016e+000,4.6188069760e+000,2.9053357436e+000,4.1512699189e+000,5.6616566537e+000,5.4371226279e+000,2.4912162769e+000,3.3333711664e+000,2.7780044305e+000,3.3240976796e+000,
3.6000000000e+001,3.2135183789e+000,3.3333628442e+000,3.1683109688e+000,3.4581017732e+000,4.9218616001e+000,4.7219931022e+000,2.8209238594e+000,4.2149654257e+000,5.7051325920e+000,5.1350386381e+000,2.4868250380e+000,3.2471684470e+000,2.6651514940e+000,3.1859353003e+000,
3.6093750000e+001,3.2446188784e+000,3.4411881857e+000,3.2175764945e+000,3.5071848146e+000,4.8581601308e+000,4.7129846715e+000,2.7733731869e+000,4.3833849778e+000,5.6474303403e+000,5.0904655439e+000,2.4556189705e+000,3.2725639434e+000,2.5165880862e+000,3.1452452464e+000,
3.6187500000e+001,3.2215261830e+000,3.5107061279e+000,3.2019657793e+000,3.5094439510e+000,4.8653163007e+000,4.6955777563e+000,2.7954899940e+000,4.3579722783e+000,5.6264623057e+000,5.0589664380e+000,2.5724905199e+000,3.1978441151e+000,2.3798339595e+000,3.1635823778e+000,
3.6281250000e+001,3.2741000410e+000,3.5401512556e+000,3.1860174205e+000,3.4569005937e+000,4.8871622663e+000,4.7158434057e+000,2.8253626209e+000,4.4081677750e+000,5.6771734362e+000,4.9959443258e+000,2.6557237435e+000,3.2123062973e+000,2.4730777365e+000,3.1925684910e+000,
3.6375000000e+001,3.3449055036e+000,3.5999460649e+000,3.2205905995e+000,3.3958338156e+000,4.8657092292e+000,4.6960356888e+000,2.7274416168e+000,4.4712203060e+000,5.7695270806e+000,4.9520602324e+000,2.7395405514e+000,3.3547411150e+000,2.6123227635e+000,3.2952910913e+000,
3.6468750000e+001,3.4238799238e+000,3.5928767169e+000,3.1852171277e+000,3.2736608636e+000,4.8445819921e+000,4.7452547866e+000,2.6616667131e+000,4.4653115315e+000,5.6733524433e+000,4.9876112640e+000,2.8288767481e+000,3.2963872882e+000,2.6651293127e+000,3.2019216446e+000,
3.6562500000e+001,3.4695532150e+000,3.6093682655e+000,3.1614549951e+000,3.1760607530e+000,4.8924554201e+000,4.7632977529e+000,2.7663182431e+000,4.5593465413e+000,5.5691677996e+000,5.0705689966e+000,2.8304787739e+000,3.3230369275e+000,2.7250794119e+000,3.2228917541e+000,
3.6656250000e+001,3.4030783535e+000,3.5388581128e+000,3.0554176489e+000,3.1137658594e+000,4.9476016829e+000,4.7318711850e+000,2.8074597040e+000,4.5588352572e+000,5.5692236344e+000,5.2237205584e+000,2.9266360913e+000,3.4176224191e+000,2.6432170708e+000,3.1708305677e+000,
3.6750000000e+001,3.4263126530e+000,3.5270796381e+000,3.0651125582e+000,3.1447527569e+000,5.0901448978e+000,4.7142246956e+000,2.8265637082e+000,4.5387137698e+000,5.5694486834e+000,5.3096118933e+000,3.0826530147e+000,3.5693327690e+000,2.7778029070e+000,3.2553946587e+000,
3.6843750000e+001,3.4662697096e+000,3.5381760652e+000,3.1306499109e+000,3.2515249216e+000,5.1514419430e+000,4.6579286092e+000,2.6611196774e+000,4.5763162120e+000,5.5779087694e+000,5.2740475728e+000,3.0505863616e+000,3.4224319883e+000,2.6826614874e+000,3.1059717885e+000,
3.6937500000e+001,3.3717360697e+000,3.5575440670e+000,3.1190967231e+000,3.3618526404e+000,5.1403222525e+000,4.4680154306e+000,2.6514211687e+000,4.6091948493e+000,5.6660790674e+000,5.3065295527e+000,3.0478448667e+000,3.4444345720e+000,2.7413814366e+000,3.1064953609e+000,
3.7031250000e+001,3.4136269523e+000,3.5166184597e+000,2.9319005159e+000,3.3467388713e+000,5.0550810864e+000,4.5294117477e+000,2.6373563148e+000,4.4936878927e+000,5.6238637924e+000,5.2954077254e+000,2.9995737997e+000,3.4868327980e+000,2.8352095192e+000,3.1054126799e+000,
3.7125000000e+001,3.4472179174e+000,3.3909775682e+000,2.8604494951e+000,3.2131472901e+000,5.0773481544e+000,4.5130147094e+000,2.6815502538e+000,4.3994245980e+000,5.6899257682e+000,5.4461819921e+000,3.0202534169e+000,3.5044364778e+000,2.8930161516e+000,3.1323972607e+000,
3.7218750000e+001,3.5742624460e+000,3.3924907523e+000,2.9946787573e+000,3.2014800414e+000,5.2307114870e+000,4.5558417981e+000,2.7171978930e+000,4.3944533529e+000,5.6794214926e+000,5.4336186503e+000,2.9747835943e+000,3.4687274654e+000,2.8919625366e+000,3.1030741478e+000,
3.7312500000e+001,3.5905493765e+000,3.3077224115e+000,2.9816165925e+000,3.2217858744e+000,5.2184611431e+000,4.5478119335e+000,2.6944267350e+000,4.3363686914e+000,5.6489559061e+000,5.4254492842e+000,3.0376107560e+000,3.4976487514e+000,2.8570555194e+000,3.1228617728e+000,
3.7406250000e+001,3.5501847721e+000,3.2327196922e+000,2.9511376653e+000,3.2854792698e+000,5.1980868864e+000,4.3963659313e+000,2.7782994848e+000,4.3705083081e+000,5.5318675987e+000,5.4886893561e+000,2.9414145932e+000,3.4106465787e+000,2.8386046017e+000,3.0537713184e+000,
3.7500000000e+001,3.5448404880e+000,3.2372885414e+000,3.0086436430e+000,3.4092652482e+000,5.2655685495e+000,4.3957128336e+000,2.9413339724e+000,4.4307912774e+000,5.6456539289e+000,5.4316432253e+000,2.9212807695e+000,3.4214042886e+000,2.9526905723e+000,3.0722524497e+000,
3.7593750000e+001,3.4824348882e+000,3.2487724233e+000,2.9802331825e+000,3.4348393669e+000,5.1946261831e+000,4.4061649779e+000,2.9643406501e+000,4.2970502720e+000,5.9745157373e+000,5.3398899396e+000,2.9288306683e+000,3.3802155270e+000,3.0084840075e+000,3.1436248246e+000,
3.7687500000e+001,3.5128289029e+000,3.2541155976e+000,3.0282411341e+000,3.4262142235e+000,5.2127333729e+000,4.3368230932e+000,3.0676610335e+000,4.2765920155e+000,6.0051942881e+000,5.3316696563e+000,2.8326510713e+000,3.1669923018e+000,2.9592545186e+000,3.0941938845e+000,
3.7781250000e+001,3.5504687977e+000,3.2755353428e+000,3.0496393201e+000,3.3878924649e+000,5.2081642591e+000,4.4257519224e+000,3.1196668833e+000,4.2502453329e+000,6.0278819059e+000,5.2883044762e+000,2.7964508227e+000,3.1768731254e+000,2.9079879839e+000,3.1006523216e+000,
3.7875000000e+001,3.5260907668e+000,3.0926191459e+000,3.0532890721e+000,3.2439749735e+000,5.1376783474e+000,4.4383842199e+000,3.2003404927e+000,4.1412204629e+000,5.9720253339e+000,5.3025453045e+000,2.8196074992e+000,3.2223938631e+000,2.9457482762e+000,3.1688345070e+000,
3.7968750000e+001,3.4509442487e+000,3.0903504268e+000,2.9561935578e+000,3.0897301267e+000,5.1219409605e+000,4.4585086579e+000,3.1526243330e+000,4.1681407863e+000,5.9344347305e+000,5.3818375714e+000,2.7668831829e+000,3.2184840342e+000,2.9451036975e+000,3.1506202081e+000,
3.8062500000e+001,3.4796146180e+000,3.1778438460e+000,3.0913712739e+000,3.1491725092e+000,5.1679153556e+000,4.4305023846e+000,3.2765261549e+000,4.2478130378e+000,5.9404756777e+000,5.3121207583e+000,2.7564294777e+000,3.2406726968e+000,2.9295454669e+000,3.2213795977e+000,
3.8156250000e+001,3.3401933028e+000,3.2031036078e+000,3.0428551082e+000,3.0752111767e+000,5.0216720374e+000,4.4340791708e+000,3.2413511780e+000,4.2328068241e+000,5.9571633787e+000,5.2332389713e+000,2.6899764503e+000,3.2786250115e+000,2.8195273727e+000,3.2172541262e+000,
3.8250000000e+001,3.2962018411e+000,3.1656225386e+000,3.0341340097e+000,3.0854499245e+000,4.9599671313e+000,4.4011048124e+000,3.1981875603e+000,4.2336749029e+000,5.9185089056e+000,5.3471701826e+000,2.6641716194e+000,3.2853793150e+000,2.7593369100e+000,3.1645343801e+000,
3.8343750000e+001,3.2414523334e+000,3.3180949627e+000,3.0156137567e+000,3.0607887147e+000,5.0840199090e+000,4.4236039313e+000,3.2215819700e+000,4.1552206891e+000,6.0547709407e+000,5.3721836862e+000,2.5883613685e+000,3.2594432264e+000,2.7529960148e+000,3.2283619916e+000,
3.8437500000e+001,3.2868237424e+000,3.4959314303e+000,3.0242522632e+000,3.1378231804e+000,5.1375733293e+000,4.5433751138e+000,3.1581747957e+000,4.2325544990e+000,6.1147278493e+000,5.2893310970e+000,2.5730419135e+000,3.2655766048e+000,2.6529146969e+000,3.2289811024e+000,
3.8531250000e+001,3.2722791204e+000,3.4847040829e+000,2.9890636302e+000,3.0882843130e+000,5.1534509030e+000,4.5665484430e+000,3.0229892863e+000,4.1791951174e+000,5.9543195562e+000,5.3841214635e+000,2.4785378042e+000,3.2868649129e+000,2.4528953196e+000,3.2520318120e+000,
3.8625000000e+001,3.2518258609e+000,3.4181219380e+000,2.9902471691e+000,3.0135739916e+000,5.1661096778e+000,4.5408225432e+000,2.8675051428e+000,4.1073390024e+000,5.8019561962e+000,5.2819736126e+000,2.4084253458e+000,3.2794802464e+000,2.4022780243e+000,3.1726132657e+000,
3.8718750000e+001,3.1716879618e+000,3.3796700300e+000,3.0481003091e+000,3.0958673739e+000,5.0206696722e+000,4.5266591488e+000,2.8801665733e+000,4.2060331151e+000,5.7935506124e+000,5.3235663173e+000,2.3570109518e+000,3.2938240460e+000,2.4234409448e+000,3.2640554277e+000,
3.8812500000e+001,3.2144255462e+000,3.4976966725e+000,3.1140667580e+000,3.2092116647e+000,5.0826239358e+000,4.6042269277e+000,3.0132535504e+000,4.3390057278e+000,5.8674654770e+000,5.3370468228e+000,2.2841288251e+000,3.2212188049e+000,2.3364713898e+000,3.1905824092e+000,
3.8906250000e+001,3.2669894814e+000,3.5771819497e+000,3.1724996679e+000,3.2726751656e+000,5.0743064331e+000,4.6481594728e+000,2.9675706045e+000,4.3116763063e+000,5.9580452288e+000,5.3316559675e+000,2.1963774721e+000,3.1653852164e+000,2.2830252576e+000,3.1672445268e+000,
3.9000000000e+001,3.2395688626e+000,3.5873819063e+000,3.2022035205e+000,3.3625965203e+000,5.0456772862e+000,4.4921830232e+000,3.0088019326e+000,4.3007239913e+000,5.9945392596e+000,5.3227647035e+000,2.2297229181e+000,3.1593723187e+000,2.2357068127e+000,3.1468176352e+000,
3.9093750000e+001,2.9850767551e+000,3.4645121381e+000,3.0366471186e+000,3.2155862439e+000,5.0458143308e+000,4.4745119397e+000,2.8509751566e+000,4.1283664810e+000,5.9711367273e+000,5.3681573506e+000,2.1834443167e+000,3.1334224454e+000,2.3262976828e+000,3.0887320100e+000,
3.9187500000e+001,3.0346944868e+000,3.5441796516e+000,3.0916355923e+000,3.2595348352e+000,5.0382549781e+000,4.5182960875e+000,2.8298662663e+000,4.1450445518e+000,5.9994063913e+000,5.3017245913e+000,2.2237735025e+000,3.1755551879e+000,2.4650296801e+000,3.1381581672e+000,
3.9281250000e+001,3.0463260316e+000,3.6137608914e+000,3.1612597620e+000,3.4227796295e+000,4.9557597746e+000,4.6609160627e+000,2.8197910155e+000,4.1798356294e+000,5.8360447921e+000,5.2336189463e+000,2.1318180031e+000,3.1981395954e+000,2.6017252040e+000,3.1812015617e+000,
3.9375000000e+001,3.1633135036e+000,3.5995888053e+000,3.2375223010e+000,3.4086452963e+000,4.9836031003e+000,4.6782040985e+000,2.8288127326e+000,4.2021846461e+000,5.8032000716e+000,5.1644427275e+000,2.2525381306e+000,3.2651722924e+000,2.6063967828e+000,3.2057922513e+000,
3.9468750000e+001,3.0639196545e+000,3.4962169220e+000,3.2369126331e+000,3.3598845437e+000,4.8793885946e+000,4.6749355203e+000,2.7852966072e+000,4.1001100010e+000,5.6848831719e+000,5.1458725992e+000,2.2451051128e+000,3.3019468715e+000,2.6161946701e+000,3.2360545065e+000,
3.9562500000e+001,3.1096837522e+000,3.5472512898e+000,3.2608288437e+000,3.4261352212e+000,4.9125804965e+000,4.7329078908e+000,2.9253430643e+000,4.2162198637e+000,5.6271410097e+000,5.1099724691e+000,2.2596049259e+000,3.3139816409e+000,2.6626152405e+000,3.2115398418e+000,
3.9656250000e+001,3.1978897670e+000,3.6287622795e+000,3.3435897976e+000,3.5499838411e+000,4.9899096279e+000,4.7431905004e+000,2.9322163875e+000,4.2877624969e+000,5.7129002825e+000,5.3880401510e+000,2.3461791095e+000,3.4049731105e+000,2.7749688400e+000,3.2585289481e+000,
3.9750000000e+001,3.3812731992e+000,3.7773481123e+000,3.2950315748e+000,3.5517731309e+000,4.9736776350e+000,4.7437363809e+000,2.9595717558e+000,4.1925199646e+000,5.6314188568e+000,5.3740136388e+000,2.4568607610e+000,3.5068852065e+000,2.8089877285e+000,3.2282519620e+000,
3.9843750000e+001,3.3293104659e+000,3.7293021445e+000,3.2105298894e+000,3.5287254395e+000,4.9276915245e+000,4.7001171509e+000,2.9457525911e+000,4.0670616034e+000,5.4575652071e+000,5.3326089505e+000,2.4956749481e+000,3.4996902502e+000,2.8726798532e+000,3.2126277824e+000,
3.9937500000e+001,3.3380861608e+000,3.7664583076e+000,3.1606769818e+000,3.5658649103e+000,4.9217312097e+000,4.7246534167e+000,3.0217386674e+000,4.1216871073e+000,5.4177394290e+000,5.4242848760e+000,2.5372633938e+000,3.6124547504e+000,2.8617863669e+000,3.2821650684e+000,
4.0031250000e+001,3.3681130009e+000,3.7271771023e+000,3.1332717396e+000,3.5703455039e+000,4.8987739250e+000,4.7536367551e+000,3.0791291307e+000,4.2416812980e+000,5.5581884094e+000,5.4356601345e+000,2.6021632852e+000,3.6198537829e+000,2.8828718829e+000,3.2923565549e+000,
4.0125000000e+001,3.4443231855e+000,3.7548023525e+000,3.1624789005e+000,3.6311277315e+000,4.7662384495e+000,4.7794767685e+000,3.1569063515e+000,4.2923822497e+000,5.5799553079e+000,5.4451293180e+000,2.6910327474e+000,3.6158221013e+000,2.7929493487e+000,3.2287861531e+000,
4.0218750000e+001,3.4682452760e+000,3.6670756472e+000,3.1312374403e+000,3.6344438889e+000,4.8279857266e+000,4.6848968861e+000,3.2057392788e+000,4.3342303715e+000,5.5511329632e+000,5.4237613200e+000,2.8009794162e+000,3.5607235014e+000,2.7762897407e+000,3.0963095746e+000,
4.0312500000e+001,3.4131007746e+000,3.5677662482e+000,3.0540453735e+000,3.5343902200e+000,4.7982812993e+000,4.6304652761e+000,3.1883976345e+000,4.3000543492e+000,5.6357484400e+000,5.4749389836e+000,2.8066418848e+000,3.5232120571e+000,2.6977005710e+000,2.9723888202e+000,
4.0406250000e+001,3.3677639835e+000,3.5907860227e+000,2.9915186356e+000,3.4873013102e+000,4.6893691193e+000,4.5455761762e+000,3.2025841874e+000,4.2753894150e+000,5.6682597400e+000,5.5454987660e+000,2.7124722120e+000,3.4714869024e+000,2.5830334900e+000,2.8303466065e+000,
4.0500000000e+001,3.3454199732e+000,3.6433451540e+000,2.9763100759e+000,3.5307816758e+000,4.6975746215e+000,4.4694745257e+000,3.3262357249e+000,4.3106625651e+000,5.6810546607e+000,5.7105481605e+000,2.6839704316e+000,3.4839955729e+000,2.5870631958e+000,2.8369942801e+000,
4.0593750000e+001,3.3716567185e+000,3.6686618889e+000,3.0779046637e+000,3.5448694062e+000,4.6294328801e+000,4.3847143011e+000,3.3319260736e+000,4.3841158276e+000,5.6557860421e+000,5.6234246886e+000,2.5937563794e+000,3.4441135987e+000,2.6147395433e+000,2.7547994255e+000,
4.0687500000e+001,3.3558479586e+000,3.5687229973e+000,3.0439478204e+000,3.4914646719e+000,4.6184290264e+000,4.4074992732e+000,3.3544029834e+000,4.3816215922e+000,5.5830069214e+000,5.5596029880e+000,2.5949969878e+000,3.4258720022e+000,2.5984943290e+000,2.6672284214e+000,
4.0781250000e+001,3.2747629890e+000,3.4834128124e+000,3.0973043684e+000,3.4170284127e+000,4.6762762069e+000,4.4227663320e+000,3.3796699535e+000,4.4692673368e+000,5.6450790339e+000,5.4973703442e+000,2.6177637436e+000,3.4055155264e+000,2.7407999556e+000,2.6500223766e+000,
4.0875000000e+001,3.2164177253e+000,3.4315014172e+000,3.1744743598e+000,3.2847473699e+000,4.6967316726e+000,4.3652108302e+000,3.2229550069e+000,4.5428760531e+000,5.6439605976e+000,5.5337183077e+000,2.6135906489e+000,3.3898718985e+000,2.6617882278e+000,2.5192607188e+000,
4.0968750000e+001,3.2055002108e+000,3.4129546927e+000,3.1650871182e+000,3.3383099791e+000,4.7911207019e+000,4.3484526288e+000,3.2081413948e+000,4.5573595037e+000,5.5306698944e+000,5.5881178109e+000,2.6104431116e+000,3.3974159239e+000,2.7083091880e+000,2.4772681507e+000,
4.1062500000e+001,3.2998333349e+000,3.4618888750e+000,3.1905040517e+000,3.3863495351e+000,4.9980535810e+000,4.4968578171e+000,3.1565133827e+000,4.5822842837e+000,5.4301775084e+000,5.6464143141e+000,2.5056323059e+000,3.4188444972e+000,2.8367817999e+000,2.4224629625e+000,
4.1156250000e+001,3.2896158478e+000,3.4679071215e+000,3.2075096334e+000,3.4264018436e+000,5.1341085347e+000,4.4848566911e+000,3.0266564530e+000,4.5748213715e+000,5.4214363378e+000,5.6920501340e+000,2.3548965983e+000,3.4332757102e+000,2.8614423955e+000,2.3726469767e+000,
