Time (s),AF3,AF4,F3,F4,F7,F8,FC5,FC6,T7,T8,P7,P8,O1,O2,Sampling Rate
0.0000000000e+000,2.8243657063e+000,3.0010074509e+000,2.5135908426e+000,2.6139593526e+000,3.3313821717e+000,3.4797648256e+000,5.6180909540e+000,3.0196368754e+000,3.2176405624e+000,4.8793100736e+000,2.9410095697e+000,3.2143681008e+000,2.1164283234e+000,2.9446114151e+000,1
9.3750000000e-002,2.8913898821e+000,3.0129316100e+000,2.3304803552e+000,2.6976566799e+000,3.3841714631e+000,3.4700771797e+000,5.5824606418e+000,3.0572251762e+000,3.2277854532e+000,4.9373842262e+000,2.9871781872e+000,3.3634001232e+000,2.1077606071e+000,3.0981277785e+000,
1.8750000000e-001,2.9204541999e+000,2.9522024022e+000,2.4051336962e+000,2.6493905521e+000,3.3748450149e+000,3.3646129304e+000,5.5820587842e+000,3.0873123552e+000,3.2693484301e+000,5.0023396913e+000,3.0163287415e+000,3.4064085211e+000,2.2680702589e+000,3.0846268492e+000,
2.8125000000e-001,2.8693897597e+000,2.9629997695e+000,2.6082240087e+000,2.6753758754e+000,3.3809403221e+000,3.4613942655e+000,4.3876733642e+000,3.1258042706e+000,3.2013750749e+000,4.9632647785e+000,2.9435211567e+000,3.3208608069e+000,2.1771268477e+000,3.0327592894e+000,
3.7500000000e-001,2.9912195682e+000,2.9846605249e+000,2.6143808524e+000,2.6677024228e+000,3.3239457900e+000,3.4474500145e+000,2.8497919714e+000,3.0140672757e+000,3.2817566500e+000,4.9381701214e+000,2.9247662333e+000,3.2905825109e+000,2.3178259613e+000,3.0908089723e+000,
4.6875000000e-001,2.9819126114e+000,3.0253433264e+000,2.6712765655e+000,2.7392392110e+000,3.2900302154e+000,3.4437575059e+000,2.6761247109e+000,3.0214657332e+000,3.2595594084e+000,4.9537016635e+000,2.8679378908e+000,3.2204848927e+000,2.3619945137e+000,2.8916037283e+000,
5.6250000000e-001,2.9859765133e+000,3.0186816343e+000,2.6315482857e+000,2.7152591664e+000,3.3228145667e+000,3.4028586963e+000,2.5767696959e+000,3.0052340818e+000,3.2983996903e+000,4.9830289810e+000,2.9051247753e+000,3.2772021141e+000,2.5548096928e+000,2.9845711513e+000,
6.5625000000e-001,2.9696345636e+000,3.0506416579e+000,2.5417811689e+000,2.7150205294e+000,3.2947249227e+000,3.3912245555e+000,2.6012761008e+000,2.9034268743e+000,3.2409586075e+000,4.9933264418e+000,2.8744921923e+000,3.2127390568e+000,2.6974334094e+000,2.9781657722e+000,
7.5000000000e-001,2.9454027220e+000,3.0011262113e+000,2.6549036807e+000,2.5693395633e+000,3.2993298927e+000,3.3149284308e+000,2.5790601977e+000,2.8247649960e+000,3.2608539116e+000,4.9094910362e+000,2.8968393995e+000,3.2371750126e+000,2.7791956314e+000,3.0946129975e+000,
8.4375000000e-001,2.8510190156e+000,2.9555804599e+000,2.6827742932e+000,2.5616872761e+000,3.1575378795e+000,3.1990818326e+000,2.5015081603e+000,2.7586964829e+000,3.2308357324e+000,4.8688499424e+000,2.8216802268e+000,3.1159420792e+000,2.8088130030e+000,3.0892526378e+000,
9.3750000000e-001,2.8496942676e+000,3.0384476094e+000,2.6844657027e+000,2.6458454055e+000,3.2105240621e+000,3.3125137871e+000,2.5483408937e+000,2.8512681258e+000,3.2509982191e+000,4.9025073602e+000,2.8514863528e+000,3.1861266552e+000,2.9095625121e+000,3.0784252200e+000,
1.0312500000e+000,2.8479846517e+000,3.1607496120e+000,2.7243344693e+000,2.7563209266e+000,3.2283914924e+000,3.4694883330e+000,2.6423830393e+000,2.8728412740e+000,3.2637956882e+000,5.0364851108e+000,2.8237465085e+000,3.0950270444e+000,2.9508708107e+000,3.0483059907e+000,
1.1250000000e+000,2.7700053987e+000,3.1367635366e+000,2.7854811666e+000,2.7382311912e+000,3.2132903650e+000,3.4313020902e+000,2.6113718757e+000,2.8504610108e+000,3.3055176845e+000,4.9835367389e+000,2.7971966089e+000,2.9289267840e+000,2.9435402132e+000,2.9144730037e+000,
1.2187500000e+000,2.7659213581e+000,3.1836939646e+000,2.7437780073e+000,2.7498765878e+000,3.2340974732e+000,3.5061407913e+000,2.4226361971e+000,2.7581211349e+000,3.3554486775e+000,5.0374943342e+000,2.8736162575e+000,2.9358060597e+000,2.8348245978e+000,2.9357169789e+000,
1.3125000000e+000,2.8603158413e+000,3.2926543213e+000,2.7127901565e+000,2.8777496888e+000,3.2340278817e+000,3.5816399504e+000,2.5460039246e+000,2.8261055122e+000,3.3205742794e+000,5.0435025800e+000,2.8863885121e+000,3.0822821309e+000,2.7530389380e+000,2.9269462367e+000,
1.4062500000e+000,2.9823629860e+000,3.4317678364e+000,2.9228592057e+000,2.9904899698e+000,3.2956764598e+000,3.7047114868e+000,2.5603619135e+000,2.7687757654e+000,3.2616200393e+000,5.0000060058e+000,2.9279789155e+000,3.1564769426e+000,2.6562578101e+000,3.0187731823e+000,
1.5000000000e+000,3.1336554607e+000,3.5205302475e+000,3.0771208760e+000,3.0179663779e+000,3.2491456215e+000,3.7605482418e+000,2.6429033683e+000,2.8374965874e+000,3.2511185473e+000,5.0445804066e+000,3.1568715848e+000,3.2013650072e+000,2.5698002611e+000,3.0611917112e+000,
1.5937500000e+000,3.1729273445e+000,3.5359139604e+000,3.1283592164e+000,3.0033009727e+000,3.2762455644e+000,3.7676945124e+000,2.6556109663e+000,2.8744422138e+000,3.2054275265e+000,4.9714178019e+000,3.0629587655e+000,3.2164469614e+000,2.4036007485e+000,2.9783048572e+000,
1.6875000000e+000,3.2958585362e+000,3.6200865573e+000,3.3216678209e+000,3.1432286911e+000,3.4454580439e+000,3.8455401874e+000,2.7966663180e+000,3.0866364995e+000,3.2748850436e+000,4.8301818138e+000,3.0218775022e+000,3.3131879293e+000,2.2683878729e+000,3.0429657790e+000,
1.7812500000e+000,3.3006414516e+000,3.6143463772e+000,3.2818016718e+000,3.1826720874e+000,3.4001680155e+000,3.8420337081e+000,2.8650824289e+000,3.1302561906e+000,3.2746500900e+000,5.0099316178e+000,3.0883345847e+000,3.4002013699e+000,1.9892531868e+000,2.9892251795e+000,
1.8750000000e+000,3.3580235803e+000,3.7214756299e+000,3.3665176710e+000,3.2915856333e+000,3.4158673066e+000,3.9038124240e+000,2.8645386378e+000,3.1228413973e+000,3.3188252778e+000,5.0797637592e+000,3.0562409656e+000,3.4337083430e+000,1.9607781188e+000,3.0524089179e+000,
1.9687500000e+000,3.3744811842e+000,3.6990286256e+000,3.3786471222e+000,3.2870022183e+000,3.4414870692e+000,3.8196494830e+000,2.8418568778e+000,3.0955904981e+000,3.2448254745e+000,5.0256319640e+000,3.0137786224e+000,3.4032474954e+000,1.5957832719e+000,2.9650858265e+000,
2.0625000000e+000,3.3131926508e+000,3.6472023928e+000,3.3513656114e+000,3.2431486466e+000,3.3789747540e+000,3.8110635540e+000,2.7512535803e+000,3.0643143155e+000,3.2471009786e+000,4.9127730136e+000,3.1623125877e+000,3.3456950046e+000,2.1370383503e+000,2.9215101688e+000,
2.1562500000e+000,3.2247879343e+000,3.6140458240e+000,3.3129559699e+000,3.2099982729e+000,3.3006964385e+000,3.7577857962e+000,2.8307705675e+000,3.0375804855e+000,3.1800232384e+000,4.9341641923e+000,3.0703224406e+000,3.3824367134e+000,2.1489091013e+000,2.9030434452e+000,
2.2500000000e+000,3.2160813281e+000,3.6016457292e+000,3.3177617945e+000,3.1595081057e+000,3.2860355408e+000,3.7526323509e+000,2.8460424955e+000,3.0261278610e+000,3.0413967659e+000,4.8802625266e+000,3.0620984884e+000,3.3320665675e+000,2.2743340417e+000,2.8963065368e+000,
2.3437500000e+000,3.1847314188e+000,3.5371641471e+000,3.3708323116e+000,3.0525448627e+000,3.2551230591e+000,3.6544636650e+000,2.7141763261e+000,2.9827642384e+000,3.1184615498e+000,4.9027811195e+000,3.0787392670e+000,3.3129970986e+000,2.3498348323e+000,2.8390840065e+000,
2.4375000000e+000,3.0693158456e+000,3.3064683021e+000,3.1635602649e+000,2.9201554430e+000,3.1348232634e+000,3.3730603689e+000,2.6507593195e+000,2.8595709898e+000,3.2079524576e+000,4.8814465500e+000,3.0817278161e+000,3.2652419245e+000,2.5627796647e+000,2.6700081650e+000,
2.5312500000e+000,2.9339620665e+000,3.3418955514e+000,3.0227664071e+000,2.8564640618e+000,3.0608555619e+000,3.3987032875e+000,2.6460354750e+000,2.8464411233e+000,3.2136273701e+000,4.8890384232e+000,2.8820476414e+000,3.2261124121e+000,2.6183572192e+000,2.7214397433e+000,
2.6250000000e+000,2.9562809831e+000,3.2936174530e+000,2.9635053366e+000,2.7632951443e+000,3.0284707890e+000,3.2950208197e+000,2.6610806389e+000,2.8042961636e+000,3.1565167820e+000,4.9347876724e+000,2.8886463520e+000,3.1045329199e+000,2.7242881645e+000,2.7847319853e+000,
2.7187500000e+000,2.7762041885e+000,3.1652370126e+000,2.6895189925e+000,2.6229508187e+000,2.9402637197e+000,3.1782452677e+000,2.3421791838e+000,2.5087411013e+000,3.1759175432e+000,4.8072669281e+000,2.9240318791e+000,2.8764765083e+000,2.7972481639e+000,2.7458204040e+000,
2.8125000000e+000,2.7980732500e+000,3.0060568021e+000,2.5574226373e+000,2.3139607239e+000,2.8233112559e+000,3.2303036216e+000,2.2462428265e+000,2.5172759353e+000,3.1861354295e+000,4.6762891926e+000,2.9390187621e+000,2.8424004057e+000,2.8111108413e+000,2.6699498170e+000,
2.9062500000e+000,2.8004694490e+000,3.0385106994e+000,2.6052148324e+000,2.4062218125e+000,2.9144631024e+000,3.2167418994e+000,2.3588039253e+000,2.5301215704e+000,3.2093584882e+000,4.7093934159e+000,2.9681072545e+000,2.8597900136e+000,2.8069663085e+000,2.6995703096e+000,
3.0000000000e+000,2.8739237930e+000,3.1118327074e+000,2.6045783683e+000,2.3130661057e+000,2.9752925513e+000,3.2633176907e+000,2.4624880202e+000,2.6877852514e+000,3.2475823810e+000,4.7117883161e+000,2.9504449724e+000,2.8189732580e+000,2.7553967083e+000,2.6564707463e+000,
3.0937500000e+000,2.8921653093e+000,3.1087685296e+000,2.5318541522e+000,2.2737529972e+000,3.0490358231e+000,3.3317290978e+000,2.4492087689e+000,2.6355851971e+000,3.2512816693e+000,4.7914271578e+000,2.8648546919e+000,2.8881630840e+000,2.7139168758e+000,2.8489247938e+000,
3.1875000000e+000,2.9094600346e+000,3.0794385741e+000,2.6523156001e+000,2.3132955875e+000,3.1288970467e+000,3.3142638668e+000,2.5440205549e+000,2.6484456582e+000,3.2790306223e+000,4.7973051081e+000,2.9358619003e+000,2.8694147119e+000,2.6488361552e+000,2.8826091931e+000,
3.2812500000e+000,2.9142078923e+000,3.0595240079e+000,2.6415374847e+000,2.3548732156e+000,3.1854947940e+000,3.2747402780e+000,2.5680955281e+000,2.7366072419e+000,3.3437237219e+000,4.6260921653e+000,3.0249971240e+000,2.8201171492e+000,2.7678902696e+000,2.7941405520e+000,
3.3750000000e+000,2.9371260579e+000,3.1629653307e+000,2.7075075539e+000,2.5593480756e+000,3.2226935666e+000,3.3824950501e+000,2.6461037609e+000,2.7709837663e+000,3.3173458216e+000,4.6590884669e+000,3.0266786420e+000,2.8733802318e+000,2.7358370866e+000,2.8810110307e+000,
3.4687500000e+000,2.9587047442e+000,3.1915304495e+000,2.7474487596e+000,2.5527435756e+000,3.2128198515e+000,3.3648902221e+000,2.7287004138e+000,2.8083112175e+000,3.2740296482e+000,4.7100856913e+000,2.9929582460e+000,2.9206201754e+000,2.6548687268e+000,3.0205585352e+000,
3.5625000000e+000,2.9485359489e+000,3.1161527358e+000,2.7025253067e+000,2.5471588807e+000,3.2501523684e+000,3.3339561259e+000,2.6867538404e+000,2.8223420598e+000,3.2887826765e+000,4.6361550489e+000,2.9539999047e+000,2.9815522174e+000,2.5749195346e+000,2.9607827438e+000,
3.6562500000e+000,2.9671783802e+000,3.1160814825e+000,2.6624000829e+000,2.5271630919e+000,3.1839602260e+000,3.3971617555e+000,2.7081595660e+000,2.8252900868e+000,3.3679941691e+000,4.7018504017e+000,2.9801284602e+000,3.1022775562e+000,2.5555347903e+000,2.9638209853e+000,
3.7500000000e+000,3.0043745623e+000,3.2366405874e+000,2.7773361959e+000,2.6654691319e+000,3.2329729251e+000,3.4500515822e+000,2.7947228333e+000,2.9063531828e+000,3.3002338079e+000,4.8055380047e+000,2.8191380549e+000,3.2719528992e+000,2.4713905848e+000,2.9753670555e+000,
3.8437500000e+000,2.9656540415e+000,3.3186361245e+000,2.9257400593e+000,2.7935602673e+000,3.3064524520e+000,3.4116055356e+000,2.7909450734e+000,2.8908007364e+000,3.2827907426e+000,4.8734426785e+000,2.8520760223e+000,3.3188507933e+000,2.5255061216e+000,3.0809195561e+000,
3.9375000000e+000,2.9564846463e+000,3.2615747793e+000,2.8856074662e+000,2.7825860736e+000,3.3150026653e+000,3.3764361730e+000,2.7143186816e+000,2.7985902070e+000,3.2633714037e+000,4.9397184719e+000,2.8399519983e+000,3.3968722247e+000,2.6077858750e+000,3.2393174802e+000,
4.0312500000e+000,2.8596366671e+000,3.2059294626e+000,2.9192513670e+000,2.8273943312e+000,3.2471127046e+000,3.2528486622e+000,2.6121193250e+000,2.7242071206e+000,3.2897871600e+000,4.9269123838e+000,2.9005947074e+000,3.3592761061e+000,2.7085367867e+000,3.3442474567e+000,
4.1250000000e+000,2.8345372345e+000,3.1607762724e+000,2.9166189331e+000,2.7629480196e+000,3.1248642501e+000,3.2469708120e+000,2.4678298311e+000,2.8244542511e+000,3.2095637042e+000,5.0250517873e+000,2.8831578319e+000,3.4028482355e+000,2.6558337545e+000,3.3183171709e+000,
4.2187500000e+000,2.8333307001e+000,3.1419134299e+000,2.9133938756e+000,2.7072436988e+000,3.2334894173e+000,3.2656685716e+000,2.4744918030e+000,2.7591451279e+000,3.1962140896e+000,5.0143967549e+000,2.7565896256e+000,3.4426470156e+000,2.7039165327e+000,3.4116026553e+000,
4.3125000000e+000,2.8867370731e+000,3.2506389318e+000,3.0674706670e+000,2.8483186653e+000,3.2526698626e+000,3.4341161187e+000,2.5738598436e+000,2.7509224406e+000,3.2687844799e+000,4.9959812858e+000,2.6728705640e+000,3.4296836794e+000,2.5727732708e+000,3.4113352142e+000,
4.4062500000e+000,2.8410541352e+000,3.1889324723e+000,2.9263240205e+000,2.7148239511e+000,3.1728846646e+000,3.3387767649e+000,2.3889557374e+000,2.7330133947e+000,3.1397402947e+000,5.0164055003e+000,2.7080492890e+000,3.4270902937e+000,2.6721059830e+000,3.3171806493e+000,
4.5000000000e+000,2.8570778834e+000,3.2790336522e+000,2.9558335720e+000,2.7097278236e+000,3.3536992327e+000,3.5093787132e+000,2.3740211122e+000,2.8594021190e+000,3.2079895689e+000,4.9538392886e+000,2.8545056085e+000,3.5021866095e+000,2.6928221900e+000,3.3143704242e+000,
4.5937500000e+000,2.8259936887e+000,3.2673121956e+000,2.9853553799e+000,2.7953693045e+000,3.3342995519e+000,3.4446447020e+000,2.3912044873e+000,2.7737155658e+000,3.1379315425e+000,4.9586605190e+000,2.8414689734e+000,3.5432521285e+000,2.7243955964e+000,3.3251783109e+000,
4.6875000000e+000,2.9112405581e+000,3.3563781430e+000,3.1506878803e+000,2.8612074800e+000,3.3088374115e+000,3.4783197227e+000,2.4162234653e+000,2.7905425305e+000,3.0464642250e+000,4.9170916265e+000,2.8468857032e+000,3.4939511842e+000,2.7526103123e+000,3.2940333150e+000,
4.7812500000e+000,3.0645981107e+000,3.3839199557e+000,3.1536538773e+000,2.8694347289e+000,3.2820850409e+000,3.4935617369e+000,2.4153167263e+000,2.8211683793e+000,3.0435310117e+000,4.9717624680e+000,2.8564987054e+000,3.3717193067e+000,2.8339975039e+000,3.2562172217e+000,
4.8750000000e+000,2.9940331386e+000,3.3352216670e+000,3.1259577670e+000,2.8514436616e+000,3.2339341902e+000,3.5045140087e+000,2.5046319346e+000,2.7964819199e+000,3.0665415861e+000,4.9392019059e+000,2.9091505296e+000,3.3148948422e+000,2.8328524851e+000,3.1996456447e+000,
4.9687500000e+000,2.9853416960e+000,3.3770237939e+000,3.2108158615e+000,2.8675745357e+000,3.1736575782e+000,3.4908338133e+000,2.5514753728e+000,2.8310711001e+000,3.0009964990e+000,4.9300939739e+000,2.8895159472e+000,3.3145747424e+000,2.8927047719e+000,3.1268953681e+000,
5.0625000000e+000,3.0309083143e+000,3.3877347723e+000,3.2161148353e+000,2.8648772596e+000,3.2429855190e+000,3.4901284233e+000,2.6409683174e+000,2.7948740832e+000,2.9748784236e+000,4.8385019669e+000,2.8183039044e+000,3.3060223557e+000,2.6858949812e+000,2.8942607143e+000,
5.1562500000e+000,3.0039238105e+000,3.4983486554e+000,3.2075596172e+000,2.8879332992e+000,3.2512912795e+000,3.5501235146e+000,2.7064816634e+000,2.7326590076e+000,2.9678622139e+000,4.8131856289e+000,2.7876585305e+000,3.2850562713e+000,2.6614030395e+000,2.8241259255e+000,
5.2500000000e+000,3.0762678663e+000,3.5820899703e+000,3.1838124354e+000,2.9306802237e+000,3.1619430686e+000,3.6232497345e+000,2.8164518488e+000,2.8628403273e+000,2.9853970795e+000,4.8395207624e+000,2.8331031664e+000,3.3330112020e+000,2.5895985619e+000,2.7773674324e+000,
5.3437500000e+000,3.0758338367e+000,3.6000550036e+000,3.0355571406e+000,2.9337101892e+000,3.1677339035e+000,3.7726859660e+000,2.8756968477e+000,3.0344704646e+000,2.8652016611e+000,4.8879866303e+000,2.7524015846e+000,3.3308618876e+000,2.5067752207e+000,2.8559188171e+000,
5.4375000000e+000,3.1424010483e+000,3.7043498830e+000,2.9911196856e+000,2.9784723777e+000,3.1560495207e+000,4.1341070195e+000,2.8779005175e+000,3.2007493570e+000,2.9771611290e+000,4.9594439417e+000,2.6840167440e+000,3.2889421067e+000,2.3854282422e+000,2.8075592771e+000,
5.5312500000e+000,3.2318092435e+000,3.7973241783e+000,2.9619120570e+000,2.9476952800e+000,3.0756115851e+000,4.2304577112e+000,2.8813101231e+000,3.2018018972e+000,2.7774875491e+000,5.0201936744e+000,2.5856693965e+000,3.2975001584e+000,2.4322193844e+000,2.7160246513e+000,
5.6250000000e+000,3.3120046763e+000,3.7816274677e+000,2.8931464499e+000,2.9023767405e+000,2.9965145887e+000,4.2691695905e+000,2.8611583041e+000,3.2398358410e+000,2.7536577747e+000,5.0005328777e+000,2.5395981911e+000,3.2600835745e+000,2.3121889011e+000,2.7634261352e+000,
5.7187500000e+000,3.2724497062e+000,3.8221741229e+000,2.8530306915e+000,2.9120368352e+000,3.1040804046e+000,4.3027369441e+000,2.8642708936e+000,3.2379065057e+000,2.7823078518e+000,4.9596623243e+000,2.4817778568e+000,3.2667673204e+000,2.2316056994e+000,2.7598876350e+000,
5.8125000000e+000,3.4627552465e+000,4.1741993928e+000,2.8587366199e+000,2.8755235810e+000,3.2806342450e+000,4.5027349351e+000,2.9358388249e+000,3.2675218470e+000,2.7507419011e+000,4.8570379775e+000,2.4708397423e+000,3.3984159171e+000,2.1762474075e+000,2.8628890123e+000,
5.9062500000e+000,3.5186088310e+000,4.2612208789e+000,2.8173411057e+000,2.8847171575e+000,3.2269873731e+000,4.5876711632e+000,2.8659594227e+000,3.3019665783e+000,2.6298925339e+000,4.7977194430e+000,2.2536266071e+000,3.2840504020e+000,1.7628454821e+000,2.6516005388e+000,
6.0000000000e+000,3.4922671340e+000,4.2398962695e+000,2.6304373128e+000,2.7744428608e+000,3.1657573817e+000,4.5980039887e+000,2.7889521775e+000,3.2374780641e+000,2.5665947105e+000,4.7403079345e+000,2.1759693592e+000,3.2499563205e+000,1.7090581474e+000,2.6208720698e+000,
6.0937500000e+000,3.5483715821e+000,4.2606169975e+000,2.6307577963e+000,2.8361304978e+000,3.2974496490e+000,4.6167206726e+000,2.8063729869e+000,3.2085702673e+000,2.5747350503e+000,4.8208519829e+000,2.1474606282e+000,3.3947184513e+000,1.7396306165e+000,2.8395930936e+000,
6.1875000000e+000,3.5162798721e+000,4.2008113310e+000,2.5968164148e+000,2.8596400958e+000,3.2812434362e+000,4.5766861809e+000,2.6542749179e+000,3.1744572591e+000,2.4906616407e+000,4.7490449782e+000,2.1859556997e+000,3.4347570695e+000,2.0369490204e+000,2.9216203930e+000,
6.2812500000e+000,3.5211213621e+000,4.2145695951e+000,2.7896779304e+000,2.8608169768e+000,3.3788256247e+000,4.5834195862e+000,2.6300304325e+000,3.2216093342e+000,2.5332044821e+000,4.8485273284e+000,2.2808258804e+000,3.5604736771e+000,2.3185378350e+000,3.0620474108e+000,
6.3750000000e+000,3.4799600742e+000,4.1640857811e+000,2.7816950975e+000,2.7911369249e+000,3.3391482561e+000,4.4433156424e+000,2.5041741036e+000,3.1369884171e+000,2.5113535376e+000,4.8360966020e+000,2.2531966372e+000,3.5675396647e+000,2.3215793203e+000,3.0495781664e+000,
6.4687500000e+000,3.3989773608e+000,4.0211659678e+000,2.7644295559e+000,2.7390562030e+000,3.4135171719e+000,4.0987686574e+000,2.5019618396e+000,2.8144465375e+000,2.5229143508e+000,4.6652302095e+000,2.2841286012e+000,3.5082549153e+000,2.4116043981e+000,3.0817057235e+000,
6.5625000000e+000,3.3671290561e+000,3.9376847244e+000,2.8541969279e+000,2.8019587818e+000,3.4663989707e+000,4.0253721897e+000,2.4800564600e+000,2.7352564638e+000,2.7883314216e+000,4.5916111031e+000,2.3711275562e+000,3.4860258497e+000,2.5244082577e+000,3.1138259279e+000,
6.6562500000e+000,3.3999906505e+000,3.9978873842e+000,2.8654023674e+000,2.8834591381e+000,3.5563356379e+000,4.0356774528e+000,2.4707393192e+000,2.8006178752e+000,2.8217749206e+000,4.7099292325e+000,2.5690479330e+000,3.5545184964e+000,2.6300417959e+000,3.1494684741e+000,
6.7500000000e+000,3.3413737362e+000,3.7720109134e+000,2.6926461194e+000,2.7848086889e+000,3.4080496640e+000,3.8420684525e+000,2.2624542694e+000,2.7783045391e+000,2.8199349806e+000,4.6987799345e+000,2.6325051433e+000,3.4920374548e+000,2.5875051216e+000,3.1164903596e+000,
6.8437500000e+000,3.1575788130e+000,3.2623088585e+000,2.6871153554e+000,2.7918692365e+000,3.4501770163e+000,3.3656096657e+000,2.1974463825e+000,2.6494579299e+000,2.8492466553e+000,4.7515371390e+000,2.8285069109e+000,3.4682301351e+000,2.7237952100e+000,3.1290680383e+000,
6.9375000000e+000,3.1452720825e+000,3.0949931531e+000,2.7277773218e+000,2.7940651055e+000,3.5086748629e+000,3.2293346670e+000,2.3030589376e+000,2.6533671457e+000,2.8958916142e+000,4.7932553586e+000,2.8911508195e+000,3.5790637021e+000,2.8196057051e+000,3.2040303630e+000,
7.0312500000e+000,3.1658687764e+000,3.0597575898e+000,2.7579283075e+000,2.8598725972e+000,3.5907708004e+000,3.2851677900e+000,2.2646045893e+000,2.8444323007e+000,2.9081066847e+000,4.9522687051e+000,2.8845097556e+000,3.6863536913e+000,2.8654673120e+000,3.2220561436e+000,
7.1250000000e+000,3.2278985830e+000,3.0661035439e+000,2.8648433151e+000,2.8344879099e+000,3.6532983145e+000,3.2054130886e+000,2.5328837968e+000,2.8816539080e+000,3.0319431159e+000,4.9260646615e+000,2.9269279264e+000,3.5895541489e+000,2.8925952269e+000,3.0845638976e+000,
7.2187500000e+000,3.2255439549e+000,2.9803214687e+000,2.9380214401e+000,2.9114314590e+000,3.7170550988e+000,3.1717927952e+000,2.6761323108e+000,2.8060872546e+000,3.0943113546e+000,4.8862748119e+000,2.8806080569e+000,3.5019841617e+000,2.7267227700e+000,3.0542904567e+000,
7.3125000000e+000,3.1875005790e+000,2.9816214251e+000,2.8808795651e+000,2.9244610932e+000,3.7148463941e+000,3.1135112285e+000,2.7096003331e+000,2.6171922862e+000,3.0653554292e+000,4.8047239450e+000,2.8528963541e+000,3.5000305773e+000,2.7643246677e+000,3.1058240358e+000,
7.4062500000e+000,3.2669475907e+000,3.0708403051e+000,2.8914824242e+000,2.9425345345e+000,3.6736268843e+000,3.1691924845e+000,2.7767364446e+000,2.5961729893e+000,3.0253923645e+000,4.8103748213e+000,2.8997601375e+000,3.5344341838e+000,2.8159334276e+000,3.1024647505e+000,
7.5000000000e+000,3.2340870633e+000,3.1100589657e+000,3.0317742461e+000,2.9797960039e+000,3.6384352674e+000,3.1576697711e+000,2.8472623923e+000,2.6163990995e+000,3.0491309895e+000,4.7904593711e+000,2.9296442436e+000,3.5167230815e+000,2.7833506448e+000,3.1087735563e+000,
7.5937500000e+000,3.1553592656e+000,3.1405033821e+000,2.9540937783e+000,2.9043825943e+000,3.6249881658e+000,3.0964944502e+000,2.9117407852e+000,2.5920994473e+000,2.9487904496e+000,4.7788684750e+000,2.8955732814e+000,3.4394432575e+000,2.6964290447e+000,3.0939401599e+000,
7.6875000000e+000,3.1355330113e+000,3.1270234054e+000,3.0068073303e+000,2.8053838748e+000,3.6975310822e+000,3.1155368495e+000,2.9899177142e+000,2.5505240189e+000,2.9641426399e+000,4.8619548424e+000,2.8604211288e+000,3.5187631295e+000,2.8168940659e+000,3.1881163406e+000,
7.7812500000e+000,3.1175905318e+000,3.1723464322e+000,3.0500978629e+000,2.8111797226e+000,3.7498490082e+000,3.0505236349e+000,2.9847144409e+000,2.4939443231e+000,3.0177938710e+000,4.8232346939e+000,2.7876869095e+000,3.5260428948e+000,2.8476540169e+000,3.2070728427e+000,
7.8750000000e+000,3.0282419584e+000,3.2947527287e+000,2.9847051400e+000,2.7187891582e+000,3.8182164285e+000,3.1190165488e+000,2.9758236617e+000,2.4865514006e+000,3.0493653787e+000,4.7676876157e+000,2.6302927686e+000,3.4422131088e+000,2.7522901429e+000,3.0905354017e+000,
7.9687500000e+000,2.9961268619e+000,3.3508837532e+000,2.9797090401e+000,2.7480636820e+000,3.8376701409e+000,3.1732256011e+000,2.9452350420e+000,2.3761384621e+000,2.9820854359e+000,4.6774937356e+000,2.6890996613e+000,3.3270391555e+000,2.7315669410e+000,3.0790888080e+000,
8.0625000000e+000,2.9007971570e+000,3.3223693975e+000,2.9588469407e+000,2.6920892269e+000,3.7625109242e+000,3.0037223869e+000,2.8368320316e+000,2.3100073606e+000,2.9255459213e+000,4.5828721160e+000,2.6337209003e+000,3.2271254633e+000,2.6541567372e+000,3.0404915864e+000,
8.1562500000e+000,2.9736988983e+000,3.4287780328e+000,2.8716392532e+000,2.7398826588e+000,3.7623313247e+000,3.2001378431e+000,2.7710136840e+000,2.5435250040e+000,2.9319023918e+000,4.6329837996e+000,2.6175149598e+000,3.3076091961e+000,2.6333445446e+000,3.0583817906e+000,
8.2500000000e+000,2.9976973553e+000,3.4020114515e+000,2.7988630111e+000,2.5824254678e+000,3.6922033837e+000,3.1690430617e+000,2.7026451744e+000,2.5210011376e+000,2.9026287944e+000,4.6431783341e+000,2.5459389469e+000,3.2810184000e+000,2.5906261858e+000,2.9715412124e+000,
8.3437500000e+000,2.8952971549e+000,3.3807265967e+000,2.6978230112e+000,2.5199831926e+000,3.6932015671e+000,3.1091210902e+000,2.4958970505e+000,2.5292416375e+000,2.9177836241e+000,4.7464010508e+000,2.5308422980e+000,3.1319660498e+000,2.4766841086e+000,2.8038795985e+000,
8.4375000000e+000,2.9324587379e+000,3.4599402993e+000,2.6372711907e+000,2.6001426907e+000,3.7654392306e+000,3.3077335088e+000,2.4666020571e+000,2.7327938622e+000,2.8881303888e+000,4.7734065512e+000,2.4592594844e+000,3.1121257509e+000,2.5490148997e+000,2.7967689597e+000,
8.5312500000e+000,2.9525202794e+000,3.4433747804e+000,2.4379986063e+000,2.5897098375e+000,3.7395267940e+000,3.3608814932e+000,2.4221999333e+000,2.8421891688e+000,2.8373491474e+000,4.7905755178e+000,2.4703029628e+000,3.0780615253e+000,2.5906738735e+000,2.8160739691e+000,
8.6250000000e+000,2.8505498685e+000,3.3112103456e+000,2.3085545298e+000,2.5693905378e+000,3.6172620194e+000,3.2780788112e+000,2.1815832312e+000,2.8618333755e+000,2.7856220521e+000,4.7496506474e+000,2.3573645511e+000,2.9955318255e+000,2.3589684572e+000,2.6139466737e+000,
8.7187500000e+000,2.8544147287e+000,3.3277232603e+000,2.3209327172e+000,2.6193190707e+000,3.5997766987e+000,3.2965132084e+000,2.2750341470e+000,2.8421051870e+000,2.8032376783e+000,4.7534033786e+000,2.3816189507e+000,2.8254962580e+000,2.2412604367e+000,2.5936212193e+000,
8.8125000000e+000,2.8716495946e+000,3.3462347801e+000,2.2059784105e+000,2.5602918563e+000,3.7371791768e+000,3.3004542006e+000,2.3912924086e+000,2.8100277825e+000,2.7698475401e+000,4.7565643736e+000,2.4027294819e+000,2.7880562714e+000,2.0617972467e+000,2.5059765284e+000,
8.9062500000e+000,2.7969855980e+000,3.2179541839e+000,2.1519789027e+000,2.5463500099e+000,3.6430128499e+000,3.3059157910e+000,2.4679984662e+000,2.8972270922e+000,2.8340963285e+000,4.7709591753e+000,2.3578198182e+000,2.8874865376e+000,2.0556616135e+000,2.5729297114e+000,
9.0000000000e+000,3.0447271975e+000,3.3388766297e+000,2.4295395534e+000,2.6806214570e+000,3.6827717132e+000,3.4543289919e+000,2.5826895549e+000,3.0366176863e+000,2.9596095595e+000,4.7538252330e+000,2.4037661573e+000,2.9752206084e+000,2.0251983379e+000,2.6634457076e+000,
9.0937500000e+000,3.0087356858e+000,3.3899454874e+000,2.2989088032e+000,2.6530550325e+000,3.6118643434e+000,3.5448886692e+000,2.4789908860e+000,2.9844655125e+000,2.9366326792e+000,4.7443871101e+000,2.4392717740e+000,2.9244062581e+000,2.0119405436e+000,2.7057119032e+000,
9.1875000000e+000,2.8178415521e+000,3.2809998128e+000,2.1831022340e+000,2.5429903379e+000,3.5485613400e+000,3.5767784080e+000,2.4715645932e+000,2.9308310567e+000,2.8967673037e+000,4.8465236905e+000,2.5045429140e+000,2.9633081928e+000,2.0331097569e+000,2.7867323930e+000,
9.2812500000e+000,2.8891447156e+000,3.3340401238e+000,2.2634797967e+000,2.5397170230e+000,3.5965109649e+000,3.5930527786e+000,2.5965467704e+000,2.9472418055e+000,2.8989874849e+000,4.8690412448e+000,2.4939941611e+000,3.0008633498e+000,2.2346350098e+000,2.8046609396e+000,
9.3750000000e+000,2.8268364782e+000,3.2778935607e+000,2.3150892812e+000,2.4506206298e+000,3.5935529608e+000,3.5238594140e+000,2.6816139390e+000,2.9377702123e+000,2.8543705175e+000,4.7590003532e+000,2.5746234750e+000,3.0821175458e+000,2.3588810558e+000,2.7696242592e+000,
9.4687500000e+000,2.7506267516e+000,3.1650298553e+000,2.2625949325e+000,2.3805424809e+000,3.5304883591e+000,3.3930172913e+000,2.6300619567e+000,2.8781026416e+000,3.0155330590e+000,4.7812181763e+000,2.5896184196e+000,3.0316656759e+000,2.2652691302e+000,2.7642554760e+000,
9.5625000000e+000,2.7482346526e+000,3.2877867018e+000,2.2701929396e+000,2.4250015903e+000,3.6205055992e+000,3.5707255655e+000,2.7248370206e+000,2.8762830243e+000,3.0704884838e+000,4.7065241310e+000,2.5716390610e+000,3.1405682939e+000,2.1104310371e+000,2.7000815998e+000,
9.6562500000e+000,2.7643994078e+000,3.3477622796e+000,2.3460358887e+000,2.4039047993e+000,3.6511280537e+000,3.6206198694e+000,2.7057245593e+000,2.8942375453e+000,3.0521914427e+000,4.7240891830e+000,2.6634084255e+000,3.1674790745e+000,2.2742862870e+000,2.7163816841e+000,
9.7500000000e+000,2.7600738190e+000,3.3441750364e+000,2.4288263302e+000,2.3547861150e+000,3.5859956715e+000,3.6031094721e+000,2.6698657210e+000,2.9526979703e+000,3.1061011978e+000,4.6819008297e+000,2.6783393212e+000,3.1386130149e+000,2.4233788723e+000,2.6759576375e+000,
9.8437500000e+000,2.7286799839e+000,3.3148704729e+000,2.4184040833e+000,2.3236732413e+000,3.3685036234e+000,3.6051073320e+000,2.5578449587e+000,2.9884156997e+000,3.0679017719e+000,4.7266688670e+000,2.7776579062e+000,3.0866319718e+000,2.4894220648e+000,2.5881474904e+000,
9.9375000000e+000,2.6840221562e+000,3.2769491166e+000,2.4044778624e+000,2.3438838873e+000,3.3564071118e+000,3.6344414947e+000,2.4822350129e+000,2.7981840362e+000,3.0404661120e+000,4.6916542603e+000,2.8150210412e+000,3.0308683695e+000,2.4877727587e+000,2.5019173348e+000,
1.0031250000e+001,2.4290118416e+000,3.1372640134e+000,2.0876377870e+000,2.1473844566e+000,3.2988081755e+000,3.5970295677e+000,2.3759998268e+000,2.7248450574e+000,2.9911978481e+000,4.6584671885e+000,2.8473188884e+000,3.0381446927e+000,2.5059919912e+000,2.5428784653e+000,
1.0125000000e+001,2.5112684800e+000,3.0746856802e+000,2.3175895105e+000,2.2401094946e+000,3.2391682111e+000,3.4556833803e+000,2.3334184964e+000,2.6575893324e+000,3.0766507241e+000,4.6790240770e+000,2.8809092620e+000,3.0283246189e+000,2.5156553872e+000,2.5933437202e+000,
1.0218750000e+001,2.5233889618e+000,3.0864607078e+000,2.3918409580e+000,2.2734568264e+000,3.1160052318e+000,3.4030145343e+000,2.3051278330e+000,2.5468264607e+000,3.1917220284e+000,4.5900737804e+000,2.9170571409e+000,3.0116498630e+000,2.4368857828e+000,2.5452579602e+000,
1.0312500000e+001,2.4164352248e+000,3.0046683151e+000,2.5179340948e+000,2.3617141721e+000,2.8728764463e+000,3.3253821654e+000,2.0474079282e+000,2.4070329531e+000,3.1826792230e+000,4.5438576951e+000,2.8983041062e+000,2.9455794884e+000,2.3291625585e+000,2.5632721395e+000,
1.0406250000e+001,2.4891335222e+000,3.0201072350e+000,2.5490870518e+000,2.3576701209e+000,2.8665382226e+000,3.3257337203e+000,2.0588832820e+000,2.4751559722e+000,3.1351153931e+000,4.6631373544e+000,2.9436896658e+000,2.9078109054e+000,2.2980164693e+000,2.6474528241e+000,
1.0500000000e+001,2.6316538613e+000,3.0822461620e+000,2.7141239638e+000,2.3733089320e+000,3.0691902136e+000,3.3301430188e+000,2.1218510313e+000,2.4580068943e+000,3.0938477453e+000,4.6388448280e+000,2.9918743430e+000,3.0090287688e+000,2.2894298600e+000,2.7158766013e+000,
1.0593750000e+001,2.5304736422e+000,2.9025237091e+000,2.6778980744e+000,2.3065575372e+000,2.9603002129e+000,3.1157890304e+000,2.1169150169e+000,2.2751282294e+000,3.0580231321e+000,4.5971741108e+000,2.9287822181e+000,2.9368108977e+000,2.2655837036e+000,2.6560757606e+000,
1.0687500000e+001,2.5680278130e+000,2.9795390562e+000,2.6643707462e+000,2.4772579518e+000,3.0417378978e+000,3.1486254456e+000,2.2918888877e+000,2.3032605344e+000,3.1614169038e+000,4.6034334252e+000,2.9721388927e+000,2.9841592232e+000,2.0930966551e+000,2.6681933636e+000,
1.0781250000e+001,2.4922355852e+000,2.9536638363e+000,2.6484582924e+000,2.5201042212e+000,3.0238779934e+000,3.2172035628e+000,2.2687578001e+000,2.1450821343e+000,3.1352164885e+000,4.6275489543e+000,3.0217529016e+000,3.1229185010e+000,1.8661399695e+000,2.6904685289e+000,
1.0875000000e+001,2.4704603530e+000,2.9694574125e+000,2.7170225292e+000,2.5326149047e+000,2.9389285475e+000,3.2064321818e+000,2.2714503702e+000,2.2369025495e+000,3.0737814220e+000,4.5462457990e+000,2.9438964357e+000,3.1934620921e+000,1.7651914781e+000,2.7611784371e+000,
1.0968750000e+001,2.6156394034e+000,2.9433273112e+000,2.7349385515e+000,2.5363158917e+000,2.9988474189e+000,3.0392432953e+000,2.2836528919e+000,2.4186215575e+000,3.0266157472e+000,4.6272864808e+000,2.9203370538e+000,3.1679750132e+000,1.7387293754e+000,2.6822314891e+000,
1.1062500000e+001,2.6464570759e+000,3.1189739763e+000,2.8610910365e+000,2.7014135998e+000,2.9758327742e+000,3.2635569013e+000,2.4313898809e+000,2.5510141371e+000,2.9490825369e+000,4.6360841885e+000,2.8189160763e+000,3.1353938420e+000,1.8649417570e+000,2.5109097085e+000,
1.1156250000e+001,2.5724207821e+000,3.0939138441e+000,2.7132911310e+000,2.7107350786e+000,2.9881874869e+000,3.2105639380e+000,2.4345643969e+000,2.5423769492e+000,2.7643761799e+000,4.5804407033e+000,2.7203814262e+000,2.9425915540e+000,2.0101182900e+000,2.2750454460e+000,
1.1250000000e+001,2.6721943505e+000,3.1047915328e+000,2.6615301607e+000,2.6454431928e+000,3.2103622950e+000,3.2601137405e+000,2.5038840104e+000,2.6219062336e+000,2.6834076185e+000,4.7270108858e+000,2.6408687203e+000,3.0026377282e+000,2.2353313308e+000,2.2924500890e+000,
1.1343750000e+001,2.7546024694e+000,3.2131737096e+000,2.5717998951e+000,2.6234158180e+000,3.3248871186e+000,3.3337290569e+000,2.5431437988e+000,2.6782783358e+000,2.6715356685e+000,4.6250486669e+000,2.5911934363e+000,3.2053997297e+000,2.5751210567e+000,2.5531911915e+000,
1.1437500000e+001,2.7004651936e+000,3.2562604225e+000,2.6589344328e+000,2.6536540785e+000,3.2464145791e+000,3.3875419274e+000,2.4067666929e+000,2.6837085190e+000,2.7561465364e+000,4.5621493944e+000,2.4384382015e+000,3.1843513958e+000,2.5608777684e+000,2.3235711478e+000,
1.1531250000e+001,2.7907593147e+000,3.3066454002e+000,2.6177862618e+000,2.6714089246e+000,3.2178441805e+000,3.3814828784e+000,2.3847897669e+000,2.6942031538e+000,2.6960440479e+000,4.6922931044e+000,2.3900963929e+000,3.2273748908e+000,2.7679553487e+000,2.5720037314e+000,
1.1625000000e+001,2.9137609798e+000,3.4185716958e+000,2.7999935235e+000,2.7106896481e+000,3.2818850143e+000,3.4452091309e+000,2.3954348174e+000,2.8217919703e+000,2.8186019840e+000,4.7417797299e+000,2.4603419347e+000,3.2549751108e+000,2.7884764689e+000,2.6203535958e+000,
1.1718750000e+001,3.0406923358e+000,3.3894116328e+000,2.8836324505e+000,2.6253318989e+000,3.2843963212e+000,3.4575696522e+000,2.3852822879e+000,2.7533265284e+000,2.8402867302e+000,4.7224937085e+000,2.2803351253e+000,3.3020487551e+000,2.8839217377e+000,2.7050317172e+000,
1.1812500000e+001,3.1812704737e+000,3.4107771208e+000,2.9259992498e+000,2.6634047691e+000,3.5317063537e+000,3.3888795067e+000,2.5177190862e+000,2.7505194018e+000,2.9850417478e+000,4.7443980237e+000,2.0767626318e+000,3.2454925014e+000,2.9035642865e+000,2.6665163664e+000,
1.1906250000e+001,3.2431084477e+000,3.4158312421e+000,2.9260145373e+000,2.6932337830e+000,3.6061907431e+000,3.3976778681e+000,2.5986820985e+000,2.7077341700e+000,2.9888208923e+000,4.7456517183e+000,2.0506762273e+000,3.2374942176e+000,3.0043332308e+000,2.7107692115e+000,
1.2000000000e+001,3.1456551194e+000,3.4051274840e+000,2.9307808879e+000,2.5012416115e+000,3.6133952143e+000,3.3204129271e+000,2.5339483386e+000,2.6734851073e+000,3.1491833611e+000,4.6808134908e+000,2.0871934085e+000,3.2925166305e+000,3.0303224235e+000,2.7559456872e+000,
1.2093750000e+001,3.0980427570e+000,3.3071929819e+000,2.9022809769e+000,2.5210264303e+000,3.5962004641e+000,3.1698711568e+000,2.4841866456e+000,2.7025234456e+000,3.1658257480e+000,4.7398699776e+000,2.0943068952e+000,3.3076986856e+000,2.9764431231e+000,2.8388207382e+000,
1.2187500000e+001,3.0966110520e+000,3.2718241057e+000,2.9612762844e+000,2.4586808695e+000,3.5941840627e+000,3.2327885273e+000,2.5623677732e+000,2.7551655051e+000,3.1521911499e+000,4.6235224817e+000,2.1957415887e+000,3.3891466722e+000,2.9019794250e+000,2.8713549021e+000,
1.2281250000e+001,3.0567787909e+000,3.2782878705e+000,3.1134990240e+000,2.5502238983e+000,3.6113140265e+000,3.2509104738e+000,2.5806132030e+000,2.6629480967e+000,3.2314027659e+000,4.6362291060e+000,2.2651731820e+000,3.3512134626e+000,2.7565896280e+000,2.9266678039e+000,
1.2375000000e+001,3.0015750846e+000,3.1783469189e+000,3.0796783323e+000,2.4998564095e+000,3.6055475786e+000,3.2138886636e+000,2.5417292152e+000,2.6079888589e+000,3.1996418155e+000,4.6833620358e+000,2.1817854463e+000,3.2580032452e+000,2.4753549733e+000,2.8476814628e+000,
1.2468750000e+001,3.0126237910e+000,3.1223024954e+000,3.0730252041e+000,2.3992917384e+000,3.6620980134e+000,3.2602777272e+000,2.6853748314e+000,2.6453344491e+000,3.1420640650e+000,4.7390096585e+000,2.1879556157e+000,3.2116578187e+000,2.4313460787e+000,2.8514486501e+000,
1.2562500000e+001,2.9329285932e+000,3.1059467284e+000,3.1437557869e+000,2.3717451178e+000,3.6727973250e+000,3.3042697107e+000,2.6756008310e+000,2.7635594835e+000,3.1621681552e+000,4.6672769700e+000,2.2511363280e+000,3.1481592783e+000,2.2951466021e+000,2.6762990679e+000,
1.2656250000e+001,2.8744663864e+000,2.9993644476e+000,2.9685995371e+000,2.3880783551e+000,3.5841013092e+000,3.2209546570e+000,2.6529536990e+000,2.6661043836e+000,3.0543431343e+000,4.7187256029e+000,2.0887744410e+000,3.0254793012e+000,2.3124989135e+000,2.6153513613e+000,
1.2750000000e+001,2.6210119307e+000,2.9160258239e+000,2.8937895161e+000,2.4047593718e+000,3.4786954889e+000,3.1763607350e+000,2.6415429785e+000,2.7579665536e+000,3.0156904411e+000,4.8087969919e+000,2.3530574287e+000,3.0458486462e+000,2.4799662524e+000,2.6129370617e+000,
1.2843750000e+001,2.5729095793e+000,2.9185243437e+000,2.9056244268e+000,2.3363275397e+000,3.2690115883e+000,3.1517894490e+000,2.4849824772e+000,2.8337738911e+000,2.8644288469e+000,4.8767552851e+000,2.3931263054e+000,3.0922886455e+000,2.5655705802e+000,2.7366587795e+000,
1.2937500000e+001,2.5728558168e+000,2.9917345064e+000,2.8797759093e+000,2.5716332004e+000,3.1724308247e+000,3.2116529406e+000,2.6187770327e+000,2.9137106280e+000,2.8902354355e+000,5.0617914421e+000,2.3562046519e+000,3.2188944846e+000,2.4979797666e+000,2.7441970754e+000,
1.3031250000e+001,2.5264316024e+000,2.9595112456e+000,2.8058889883e+000,2.6400554395e+000,3.1165465113e+000,3.2411540186e+000,2.6539131490e+000,2.9566711559e+000,2.7637531121e+000,5.0161782070e+000,2.2946549157e+000,3.1537461032e+000,2.6343077588e+000,2.6958349693e+000,
1.3125000000e+001,2.5670244516e+000,2.9898705394e+000,2.8422400942e+000,2.4990933680e+000,3.0856273622e+000,3.2705509378e+000,2.6710059114e+000,2.8820869771e+000,2.8480780362e+000,5.1321073272e+000,2.2600412655e+000,3.2375476893e+000,2.6707907288e+000,2.6229267601e+000,
1.3218750000e+001,2.5855696310e+000,3.0033850023e+000,2.7338639020e+000,2.5918339140e+000,3.0767314689e+000,3.2551971614e+000,2.5210510609e+000,2.9109240548e+000,2.8647557791e+000,5.1890043127e+000,2.3503761823e+000,3.2367924518e+000,2.6474097571e+000,2.5024909119e+000,
1.3312500000e+001,2.6792193401e+000,3.0525469650e+000,2.6769687839e+000,2.5772625756e+000,2.9930488829e+000,3.1932824960e+000,2.5429898886e+000,2.9149316779e+000,2.8449841495e+000,5.1753855566e+000,2.5468832610e+000,3.1772039739e+000,2.6502593067e+000,2.4614990116e+000,
1.3406250000e+001,2.6705183701e+000,3.0905385038e+000,2.5663991957e+000,2.6465832452e+000,2.8015627070e+000,3.3298237365e+000,2.5390948841e+000,2.9919036272e+000,2.9261724279e+000,5.1851252017e+000,2.6411666373e+000,3.1902754325e+000,2.7561678335e+000,2.5369424895e+000,
1.3500000000e+001,2.6231570067e+000,3.0134325584e+000,2.3394798161e+000,2.6287823725e+000,2.6289195598e+000,3.1894145137e+000,2.4670166653e+000,2.9294193054e+000,2.8913835079e+000,5.1022047169e+000,2.6255517657e+000,3.2136836537e+000,2.7773876826e+000,2.5840100853e+000,
1.3593750000e+001,2.6060941793e+000,3.0131064221e+000,2.3433926394e+000,2.6212724407e+000,2.6054309265e+000,3.1270012645e+000,2.4632654650e+000,2.8947545333e+000,2.8567637280e+000,5.1138629106e+000,2.6326573463e+000,3.3097045771e+000,2.7483989570e+000,2.6748083098e+000,
1.3687500000e+001,2.8300437425e+000,3.1814256572e+000,2.5701679780e+000,2.6961731043e+000,2.5432951309e+000,3.3122974472e+000,2.4780715451e+000,2.9555177521e+000,2.8376693332e+000,5.1018773307e+000,2.6913007810e+000,3.3632460259e+000,2.6144565924e+000,2.7743217833e+000,
1.3781250000e+001,2.8445217845e+000,3.2390098215e+000,2.5492661138e+000,2.6980362382e+000,2.7873940929e+000,3.2937187483e+000,2.4531554757e+000,3.0489420219e+000,2.8885105955e+000,5.1578702274e+000,2.5966423824e+000,3.3607200725e+000,2.5051370755e+000,2.7155548505e+000,
1.3875000000e+001,2.7806657682e+000,3.1344383872e+000,2.4223937495e+000,2.5150422549e+000,2.8730546581e+000,3.3273423930e+000,2.3392276508e+000,2.9062052951e+000,2.8470542283e+000,5.1353599919e+000,2.6596579494e+000,3.3829325398e+000,2.3334884071e+000,2.6895338173e+000,
1.3968750000e+001,2.8633590819e+000,3.1146491498e+000,2.5061655864e+000,2.3548004760e+000,3.0253211038e+000,3.4215633174e+000,2.4069041447e+000,2.8446512158e+000,2.8576195154e+000,5.0607481592e+000,2.7750813514e+000,3.3581672928e+000,2.3616834104e+000,2.7587559523e+000,
1.4062500000e+001,3.0147670331e+000,3.3347201911e+000,2.6654141003e+000,2.5772775415e+000,3.1248305267e+000,3.4171031606e+000,2.5032108697e+000,2.8255255242e+000,2.8843095660e+000,5.0527714247e+000,2.7932252643e+000,3.4285833961e+000,2.1327791000e+000,2.9048755636e+000,
1.4156250000e+001,3.0364717345e+000,3.4313902567e+000,2.5900404984e+000,2.6862088238e+000,3.2345762666e+000,3.3598384168e+000,2.5995478252e+000,2.8277073200e+000,2.8010160216e+000,4.9477720539e+000,2.7611345960e+000,3.4176238082e+000,2.1319419906e+000,3.0678816152e+000,
1.4250000000e+001,3.0253407394e+000,3.4823245691e+000,2.7456534788e+000,2.6473533787e+000,3.3076075176e+000,3.3624144265e+000,2.6656882098e+000,2.9255711663e+000,2.7359733524e+000,4.8804937336e+000,2.5876801559e+000,3.4061004398e+000,2.1591774050e+000,3.1462766117e+000,
1.4343750000e+001,2.9586535094e+000,3.4227266292e+000,2.7649324038e+000,2.6322317916e+000,3.3261726126e+000,3.2939422258e+000,2.5716384919e+000,2.9548261035e+000,2.7257901960e+000,4.8790076617e+000,2.5186625293e+000,3.4294357730e+000,2.1542758150e+000,3.2523697038e+000,
1.4437500000e+001,2.9504765445e+000,3.4184420086e+000,2.8280686615e+000,2.5589901320e+000,3.3877648672e+000,3.2396544375e+000,2.5374200334e+000,2.9286870269e+000,2.7488021315e+000,4.8886493935e+000,2.4999103939e+000,3.4146497169e+000,1.8522920372e+000,3.2127990384e+000,
1.4531250000e+001,2.9489498394e+000,3.4039150339e+000,2.8629481904e+000,2.5620394778e+000,3.3999195864e+000,3.2516375982e+000,2.5383160368e+000,2.9074279347e+000,2.7850472978e+000,4.9361401985e+000,2.7536137096e+000,3.3726860375e+000,1.8947333849e+000,3.1699660805e+000,
1.4625000000e+001,2.9015796038e+000,3.3922691462e+000,2.8944369853e+000,2.6618337288e+000,3.4092087670e+000,3.2925969399e+000,2.5531576331e+000,2.9830999100e+000,2.7958313981e+000,4.8847741075e+000,2.6447643830e+000,3.3092555305e+000,1.6243130916e+000,3.1656358394e+000,
1.4718750000e+001,2.7637283604e+000,3.3196547319e+000,2.8082750243e+000,2.5596979986e+000,3.3817346284e+000,3.2218625395e+000,2.5369755838e+000,2.9655240025e+000,2.7636973589e+000,4.8721560580e+000,2.6245935278e+000,3.2759633675e+000,1.5924016292e+000,3.1248435193e+000,
1.4812500000e+001,2.7974089456e+000,3.2646350449e+000,2.8206287251e+000,2.5908581036e+000,3.3216501310e+000,3.2924877623e+000,2.5835508254e+000,2.9098097589e+000,2.7655160406e+000,4.7820087402e+000,2.6397247694e+000,3.1327290891e+000,1.6663888727e+000,3.1116740340e+000,
1.4906250000e+001,2.8507976349e+000,3.3448586630e+000,2.8349501967e+000,2.6074378988e+000,3.2054153942e+000,3.2223098785e+000,2.6185329419e+000,2.9574520737e+000,2.7996249669e+000,4.7601124645e+000,2.5086766283e+000,3.0394833802e+000,1.6445685093e+000,3.0563614166e+000,
1.5000000000e+001,2.7637369484e+000,3.3273331968e+000,2.8696845687e+000,2.5301042873e+000,3.1625634452e+000,3.1511984951e+000,2.5383225622e+000,3.0122912558e+000,2.7473730590e+000,4.7562476213e+000,2.4473298322e+000,2.8978154090e+000,1.7277135328e+000,2.9613804401e+000,
1.5093750000e+001,2.6001899923e+000,3.1237425957e+000,2.7785021065e+000,2.3019183248e+000,3.0673693135e+000,3.1099491452e+000,2.5536735614e+000,2.9880429869e+000,2.7783809625e+000,4.8540193240e+000,2.3717840698e+000,2.7184990700e+000,1.7202500631e+000,2.7914726498e+000,
1.5187500000e+001,2.5691759862e+000,3.0789695930e+000,2.8735422400e+000,2.2601777548e+000,3.0160957817e+000,3.2685498493e+000,2.5681999864e+000,2.9421488323e+000,2.8058573225e+000,4.9691606233e+000,2.4758449691e+000,2.6452047993e+000,1.6983735502e+000,2.6158127901e+000,
1.5281250000e+001,2.6765853459e+000,3.2137289868e+000,2.8210683460e+000,2.3647453673e+000,2.9345653373e+000,3.4144762987e+000,2.5945299888e+000,3.0125241540e+000,2.8329478876e+000,5.1415080634e+000,2.5145378182e+000,2.7426071680e+000,1.6960333478e+000,2.4644250044e+000,
1.5375000000e+001,2.6927767626e+000,3.1965917344e+000,2.9000945097e+000,2.5009552078e+000,2.9220719691e+000,3.4569815274e+000,2.6973110781e+000,2.9765307002e+000,2.9464134763e+000,5.1172415048e+000,2.6232946537e+000,2.7277772419e+000,1.6697786240e+000,2.5211406564e+000,
1.5468750000e+001,2.7959779086e+000,3.2614817897e+000,2.8969908991e+000,2.5521133082e+000,2.8832191198e+000,3.4824779506e+000,2.7385444063e+000,2.9884624022e+000,2.8023794519e+000,5.1335262060e+000,2.6478849420e+000,2.7360492280e+000,1.6182033071e+000,2.4774985914e+000,
1.5562500000e+001,2.8873647641e+000,3.3445509171e+000,2.9605957348e+000,2.5857386287e+000,2.9784807876e+000,3.4381618884e+000,2.7625251441e+000,3.0947234801e+000,2.7900238105e+000,5.1284683903e+000,2.6013449117e+000,2.6514316735e+000,1.6187899504e+000,2.4779190973e+000,
1.5656250000e+001,2.8273853419e+000,3.2806719345e+000,2.9942793907e+000,2.4534160132e+000,3.0537979341e+000,3.3963234836e+000,2.7575730896e+000,3.0084242200e+000,2.8308608756e+000,5.1371573288e+000,2.6514762068e+000,2.6885685653e+000,1.6500750227e+000,2.4866968812e+000,
1.5750000000e+001,2.8496663789e+000,3.2793944549e+000,3.0215120653e+000,2.4094656587e+000,3.0897071743e+000,3.3418801486e+000,2.6928812693e+000,3.1014513964e+000,2.8615726271e+000,5.2031322896e+000,2.6344169506e+000,2.8822358423e+000,1.7497745050e+000,2.6003999831e+000,
1.5843750000e+001,2.9136278962e+000,3.2677282704e+000,3.0355660693e+000,2.4042419249e+000,3.0838440675e+000,3.3841314348e+000,2.7160129181e+000,3.1313348358e+000,2.9003422153e+000,5.1938573505e+000,2.7199939770e+000,3.0012287495e+000,1.7378034007e+000,2.7019398737e+000,
1.5937500000e+001,2.9435269714e+000,3.3059416671e+000,3.0311916334e+000,2.5558652872e+000,3.1469952559e+000,3.4716534919e+000,2.6697282618e+000,3.1019272470e+000,3.0097875726e+000,5.1491133452e+000,2.9010167397e+000,3.2904155974e+000,1.8700051729e+000,2.9364435695e+000,
1.6031250000e+001,2.9242816937e+000,3.2756719331e+000,2.9992880090e+000,2.5295025253e+000,3.3017509673e+000,3.4521848437e+000,2.6214972947e+000,3.0875600999e+000,2.9385946305e+000,5.2173994011e+000,2.9797580229e+000,3.4508185023e+000,1.6740431751e+000,3.1394587387e+000,
1.6125000000e+001,2.9869365020e+000,3.3052358282e+000,3.0340009151e+000,2.6345303891e+000,3.3681318241e+000,3.4873369257e+000,2.6140742365e+000,3.0906916255e+000,2.9534987455e+000,5.1174192132e+000,2.9785764545e+000,3.4665204949e+000,1.9084876462e+000,3.1227667366e+000,
1.6218750000e+001,2.9685042018e+000,3.3129872298e+000,2.9725963592e+000,2.5709848891e+000,3.3070239997e+000,3.4088835985e+000,2.5274447241e+000,3.0991083410e+000,2.9071534530e+000,5.0155903674e+000,2.9207124408e+000,3.4552265373e+000,2.2234659910e+000,3.1519147215e+000,
1.6312500000e+001,2.8635589673e+000,3.1910754402e+000,2.9232159820e+000,2.3285222464e+000,3.2165847016e+000,3.2537534963e+000,2.3806465675e+000,3.0475104106e+000,2.8811287518e+000,4.9148418947e+000,2.9280332372e+000,3.4265673173e+000,2.3688814816e+000,3.1392047226e+000,
1.6406250000e+001,2.9505954264e+000,3.2309590024e+000,2.9279239580e+000,2.3844705651e+000,3.2319211580e+000,3.2830085574e+000,2.4941354062e+000,3.0169819651e+000,2.8535393453e+000,4.9210921889e+000,2.7175557408e+000,3.4494259270e+000,2.3875428401e+000,3.0325934455e+000,
1.6500000000e+001,2.9223495462e+000,3.1763518269e+000,2.8825009991e+000,2.4467089760e+000,3.2362609608e+000,3.2928365708e+000,2.4720107983e+000,2.8550469968e+000,2.9176528139e+000,4.8332648287e+000,2.7145149021e+000,3.5438587777e+000,2.5468972471e+000,3.0671588812e+000,
1.6593750000e+001,2.8735100690e+000,3.1694526521e+000,2.7126702965e+000,2.4236753620e+000,3.0862959249e+000,3.3118565284e+000,2.4607808486e+000,2.8709880387e+000,2.9155296489e+000,4.7969138534e+000,2.7585414736e+000,3.5405248146e+000,2.5654234012e+000,2.9975969730e+000,
1.6687500000e+001,2.9208997033e+000,3.2284754007e+000,2.7243583105e+000,2.4702523790e+000,3.0934410834e+000,3.3454275413e+000,2.4719861982e+000,2.7290499962e+000,2.9249843171e+000,4.7597283923e+000,2.7361557464e+000,3.5281955538e+000,2.6250502768e+000,2.9347998082e+000,
1.6781250000e+001,3.0012646838e+000,3.4353000115e+000,2.7419622807e+000,2.5489202519e+000,3.1652388774e+000,3.3644684479e+000,2.5661579273e+000,2.6050925940e+000,2.9086194029e+000,4.7376251034e+000,2.6575775396e+000,3.4575995238e+000,2.7387421830e+000,2.9085540129e+000,
1.6875000000e+001,2.9372493497e+000,3.4340137307e+000,2.6999595947e+000,2.4945966928e+000,3.1233934218e+000,3.3358678741e+000,2.5504080683e+000,2.5803536673e+000,2.9082334220e+000,4.6822376087e+000,2.6152559016e+000,3.4150290597e+000,2.7767750625e+000,2.8796240847e+000,
1.6968750000e+001,2.8250236770e+000,3.3931168605e+000,2.8532235496e+000,2.4410172748e+000,2.9458766954e+000,3.2883765676e+000,2.5184981006e+000,2.4823605837e+000,2.8376211650e+000,4.6580850722e+000,2.5855796800e+000,3.2127833175e+000,2.9102649059e+000,2.8838930117e+000,
1.7062500000e+001,2.9102583650e+000,3.4074954731e+000,2.8234032766e+000,2.4748113083e+000,2.7650224663e+000,3.3599409995e+000,2.5763537062e+000,2.4974633057e+000,2.9152128681e+000,4.5218924434e+000,2.6131190185e+000,3.1172157996e+000,2.9517419091e+000,2.6822546160e+000,
1.7156250000e+001,2.8059099310e+000,3.3826019067e+000,2.7224684482e+000,2.3006048067e+000,2.7262282324e+000,3.2684229458e+000,2.5292340169e+000,2.5349897279e+000,2.9959398849e+000,4.4956765492e+000,2.6319410107e+000,3.1933030068e+000,3.0262544131e+000,2.8717616191e+000,
1.7250000000e+001,2.7833026619e+000,3.2839077597e+000,2.6505993128e+000,2.3542458847e+000,2.7874321618e+000,3.2023628391e+000,2.5209338967e+000,2.4095834732e+000,2.9694695093e+000,4.5637622443e+000,2.7500147153e+000,3.2476549373e+000,3.0014181027e+000,2.9920504136e+000,
1.7343750000e+001,2.7617551939e+000,3.2445012370e+000,2.5480882086e+000,2.3416639930e+000,2.7890385288e+000,3.1954223265e+000,2.4677035171e+000,2.4162508191e+000,2.9803663189e+000,4.6162710841e+000,2.7861462295e+000,3.1917825718e+000,3.0143505460e+000,2.9970561469e+000,
1.7437500000e+001,2.8581240128e+000,3.4029974339e+000,2.6307081573e+000,2.3721149916e+000,2.8161595908e+000,3.3652058800e+000,2.5188282262e+000,2.6770743768e+000,2.9239564008e+000,4.6173353107e+000,2.8313297643e+000,3.1550760573e+000,3.0686216873e+000,2.9982888368e+000,
1.7531250000e+001,3.1072807997e+000,3.5542494638e+000,2.6476503775e+000,2.3554868220e+000,3.0853535212e+000,3.5765245664e+000,2.5633102816e+000,2.7350635082e+000,2.8340207881e+000,4.5223300517e+000,2.8498586061e+000,3.0796624317e+000,3.0616491152e+000,3.0465025734e+000,
1.7625000000e+001,3.1741356685e+000,3.5772327239e+000,2.6501675589e+000,2.3317422653e+000,3.2700513096e+000,3.6470341741e+000,2.5470572880e+000,2.8003608172e+000,2.8414226131e+000,4.5196385643e+000,2.9688499238e+000,3.0349982612e+000,3.1693909260e+000,3.0407999242e+000,
1.7718750000e+001,3.1178506349e+000,3.5163584758e+000,2.6525034162e+000,2.3102470616e+000,3.1874544913e+000,3.5930361439e+000,2.4330381523e+000,2.8827382183e+000,2.7838951236e+000,4.7353892082e+000,2.9388744318e+000,2.9898521604e+000,3.0692083153e+000,3.1327819779e+000,
1.7812500000e+001,3.1171720418e+000,3.3089636440e+000,2.7336484154e+000,2.3159242623e+000,3.1678069481e+000,3.5818565005e+000,2.3233905515e+000,2.8943036735e+000,2.8024226844e+000,4.7219571375e+000,2.8884393393e+000,2.9787089800e+000,3.0171018545e+000,3.1598583742e+000,
1.7906250000e+001,3.0425566999e+000,3.2454433481e+000,2.6569930713e+000,2.3087595819e+000,3.2110087456e+000,3.5398373349e+000,2.1926159883e+000,2.9510313881e+000,2.7348700619e+000,4.7511922491e+000,2.8619867104e+000,2.9766871059e+000,3.0021954947e+000,3.0839329895e+000,
1.8000000000e+001,3.0007805510e+000,3.2746509554e+000,2.5573535244e+000,2.3015565507e+000,3.2621824473e+000,3.5956436170e+000,2.2261611366e+000,3.0259415622e+000,2.7623236168e+000,4.8724777486e+000,2.7168092265e+000,3.0780205658e+000,2.8326718599e+000,2.9945544385e+000,
1.8093750000e+001,3.0205932470e+000,3.2766499928e+000,2.5443998072e+000,2.3246976416e+000,3.2941321367e+000,3.5806989891e+000,2.0967852442e+000,2.9081131745e+000,2.6258523987e+000,4.9973912055e+000,2.7302421251e+000,3.1121372586e+000,2.7762035265e+000,2.9708385048e+000,
1.8187500000e+001,3.2090696523e+000,3.5212807622e+000,2.7286983234e+000,2.5071655342e+000,3.3779810470e+000,3.7104595446e+000,2.2739240486e+000,3.0260609608e+000,2.6307935478e+000,5.0141017827e+000,2.7225793114e+000,3.1017073417e+000,2.6095439235e+000,2.8882792056e+000,
1.8281250000e+001,3.3373333946e+000,3.6347694974e+000,2.8254523858e+000,2.6087556330e+000,3.4139391397e+000,3.7624106446e+000,2.4008643427e+000,3.0757785037e+000,2.6125368642e+000,4.9545064939e+000,2.5475591941e+000,3.1008850765e+000,2.6713020988e+000,2.8160069817e+000,
1.8375000000e+001,3.3909715939e+000,3.6509641715e+000,2.8846150125e+000,2.6616537369e+000,3.5104186757e+000,3.8220783100e+000,2.4302010620e+000,3.1925856145e+000,2.5616446140e+000,4.9745349854e+000,2.6243110319e+000,3.1962203133e+000,2.6395038751e+000,2.9251334355e+000,
1.8468750000e+001,3.1800835498e+000,3.4790105803e+000,2.8434625504e+000,2.5934715858e+000,3.4656759233e+000,3.7181216668e+000,2.3340119430e+000,3.0840506666e+000,2.5933381485e+000,5.0171299856e+000,2.7015642797e+000,3.3025979912e+000,2.5166108113e+000,3.0086802256e+000,
1.8562500000e+001,3.1148604409e+000,3.3370241732e+000,2.9482569663e+000,2.7393667778e+000,3.3084950654e+000,3.5513503648e+000,2.3836423270e+000,3.0511000764e+000,2.6459642152e+000,5.0178254724e+000,2.3573890368e+000,3.3880054567e+000,2.2354205150e+000,3.1576973053e+000,
1.8656250000e+001,3.1354296379e+000,3.3633152213e+000,2.9735164302e+000,2.7991158789e+000,3.3074110232e+000,3.5157917972e+000,2.4185363020e+000,3.0195923483e+000,2.7173379132e+000,4.9208731434e+000,2.3253609179e+000,3.4294765468e+000,2.2079454611e+000,3.2033107797e+000,
1.8750000000e+001,3.2612791003e+000,3.3938737347e+000,2.9143526664e+000,2.8862653586e+000,3.3085658912e+000,3.5826301868e+000,2.4776279245e+000,2.9821312455e+000,2.7514046744e+000,4.8301193118e+000,2.3674973236e+000,3.4379247333e+000,2.3718001301e+000,3.1147318192e+000,
1.8843750000e+001,3.1726633552e+000,3.3827610369e+000,2.7495088267e+000,2.9054496394e+000,3.4143134475e+000,3.6005117749e+000,2.4905399506e+000,2.9496948565e+000,2.6654096849e+000,4.8992776766e+000,2.4480117895e+000,3.5953881501e+000,2.4076255349e+000,3.1371584620e+000,
1.8937500000e+001,3.2582124150e+000,3.3962584184e+000,2.8356625547e+000,2.9333532282e+000,3.4441779084e+000,3.6385231882e+000,2.4875536249e+000,2.9157452802e+000,2.6475364715e+000,4.8170125269e+000,2.4138525173e+000,3.5543103326e+000,2.5742260123e+000,3.1063863675e+000,
1.9031250000e+001,3.3707817045e+000,3.5106146047e+000,2.9497509161e+000,3.0857873933e+000,3.4966526928e+000,3.6864017380e+000,2.6517323831e+000,2.9984064287e+000,2.6511047227e+000,4.7347376209e+000,2.3532678047e+000,3.5972065289e+000,2.7748310874e+000,3.1973938811e+000,
1.9125000000e+001,3.3426868154e+000,3.4283875938e+000,2.9970278268e+000,3.0702504684e+000,3.4849757285e+000,3.7481012374e+000,2.7236034155e+000,3.0160321704e+000,2.6162449167e+000,4.8451106000e+000,2.4194822690e+000,3.5809014844e+000,2.7616152084e+000,3.2273206521e+000,
1.9218750000e+001,3.2634660423e+000,3.3525623129e+000,3.0127664913e+000,3.0406085424e+000,3.5190790374e+000,3.7449388394e+000,2.6935148660e+000,2.8833518263e+000,2.7341515328e+000,4.8184111639e+000,2.4331178052e+000,3.5078908415e+000,2.6911489972e+000,3.2948702941e+000,
1.9312500000e+001,3.2651822688e+000,3.4107161125e+000,2.9889210158e+000,3.0206575833e+000,3.6088574084e+000,3.8548447414e+000,2.7560662405e+000,2.8205739812e+000,2.7956285058e+000,4.9345084293e+000,2.4542480767e+000,3.5272508706e+000,2.6710913842e+000,3.3298032185e+000,
1.9406250000e+001,3.2764160490e+000,3.4638628045e+000,3.0490652451e+000,2.9826797833e+000,3.5258040438e+000,3.7695785115e+000,2.7509591626e+000,2.6429174894e+000,2.8420707176e+000,4.8564512442e+000,2.4091381831e+000,3.4827427834e+000,2.6602262358e+000,3.2312772688e+000,
1.9500000000e+001,3.2958380891e+000,3.5236090888e+000,3.0957027186e+000,2.9317342313e+000,3.4938645979e+000,3.7074057960e+000,2.7394667653e+000,2.5684558751e+000,2.8433417489e+000,4.8518617784e+000,2.5757662281e+000,3.3945282493e+000,2.6724163676e+000,3.1571982546e+000,
1.9593750000e+001,3.2632188986e+000,3.5231649966e+000,3.0464026300e+000,2.8874452589e+000,3.4946717889e+000,3.7576194225e+000,2.6965329520e+000,2.5867957292e+000,2.8848074402e+000,4.8977054288e+000,2.6510901227e+000,3.3406216909e+000,2.8877108642e+000,3.1149272843e+000,
1.9687500000e+001,3.2522076003e+000,3.5592877019e+000,3.1115557273e+000,2.9248141918e+000,3.5232647643e+000,3.7484463255e+000,2.6813439359e+000,2.7245890320e+000,2.8224520094e+000,4.9103883935e+000,2.6770339559e+000,3.3515838284e+000,2.8194970208e+000,3.1927239354e+000,
1.9781250000e+001,3.2480458737e+000,3.5881198465e+000,3.1577687347e+000,2.9196508558e+000,3.6493522762e+000,3.7432987185e+000,2.6517870985e+000,2.8150332510e+000,2.8121508635e+000,4.9086561181e+000,2.6474975210e+000,3.4597267116e+000,2.8878505027e+000,3.2614268574e+000,
1.9875000000e+001,3.2127015909e+000,3.5275891606e+000,3.1349201527e+000,2.8544086786e+000,3.6357492231e+000,3.6858473373e+000,2.6127443419e+000,2.7511780272e+000,2.8458764145e+000,4.8067353870e+000,2.5987505520e+000,3.2830681045e+000,2.7408591218e+000,3.2403944632e+000,
1.9968750000e+001,3.2611749260e+000,3.5205438472e+000,3.2074829873e+000,2.7405081298e+000,3.6650063657e+000,3.6762616251e+000,2.6009498657e+000,2.7016243119e+000,2.8194214308e+000,4.8371659162e+000,2.5949826627e+000,3.2524371979e+000,2.5761171287e+000,3.2270849453e+000,
2.0062500000e+001,3.2468776104e+000,3.4784896982e+000,3.1506236630e+000,2.6133599112e+000,3.6478350500e+000,3.6132806155e+000,2.3901470658e+000,2.7268282229e+000,2.8324178972e+000,4.6394794728e+000,2.5813412573e+000,3.2479760693e+000,2.4777224567e+000,3.1798526216e+000,
2.0156250000e+001,3.1825360000e+000,3.4395011438e+000,3.0799429515e+000,2.6091558081e+000,3.6314996190e+000,3.5824915186e+000,2.4271623192e+000,2.8080812989e+000,2.7672843095e+000,4.6046285981e+000,2.5689900774e+000,3.2841435288e+000,2.4851635088e+000,3.1373955597e+000,
2.0250000000e+001,3.1774049686e+000,3.3206725931e+000,2.9636251112e+000,2.4501242657e+000,3.7386024888e+000,3.5089685090e+000,2.3633358563e+000,2.8251558517e+000,2.8816429518e+000,4.5831395086e+000,2.5571200983e+000,3.3493070630e+000,2.4134533159e+000,3.0090845797e+000,
2.0343750000e+001,3.0930560681e+000,3.1428694922e+000,2.8498805164e+000,2.4428755605e+000,3.7054719710e+000,3.4298031246e+000,2.2597795450e+000,2.8624354094e+000,2.9829246513e+000,4.6493738151e+000,2.4668472394e+000,3.4842287020e+000,2.3380841353e+000,3.0947998060e+000,
2.0437500000e+001,2.9926752906e+000,3.0483733649e+000,2.8253175954e+000,2.4460846311e+000,3.7657894400e+000,3.4708667513e+000,2.2372488611e+000,2.9255666575e+000,3.0389666957e+000,4.6036956166e+000,2.1162060739e+000,3.4895166059e+000,2.4715316978e+000,3.2552213554e+000,
2.0531250000e+001,3.0511884587e+000,2.9823678113e+000,2.8298373513e+000,2.4456038059e+000,3.8193416950e+000,3.4353638666e+000,2.2300493949e+000,2.9446557332e+000,3.0139352597e+000,4.4942344101e+000,1.9603854714e+000,3.5671178474e+000,2.5159920698e+000,3.3756908242e+000,
2.0625000000e+001,3.1058143009e+000,3.0348856087e+000,2.8005458915e+000,2.4405173854e+000,3.8342025099e+000,3.5421520582e+000,2.3188245189e+000,2.8535683204e+000,3.0395129193e+000,4.5509891284e+000,1.9523479585e+000,3.6087376087e+000,2.4431851347e+000,3.3735921985e+000,
2.0718750000e+001,3.1846987406e+000,3.0988364293e+000,2.7979486436e+000,2.4623650614e+000,3.8327141449e+000,3.5616409856e+000,2.4083480124e+000,2.7895760397e+000,3.0118771652e+000,4.6284564992e+000,1.9893865639e+000,3.5702626513e+000,2.5408945520e+000,3.3642735413e+000,
2.0812500000e+001,3.2803125562e+000,3.1216731673e+000,2.9126854469e+000,2.4778568307e+000,3.8353658100e+000,3.5939900226e+000,2.5193267420e+000,2.6980096239e+000,2.9861195157e+000,4.6256166245e+000,2.0630274062e+000,3.5358800364e+000,2.5814733916e+000,3.3954749883e+000,
2.0906250000e+001,3.1942374269e+000,3.1306128449e+000,2.8176031727e+000,2.4797815557e+000,3.7589282462e+000,3.6063102228e+000,2.5343514521e+000,2.7009968685e+000,2.9982554031e+000,4.6607920090e+000,1.9631642663e+000,3.4888283234e+000,2.6472682658e+000,3.3586392259e+000,
2.1000000000e+001,3.1868932637e+000,3.1990545427e+000,2.9470959498e+000,2.4778663319e+000,3.7666803238e+000,3.6284361898e+000,2.5309924917e+000,2.5605705605e+000,3.0828095154e+000,4.8011569239e+000,2.0159078408e+000,3.5033596690e+000,2.7509520682e+000,3.3640376330e+000,
2.1093750000e+001,3.0881051303e+000,3.2601945439e+000,2.9525664319e+000,2.5173724870e+000,3.7490979638e+000,3.7246130375e+000,2.5620244838e+000,2.4345623618e+000,3.0582331900e+000,4.8136533434e+000,2.0017832596e+000,3.4577289296e+000,2.8778603979e+000,3.3128698481e+000,
2.1187500000e+001,3.0770469312e+000,3.2528939862e+000,2.9329830083e+000,2.6248780394e+000,3.6635628977e+000,3.7457903304e+000,2.5351399039e+000,2.3867198253e+000,3.0179053475e+000,4.7978750915e+000,1.9172657024e+000,3.4747999600e+000,2.9109360712e+000,3.3020653642e+000,
2.1281250000e+001,3.0128592370e+000,3.2441347625e+000,2.9312817058e+000,2.7034905344e+000,3.5321104495e+000,3.7377389320e+000,2.4762310624e+000,2.4561939556e+000,2.8017269611e+000,4.7603863297e+000,2.2934903451e+000,3.4523323429e+000,2.9255398733e+000,3.3014143747e+000,
2.1375000000e+001,2.9960596077e+000,3.2773537172e+000,2.9463420394e+000,2.7435986024e+000,3.6303181841e+000,3.6717769296e+000,2.5154808472e+000,2.4462661569e+000,2.6432539244e+000,4.6285510461e+000,2.3081245407e+000,3.3789989843e+000,2.9474843259e+000,3.2751518020e+000,
2.1468750000e+001,3.1185963889e+000,3.4163884920e+000,2.9618297998e+000,2.8646182595e+000,3.6876080457e+000,3.7106771170e+000,2.6039632824e+000,2.4593168419e+000,2.5628316422e+000,4.6939147636e+000,2.4350507135e+000,3.5378262167e+000,2.8464159357e+000,3.0700120310e+000,
2.1562500000e+001,3.0866987335e+000,3.4556816957e+000,2.9863965465e+000,2.8324076572e+000,3.6698515454e+000,3.7216199396e+000,2.6271929527e+000,2.4474749726e+000,2.6128907988e+000,4.7083600412e+000,2.4042304675e+000,3.5416303233e+000,2.7824668406e+000,2.9134252349e+000,
2.1656250000e+001,2.9026159643e+000,3.4009180785e+000,2.8934375284e+000,2.8125653105e+000,3.6306586415e+000,3.6882344110e+000,2.5296428775e+000,2.4043845394e+000,2.5749034567e+000,4.6523829556e+000,2.5649925475e+000,3.5981964558e+000,2.7297681144e+000,2.7211842434e+000,
2.1750000000e+001,2.7183391784e+000,3.3717588753e+000,2.7735950392e+000,2.7700357085e+000,3.5560987279e+000,3.7396984169e+000,2.4000137285e+000,2.3839131181e+000,2.6185077572e+000,4.6562487817e+000,2.6597207394e+000,3.5502979882e+000,2.6179277463e+000,2.7168976974e+000,
2.1843750000e+001,2.6094665073e+000,3.3237106238e+000,2.6793731955e+000,2.6235803629e+000,3.4969263636e+000,3.7213257511e+000,2.3432037025e+000,2.3687936135e+000,2.6104924481e+000,4.6389806083e+000,2.6672688176e+000,3.5943253850e+000,2.5766655756e+000,2.6369220980e+000,
2.1937500000e+001,2.5844445906e+000,3.2852919014e+000,2.6086217289e+000,2.6229538072e+000,3.4573782832e+000,3.6398826269e+000,2.3600048193e+000,2.3778385742e+000,2.6403672353e+000,4.5549828499e+000,2.7587068980e+000,3.5964071362e+000,2.7764136963e+000,2.8842881369e+000,
2.2031250000e+001,2.6748347747e+000,3.2357475241e+000,2.4632779142e+000,2.6897446116e+000,3.4610653453e+000,3.5047494655e+000,2.4051563136e+000,2.3928491659e+000,2.6127963303e+000,4.4118491916e+000,2.7835631657e+000,3.5007384141e+000,2.7406254298e+000,2.8639826178e+000,
2.2125000000e+001,2.7398307437e+000,3.1644183565e+000,2.4956558328e+000,2.6356463472e+000,3.4011395802e+000,3.3561132558e+000,2.3574002663e+000,2.4192042119e+000,2.6406012559e+000,4.3977439293e+000,2.7943114182e+000,3.5395525885e+000,2.7789838689e+000,2.9085464971e+000,
2.2218750000e+001,2.8271976930e+000,3.1948046815e+000,2.5116435178e+000,2.5963523206e+000,3.3887271935e+000,3.4033857399e+000,2.2412320241e+000,2.4736772471e+000,2.6969304173e+000,4.4727669351e+000,2.8020035667e+000,3.4715722127e+000,2.8647301515e+000,3.0323080574e+000,
2.2312500000e+001,2.8953896711e+000,3.1800382168e+000,2.4298624686e+000,2.5867402367e+000,3.1707816214e+000,3.4070783552e+000,2.2244014277e+000,2.4364303771e+000,2.6903407905e+000,4.6122438280e+000,2.6480521295e+000,3.4758711600e+000,2.9033962695e+000,2.9509371893e+000,
2.2406250000e+001,2.9506853615e+000,3.1590975823e+000,2.4626033225e+000,2.5963331315e+000,2.9308125810e+000,3.3891935538e+000,2.2012526365e+000,2.4395873329e+000,2.7101036205e+000,4.5719903071e+000,2.6357606940e+000,3.4130159416e+000,2.9916781328e+000,3.0030706998e+000,
2.2500000000e+001,2.9303872338e+000,3.0640906388e+000,2.4238113611e+000,2.6490884947e+000,2.8952826475e+000,3.3291991781e+000,2.0528404794e+000,2.2869991126e+000,2.6197414605e+000,4.5824176725e+000,2.6054287411e+000,3.1459913066e+000,2.9965334499e+000,2.9954501069e+000,
2.2593750000e+001,2.8984647446e+000,2.9736544240e+000,2.5248714204e+000,2.7094811258e+000,2.9904516926e+000,3.4666213585e+000,2.0217538105e+000,2.2350607637e+000,2.4498595849e+000,4.5492911260e+000,2.7138275280e+000,3.0652572373e+000,2.9660661173e+000,3.1115120495e+000,
2.2687500000e+001,3.2027155274e+000,3.1726535167e+000,2.9542899559e+000,2.8273428031e+000,3.2185741017e+000,3.6239970081e+000,2.4004960582e+000,2.3580036670e+000,2.5310366188e+000,4.6625456576e+000,2.7923112399e+000,3.1904454209e+000,3.0191280751e+000,3.2661982788e+000,
2.2781250000e+001,3.3147502373e+000,3.2518508972e+000,3.1206766805e+000,2.8932962672e+000,3.3171873488e+000,3.6464352668e+000,2.5151461440e+000,2.4270217106e+000,2.5432570301e+000,4.6511863992e+000,2.7129909125e+000,3.3616654938e+000,3.0331580361e+000,3.2682283861e+000,
2.2875000000e+001,3.3369515693e+000,3.3477137679e+000,3.1772024708e+000,2.9809160865e+000,3.5327630333e+000,3.6635821918e+000,2.6780114986e+000,2.5111284673e+000,2.6403821277e+000,4.6983847833e+000,2.8125932294e+000,3.3899905765e+000,3.0742630722e+000,3.2051750152e+000,
2.2968750000e+001,3.4329261661e+000,3.4814419803e+000,3.1820719838e+000,3.0007226354e+000,3.6795869450e+000,3.6966821076e+000,2.6862758898e+000,2.6401994577e+000,2.6226887164e+000,4.7000860264e+000,2.7659088620e+000,3.4517121623e+000,3.0870953202e+000,3.1684680367e+000,
2.3062500000e+001,3.5509879639e+000,3.6864082758e+000,3.3148764001e+000,3.1138351033e+000,3.7257197942e+000,3.7750509518e+000,2.8634504898e+000,2.7981679977e+000,2.5712497619e+000,4.7408335563e+000,2.8452870812e+000,3.4762782702e+000,3.0304830385e+000,3.2603364219e+000,
2.3156250000e+001,3.5640766278e+000,3.7332305515e+000,3.3524824306e+000,3.2196285318e+000,3.7572304410e+000,3.8362795619e+000,2.9803455550e+000,3.0301067399e+000,2.5762029033e+000,4.6989788489e+000,2.9379960812e+000,3.6452921910e+000,3.0663278696e+000,3.4549026238e+000,
2.3250000000e+001,3.5725918778e+000,3.7986189257e+000,3.3757514070e+000,3.2407137343e+000,3.7449045439e+000,3.8791637545e+000,3.0215574714e+000,3.0636803500e+000,2.5834755985e+000,4.7764889593e+000,3.0798268242e+000,3.8781264240e+000,2.9647172797e+000,3.4606313838e+000,
2.3343750000e+001,3.5698479114e+000,3.8231753118e+000,3.4343492965e+000,3.2081742232e+000,3.8806651886e+000,3.9161507664e+000,3.1180473695e+000,3.1254277563e+000,2.6165907344e+000,4.7951383902e+000,3.1712352275e+000,3.9528368361e+000,3.0251470991e+000,3.5636308809e+000,
2.3437500000e+001,3.6752803462e+000,3.9224060700e+000,3.6458717190e+000,3.2803920501e+000,4.1043289771e+000,3.9203052532e+000,3.2455125835e+000,3.0894145376e+000,2.6063712899e+000,4.8663868657e+000,3.3620820219e+000,4.1541639535e+000,3.1925192334e+000,3.7067922012e+000,
2.3531250000e+001,3.7131172936e+000,3.9595984848e+000,3.6894722635e+000,3.1927751383e+000,4.1170362998e+000,3.8701212254e+000,3.3232950837e+000,3.1554058800e+000,2.6650675268e+000,4.8029045073e+000,3.4594365437e+000,4.3488408376e+000,3.4743120764e+000,3.9876727605e+000,
2.3625000000e+001,3.8492992067e+000,4.1741808446e+000,3.7688774080e+000,3.2779617646e+000,4.1553948359e+000,3.9636407467e+000,3.4172406410e+000,3.3198574294e+000,2.7570225728e+000,4.7740139714e+000,3.5582850439e+000,4.4402792187e+000,3.7080732104e+000,4.1185646762e+000,
2.3718750000e+001,3.7098111172e+000,4.1478831051e+000,3.5907388992e+000,3.2426780519e+000,4.0978354768e+000,3.8835483239e+000,3.3463446512e+000,3.3297275308e+000,2.7393650744e+000,4.6985374635e+000,3.5386369504e+000,4.4155248737e+000,3.7638319526e+000,4.1404372991e+000,
2.3812500000e+001,3.7288500553e+000,4.1908951029e+000,3.5939998315e+000,3.2648959290e+000,4.1306440756e+000,3.9170214671e+000,3.3188561871e+000,3.3699526656e+000,2.6211737908e+000,4.7484097501e+000,3.5836212667e+000,4.4249713266e+000,3.7412270164e+000,4.1886952272e+000,
2.3906250000e+001,3.6613052855e+000,4.1566662704e+000,3.5774780020e+000,3.2685956800e+000,4.0933872719e+000,3.9092699849e+000,3.2476058515e+000,3.3250170979e+000,2.5670484587e+000,4.7192072358e+000,3.6037118747e+000,4.4555429046e+000,3.7349823650e+000,4.2561420258e+000,
2.4000000000e+001,3.6345807069e+000,4.1781842849e+000,3.6268955935e+000,3.3423739670e+000,4.0099328275e+000,3.9757915803e+000,3.2783609862e+000,3.3285428747e+000,2.5841319605e+000,4.7221434958e+000,3.6772658767e+000,4.5549648771e+000,3.7243916603e+000,4.3555863107e+000,
2.4093750000e+001,3.5913669940e+000,4.0952930394e+000,3.6320043279e+000,3.2273254783e+000,4.0903632768e+000,3.9568968645e+000,3.2783648710e+000,3.2692083372e+000,2.5882361186e+000,4.6650559876e+000,3.6418052740e+000,4.5417990741e+000,3.7577768486e+000,4.3915175099e+000,
2.4187500000e+001,3.6365348075e+000,4.1005975353e+000,3.7328011847e+000,3.2851735732e+000,4.1352841551e+000,3.9305693418e+000,3.2664446506e+000,3.1463517511e+000,2.4960509789e+000,4.8356389467e+000,3.6522013739e+000,4.5126691661e+000,3.7417017110e+000,4.3242787664e+000,
2.4281250000e+001,3.6093774662e+000,4.0610256419e+000,3.7522315938e+000,3.3207930786e+000,4.1275315415e+000,3.8963516289e+000,3.2865700154e+000,3.1217371597e+000,2.5221164495e+000,4.7455117431e+000,3.7797320694e+000,4.5210962051e+000,3.8332314513e+000,4.3584266496e+000,
2.4375000000e+001,3.5755904485e+000,4.0544341236e+000,3.7135611632e+000,3.2679442277e+000,4.0046913359e+000,3.9560070506e+000,3.2391244710e+000,3.2072194138e+000,2.5227565342e+000,4.6883761873e+000,3.8032504854e+000,4.4910655061e+000,3.8856875005e+000,4.3697375608e+000,
2.4468750000e+001,3.6698477669e+000,4.1223253839e+000,3.6118399488e+000,3.3416146199e+000,3.8891581288e+000,4.0219423383e+000,3.1904890969e+000,3.2603802127e+000,2.5922547777e+000,4.7408408036e+000,3.8317789784e+000,4.4959365801e+000,3.8767789579e+000,4.3994904827e+000,
2.4562500000e+001,3.6205268152e+000,4.0746914322e+000,3.5931031125e+000,3.3431201292e+000,3.7853196716e+000,3.9716312507e+000,3.2014659766e+000,3.1067517292e+000,2.4722752951e+000,4.7492161605e+000,3.7493698472e+000,4.2567731916e+000,3.7155265673e+000,4.1638498096e+000,
2.4656250000e+001,3.4728882995e+000,3.9214614136e+000,3.5098643507e+000,3.2403772077e+000,3.7257606163e+000,3.9615621396e+000,3.1186660885e+000,3.0532341063e+000,2.3968183961e+000,4.8524628312e+000,3.6600475712e+000,4.2621671939e+000,3.7186341653e+000,4.0981906399e+000,
2.4750000000e+001,3.5277264735e+000,3.9266656204e+000,3.5827269770e+000,3.3198060028e+000,3.7569065337e+000,3.9559505244e+000,3.1798419831e+000,3.0664135696e+000,2.4298578541e+000,4.9339393308e+000,3.6535915440e+000,4.2082210715e+000,3.7145658288e+000,4.0361831760e+000,
2.4843750000e+001,3.5900167773e+000,3.9571727039e+000,3.6279013151e+000,3.3471686706e+000,3.6390953625e+000,3.9828269538e+000,3.2160412366e+000,3.0993682446e+000,2.3640796942e+000,5.0445842791e+000,3.6873081479e+000,4.1881974936e+000,3.7511611511e+000,3.9640829750e+000,
2.4937500000e+001,3.6591647741e+000,3.9704529931e+000,3.6849724498e+000,3.3522338017e+000,3.6466466116e+000,4.0570515779e+000,3.2756558652e+000,3.1533713021e+000,2.3400254279e+000,5.0362068608e+000,3.7291186036e+000,4.2383234294e+000,3.7937021092e+000,4.0048009428e+000,
2.5031250000e+001,3.6002855400e+000,3.8876289833e+000,3.6017225871e+000,3.3062705354e+000,3.5909733784e+000,4.0073301749e+000,3.2379264866e+000,3.1530734560e+000,2.3286851958e+000,5.0882702355e+000,3.7512692438e+000,4.3514976341e+000,3.8874160696e+000,4.1401452191e+000,
2.5125000000e+001,3.5688165745e+000,3.8752255563e+000,3.5655057457e+000,3.3307356480e+000,3.5710391210e+000,4.0599352633e+000,3.2622702388e+000,3.1712877298e+000,2.3248846037e+000,5.1237598597e+000,3.7346603854e+000,4.4647385074e+000,4.0244642296e+000,4.3463489522e+000,
2.5218750000e+001,3.5663724165e+000,3.8540918197e+000,3.4811667281e+000,3.2689599505e+000,3.5767228710e+000,3.9804118239e+000,3.2138887354e+000,3.0928437861e+000,2.4294552054e+000,4.9605707464e+000,3.7364249241e+000,4.3983253434e+000,4.1719251069e+000,4.4705140807e+000,
2.5312500000e+001,3.6601239949e+000,3.9438584761e+000,3.5638988625e+000,3.3335898820e+000,3.7195139797e+000,3.9740152349e+000,3.2891396506e+000,3.0116158842e+000,2.4622926927e+000,4.9113270460e+000,3.6696490951e+000,4.2675263873e+000,4.1359661779e+000,4.4254224734e+000,
2.5406250000e+001,3.6823588910e+000,4.0163358991e+000,3.6044329220e+000,3.4049140415e+000,3.8509040901e+000,4.0865340855e+000,3.4053599380e+000,3.1112709234e+000,2.4928462671e+000,4.9105911804e+000,3.6416919967e+000,4.2271311118e+000,4.1221737879e+000,4.4303014013e+000,
2.5500000000e+001,3.6645684185e+000,4.0455298340e+000,3.6325420925e+000,3.4335190002e+000,3.9561172793e+000,4.1856545171e+000,3.4116913125e+000,3.2963613452e+000,2.5937191572e+000,4.9759119107e+000,3.6021605933e+000,4.2000718749e+000,4.2212616302e+000,4.4833925442e+000,
2.5593750000e+001,3.8123880522e+000,4.2006060951e+000,3.7127166762e+000,3.5214401260e+000,4.1842158522e+000,4.3040332079e+000,3.5136818352e+000,3.4462718661e+000,2.7546781963e+000,4.9356992246e+000,3.6562702244e+000,4.3013499516e+000,4.3408290314e+000,4.6412734073e+000,
2.5687500000e+001,3.8374900055e+000,4.2098533544e+000,3.7857940502e+000,3.5115187396e+000,4.2206565809e+000,4.2396850274e+000,3.4910914736e+000,3.4777987842e+000,2.7787818166e+000,4.7090360932e+000,3.7789692722e+000,4.3415978090e+000,4.3542478746e+000,4.7045381856e+000,
2.5781250000e+001,3.8882322979e+000,4.3437617192e+000,3.9406150160e+000,3.5668885488e+000,4.3109712491e+000,4.2864796928e+000,3.5261560484e+000,3.5295213864e+000,2.7585627272e+000,4.7794612072e+000,3.8196117837e+000,4.3516102449e+000,4.3321262956e+000,4.7214234053e+000,
2.5875000000e+001,3.8687446031e+000,4.3279139410e+000,3.9255784697e+000,3.5412586832e+000,4.3255042611e+000,4.2420799915e+000,3.5088366244e+000,3.5230291457e+000,2.7566270213e+000,4.6449569059e+000,3.7883548828e+000,4.3047318759e+000,4.3230020314e+000,4.7140366604e+000,
2.5968750000e+001,4.0389813534e+000,4.5162437569e+000,4.0155087366e+000,3.6805285034e+000,4.4206750585e+000,4.3763467463e+000,3.5877367814e+000,3.6492854873e+000,2.7260296911e+000,4.7158018270e+000,3.8103968956e+000,4.1865727398e+000,4.2953286028e+000,4.6793154726e+000,
2.6062500000e+001,4.2544832081e+000,4.6363263882e+000,4.1626500677e+000,3.7919867745e+000,4.5256545161e+000,4.4599397311e+000,3.6944884466e+000,3.7029803534e+000,2.8469434185e+000,4.5865424413e+000,3.8801673127e+000,4.0094303194e+000,4.3445096307e+000,4.5544681551e+000,
2.6156250000e+001,4.2827560692e+000,4.6628021370e+000,4.1864384997e+000,3.7468948431e+000,4.6319145908e+000,4.4620720217e+000,3.7233687784e+000,3.6860355113e+000,2.8963405018e+000,4.5754508044e+000,3.9251643478e+000,3.9171039618e+000,4.3303724215e+000,4.4373844983e+000,
2.6250000000e+001,4.2716698874e+000,4.6594173602e+000,4.1489594860e+000,3.7102505120e+000,4.6334722491e+000,4.5009697535e+000,3.6671413885e+000,3.7205029015e+000,2.8728724795e+000,4.6273189421e+000,3.8751740746e+000,3.8737229774e+000,4.2568443586e+000,4.3246077187e+000,
2.6343750000e+001,4.2774447059e+000,4.6561254238e+000,4.1676943518e+000,3.7090125232e+000,4.5758239348e+000,4.4889825891e+000,3.6370287321e+000,3.6527840870e+000,2.8609103198e+000,4.6675322873e+000,3.9542648145e+000,4.0728545171e+000,4.3476012198e+000,4.4093125488e+000,
2.6437500000e+001,4.2790665175e+000,4.6533402858e+000,4.2253937188e+000,3.7313023025e+000,4.5949087620e+000,4.4435426988e+000,3.5718604157e+000,3.5709508469e+000,2.8701192013e+000,4.8089358976e+000,4.0232161934e+000,4.1343062778e+000,4.3667000389e+000,4.3792548235e+000,
2.6531250000e+001,4.2091424835e+000,4.5626722600e+000,4.1602522711e+000,3.6549486173e+000,4.5172746311e+000,4.3142011766e+000,3.5067296830e+000,3.4169313458e+000,2.7390478459e+000,4.6989125448e+000,4.0131569073e+000,4.1985373238e+000,4.2684304562e+000,4.3018043823e+000,
2.6625000000e+001,4.1490053783e+000,4.5041363023e+000,4.1576576970e+000,3.6562932493e+000,4.4083073822e+000,4.2579764383e+000,3.4335931312e+000,3.3858283904e+000,2.6477089494e+000,4.7151012424e+000,4.0138339338e+000,4.2643899038e+000,4.1527090180e+000,4.1909748448e+000,
2.6718750000e+001,4.1283856061e+000,4.4605913286e+000,4.1202237884e+000,3.7150318178e+000,4.3626343019e+000,4.2717667137e+000,3.4088305816e+000,3.3081546679e+000,2.6434738607e+000,4.7847242590e+000,4.0666099597e+000,4.2284390137e+000,4.1447363379e+000,4.1321976231e+000,
2.6812500000e+001,4.2456353175e+000,4.4970855554e+000,4.1328505538e+000,3.8012421125e+000,4.3717416784e+000,4.3099244703e+000,3.4596181453e+000,3.3560493319e+000,2.6896958350e+000,4.8357316698e+000,4.1965892651e+000,4.3604089471e+000,4.1935024508e+000,4.2016962798e+000,
2.6906250000e+001,4.3148921453e+000,4.5634248104e+000,4.2099428271e+000,3.8344575544e+000,4.4782238341e+000,4.4119062550e+000,3.5374522536e+000,3.3750274909e+000,2.7830224945e+000,4.8326404445e+000,4.2828109492e+000,4.3571799001e+000,4.2727587452e+000,4.2360700935e+000,
2.7000000000e+001,4.1603260471e+000,4.3455220210e+000,4.0709456305e+000,3.5951709402e+000,4.3816155055e+000,4.2111381325e+000,3.4146424176e+000,3.1117781801e+000,2.7985968620e+000,4.7576913279e+000,4.3123467442e+000,4.3810264458e+000,4.3050377100e+000,4.2735597986e+000,
2.7093750000e+001,3.9690460935e+000,4.2256993939e+000,3.9282782471e+000,3.4944959634e+000,4.2341952331e+000,4.1193251285e+000,3.3026263439e+000,2.9962631422e+000,2.6113776393e+000,4.8085949256e+000,4.3215033915e+000,4.3775240310e+000,4.2698984669e+000,4.2674414872e+000,
2.7187500000e+001,3.9472771650e+000,4.2015567622e+000,3.9110316577e+000,3.5217828863e+000,4.1038864970e+000,4.1160645318e+000,3.2384257258e+000,3.1057510947e+000,2.5764197090e+000,4.8280317627e+000,4.3279382450e+000,4.4758653749e+000,4.2269993541e+000,4.3252185819e+000,
2.7281250000e+001,3.9751466712e+000,4.2283301701e+000,3.9140581168e+000,3.5736787141e+000,4.0829374864e+000,4.1492208975e+000,3.2758791130e+000,3.1701867788e+000,2.5101458447e+000,4.9125924647e+000,4.3846312924e+000,4.5853745148e+000,4.2779511381e+000,4.4434950381e+000,
2.7375000000e+001,4.0246482895e+000,4.2677236268e+000,3.9304005730e+000,3.6010682150e+000,4.1091853127e+000,4.2357923744e+000,3.3607983119e+000,3.2771131649e+000,2.5111547416e+000,4.8651142454e+000,4.3341506330e+000,4.5548570177e+000,4.2680995993e+000,4.4806818238e+000,
2.7468750000e+001,4.0151885708e+000,4.2351223791e+000,3.8827887905e+000,3.5809883928e+000,4.0971826299e+000,4.2827565034e+000,3.3580206379e+000,3.3071561499e+000,2.4974109033e+000,4.8509945856e+000,4.2824080034e+000,4.5834302959e+000,4.2507403857e+000,4.4925071316e+000,
2.7562500000e+001,4.0943389590e+000,4.3073305485e+000,3.9852941821e+000,3.6801430076e+000,4.1731536792e+000,4.3487429223e+000,3.4793078294e+000,3.3559267023e+000,2.4927113962e+000,4.8790751079e+000,4.2766995816e+000,4.5420340835e+000,4.2355233380e+000,4.4958249252e+000,
2.7656250000e+001,4.1301406318e+000,4.2983112945e+000,4.0189574367e+000,3.6919390020e+000,4.2312980908e+000,4.3193153415e+000,3.5077070229e+000,3.2747823458e+000,2.5436751353e+000,4.9279692948e+000,4.3103542999e+000,4.5714906325e+000,4.2612433844e+000,4.5488594235e+000,
2.7750000000e+001,4.0058187739e+000,4.1587470787e+000,3.9421017728e+000,3.5464809523e+000,4.1865294272e+000,4.2069501937e+000,3.4821305409e+000,3.2001948546e+000,2.6651868253e+000,4.7701564337e+000,4.2227372496e+000,4.4801781186e+000,4.2407146046e+000,4.5481726773e+000,
2.7843750000e+001,3.9508743241e+000,4.0986177786e+000,3.8590838194e+000,3.5149923787e+000,4.1317327308e+000,4.0914435416e+000,3.4744831595e+000,3.2157355783e+000,2.6807715204e+000,4.6916002653e+000,4.1164353264e+000,4.5577521239e+000,4.1903077588e+000,4.6300219434e+000,
2.7937500000e+001,4.0063520134e+000,4.1206972246e+000,3.9467749837e+000,3.6121494926e+000,4.1696965573e+000,4.1663815457e+000,3.5555415291e+000,3.3143778490e+000,2.7033419505e+000,4.7355143078e+000,4.1223292872e+000,4.5299955720e+000,4.2034327499e+000,4.6213966056e+000,
2.8031250000e+001,4.0584621855e+000,4.2128099158e+000,3.9901759399e+000,3.6999956889e+000,4.2137480201e+000,4.2373519747e+000,3.5649944620e+000,3.3492316010e+000,2.8067124308e+000,4.7345028314e+000,4.1141497874e+000,4.5207035499e+000,4.1841191831e+000,4.6704661210e+000,
2.8125000000e+001,4.0686011201e+000,4.2166962673e+000,3.9939768610e+000,3.7227159699e+000,4.1855207008e+000,4.3141966872e+000,3.5562287657e+000,3.4379072259e+000,2.8705722528e+000,4.6736916331e+000,4.1582545609e+000,4.5132106132e+000,4.2126123866e+000,4.7072886830e+000,
2.8218750000e+001,4.0476010470e+000,4.2093159912e+000,4.0122542988e+000,3.7092440416e+000,4.1420172474e+000,4.2661632357e+000,3.5485346096e+000,3.3540261099e+000,2.8783439835e+000,4.7007878246e+000,4.1426176274e+000,4.3916541934e+000,4.1979968324e+000,4.6910420166e+000,
2.8312500000e+001,4.0293715254e+000,4.2074530952e+000,3.9901659824e+000,3.7180163507e+000,4.1294133712e+000,4.2484081917e+000,3.5152437599e+000,3.3430243102e+000,2.8854045481e+000,4.6152639258e+000,4.1548988911e+000,4.4526946852e+000,4.1519090892e+000,4.7129661331e+000,
2.8406250000e+001,4.1060660763e+000,4.3383409427e+000,4.0233209053e+000,3.7582834422e+000,4.2173924041e+000,4.3872220462e+000,3.5464538555e+000,3.4391378928e+000,2.9927456192e+000,4.6584702923e+000,4.2142423771e+000,4.4740127574e+000,4.1871067640e+000,4.7807414360e+000,
2.8500000000e+001,4.1725093376e+000,4.4220453033e+000,4.0464795348e+000,3.7798089891e+000,4.2722259052e+000,4.4608448719e+000,3.6277595530e+000,3.4833013401e+000,3.0118372650e+000,4.7176886831e+000,4.3383610204e+000,4.5067512661e+000,4.2638888278e+000,4.8788096330e+000,
2.8593750000e+001,4.1237214737e+000,4.4389752602e+000,3.9834052545e+000,3.7808787505e+000,4.2343544729e+000,4.5755908611e+000,3.5860825982e+000,3.5422946184e+000,3.0844270078e+000,4.7827764797e+000,4.3621463132e+000,4.4597155099e+000,4.2784581187e+000,4.9104792882e+000,
2.8687500000e+001,4.2342459557e+000,4.5468345318e+000,4.0590751248e+000,3.8409355958e+000,4.3330944947e+000,4.7051659908e+000,3.6588609508e+000,3.6887120778e+000,3.1133994567e+000,4.9481742728e+000,4.3939313260e+000,4.5830726322e+000,4.2950375044e+000,5.0283250578e+000,
2.8781250000e+001,4.3542490167e+000,4.6815966514e+000,4.1475816943e+000,3.9318654326e+000,4.4806763223e+000,4.8390000338e+000,3.7384732257e+000,3.8072295950e+000,3.1660608783e+000,5.1600025294e+000,4.3965807322e+000,4.6566742385e+000,4.3164569725e+000,5.0614402864e+000,
2.8875000000e+001,4.3690659945e+000,4.7071823412e+000,4.1470560225e+000,3.9308255732e+000,4.4861524434e+000,4.8473548251e+000,3.7302123713e+000,3.8031449855e+000,3.1135141278e+000,5.2324120229e+000,4.3640715423e+000,4.7067799913e+000,4.3212809140e+000,5.0723782625e+000,
2.8968750000e+001,4.3661814750e+000,4.7122192161e+000,4.1397120323e+000,3.9483874139e+000,4.4513982900e+000,4.8782036241e+000,3.7160223625e+000,3.8801961153e+000,3.1304582969e+000,5.3531124042e+000,4.3273147198e+000,4.9179113282e+000,4.2432553020e+000,5.1123800902e+000,
2.9062500000e+001,4.3246258419e+000,4.6584179106e+000,4.1378613333e+000,3.9106303018e+000,4.3956690512e+000,4.8749935193e+000,3.6852473823e+000,3.8852879411e+000,3.0615329328e+000,5.4175939100e+000,4.3386095948e+000,5.0774117562e+000,4.2359065654e+000,5.1507022405e+000,
2.9156250000e+001,4.2821136160e+000,4.6443661659e+000,4.1482196274e+000,3.8632182953e+000,4.3803196628e+000,4.8238229533e+000,3.6098306553e+000,3.8306123043e+000,3.0390903109e+000,5.4441722042e+000,4.2023490812e+000,5.1996485434e+000,4.1189666729e+000,5.2162583922e+000,
2.9250000000e+001,4.2712357607e+000,4.6438281779e+000,4.1491235208e+000,3.8394410372e+000,4.3767697933e+000,4.8610714440e+000,3.5967617357e+000,3.8671275147e+000,3.0350463321e+000,5.4316563631e+000,4.1729599987e+000,5.2575826409e+000,4.0815564615e+000,5.2459172336e+000,
2.9343750000e+001,4.2907191089e+000,4.6775120775e+000,4.2043739251e+000,3.8840142165e+000,4.4469324637e+000,4.9218110318e+000,3.5848860315e+000,3.9519141397e+000,2.9882843708e+000,5.5017039717e+000,4.1926243642e+000,5.2755004374e+000,4.0622810076e+000,5.2766542297e+000,
2.9437500000e+001,4.3032673699e+000,4.7044902375e+000,4.2100383413e+000,3.8967985363e+000,4.4544181287e+000,4.9557474349e+000,3.5843354369e+000,4.0587979816e+000,2.9025181222e+000,5.6211291749e+000,4.2060931545e+000,5.3604999984e+000,4.0832520764e+000,5.3264359038e+000,
2.9531250000e+001,4.3356686722e+000,4.7310154740e+000,4.3085629881e+000,3.9210285877e+000,4.5190264881e+000,4.9154939692e+000,3.6218803077e+000,4.0685356662e+000,2.9477511765e+000,5.6378847491e+000,4.1752610707e+000,5.3481485934e+000,4.0461793420e+000,5.3080574624e+000,
2.9625000000e+001,4.3142819552e+000,4.7081385918e+000,4.2720813884e+000,3.8762207461e+000,4.5310428491e+000,4.8610383916e+000,3.5968699333e+000,4.0543229985e+000,2.9412892964e+000,5.6047492304e+000,4.1439145537e+000,5.2909693610e+000,4.0619411024e+000,5.2527675434e+000,
2.9718750000e+001,4.1374865702e+000,4.6032189694e+000,4.1407089786e+000,3.7826668822e+000,4.2950290025e+000,4.7264094617e+000,3.4120740894e+000,3.9513958714e+000,2.8027296293e+000,5.4751761832e+000,4.0149771407e+000,5.2152572611e+000,3.9298843816e+000,5.1464258642e+000,
2.9812500000e+001,4.0245822343e+000,4.5180436173e+000,4.0919903496e+000,3.7251624406e+000,4.2227755979e+000,4.6813125869e+000,3.2743177700e+000,3.8972129859e+000,2.7647987651e+000,5.4144477979e+000,4.0142046779e+000,5.1782244449e+000,3.8445087855e+000,5.1060377241e+000,
2.9906250000e+001,4.0150654561e+000,4.5530003878e+000,4.0991410066e+000,3.7574511543e+000,4.2160791969e+000,4.6360863324e+000,3.2545861141e+000,3.8728324850e+000,2.7012910243e+000,5.3273536024e+000,4.0524294964e+000,5.1203970949e+000,3.9298083234e+000,5.0655142390e+000,
3.0000000000e+001,3.9613419757e+000,4.5155047952e+000,4.0811259085e+000,3.7108358044e+000,4.2512039122e+000,4.5468342416e+000,3.2775638617e+000,3.7512184110e+000,2.7568137569e+000,5.2542320704e+000,4.0883001208e+000,5.0649519132e+000,3.9447527060e+000,5.0241422588e+000,
3.0093750000e+001,4.0667865563e+000,4.5852483906e+000,4.1050104478e+000,3.8337000089e+000,4.3754188695e+000,4.5906457469e+000,3.4351948706e+000,3.8089135102e+000,2.6957609501e+000,5.2520238228e+000,4.1143925497e+000,4.9035572056e+000,3.9853325255e+000,4.8774408053e+000,
3.0187500000e+001,4.0819625071e+000,4.5686360370e+000,4.0858815858e+000,3.8551428227e+000,4.4184234033e+000,4.5731729725e+000,3.4811828395e+000,3.8205323047e+000,2.7151805500e+000,5.2616634675e+000,4.1782567959e+000,4.7845192153e+000,4.0043594915e+000,4.8207332778e+000,
3.0281250000e+001,4.0880482399e+000,4.5197886426e+000,4.0170655567e+000,3.8393006839e+000,4.3915488338e+000,4.4893883239e+000,3.4954888217e+000,3.7309049643e+000,2.7411817351e+000,5.2228223744e+000,4.1808261877e+000,4.6573861788e+000,3.9775257691e+000,4.7294455065e+000,
3.0375000000e+001,4.0355432888e+000,4.4466536928e+000,4.0135186139e+000,3.8562044474e+000,4.3438465060e+000,4.3999314378e+000,3.4961828318e+000,3.5906252398e+000,2.8236841512e+000,5.0879845817e+000,4.1957820619e+000,4.5570005000e+000,3.9835561982e+000,4.5639066463e+000,
3.0468750000e+001,3.9210259230e+000,4.2881250786e+000,3.9210284180e+000,3.7766927276e+000,4.2499634753e+000,4.2751645890e+000,3.4827092090e+000,3.4379819599e+000,2.7758921582e+000,4.9952705623e+000,4.1164581470e+000,4.3822376292e+000,3.9512875735e+000,4.3407533565e+000,
3.0562500000e+001,3.8961272302e+000,4.2358840317e+000,3.8003171472e+000,3.7225846042e+000,4.2376310379e+000,4.3292169000e+000,3.4573322965e+000,3.4109573200e+000,2.7711135956e+000,4.9544097122e+000,4.0121067583e+000,4.3891918111e+000,3.9117421081e+000,4.3199058056e+000,
3.0656250000e+001,3.9867919627e+000,4.3136812966e+000,3.8657322199e+000,3.7510029465e+000,4.3970409986e+000,4.4498485200e+000,3.5660013826e+000,3.4602678725e+000,2.8869623260e+000,4.9882505342e+000,4.0659065531e+000,4.4563938757e+000,4.0762392806e+000,4.4660671686e+000,
3.0750000000e+001,3.9890585061e+000,4.2825206989e+000,3.8623388944e+000,3.7157726095e+000,4.3805695898e+000,4.4458713713e+000,3.5505448249e+000,3.4579783242e+000,2.8150262760e+000,4.9800005898e+000,4.2630898650e+000,4.4897141651e+000,4.1851879356e+000,4.5393989330e+000,
3.0843750000e+001,4.0210657626e+000,4.3332746001e+000,3.8586540465e+000,3.7723740056e+000,4.4107326931e+000,4.4620239021e+000,3.5878970305e+000,3.5205544673e+000,2.7794769338e+000,4.9836166492e+000,4.2732153051e+000,4.5094448276e+000,4.2066136669e+000,4.6413242333e+000,
3.0937500000e+001,4.0607014094e+000,4.3219588235e+000,3.8464901606e+000,3.7410132931e+000,4.4129908589e+000,4.5123334821e+000,3.6260201813e+000,3.4792062462e+000,2.7782551067e+000,5.0542096402e+000,4.2619533388e+000,4.4739604995e+000,4.2402007342e+000,4.6693295256e+000,
3.1031250000e+001,3.9737093550e+000,4.2767748610e+000,3.7950427401e+000,3.6877599497e+000,4.3185080181e+000,4.5213981163e+000,3.4946901072e+000,3.4972813525e+000,2.7353756026e+000,5.0162558716e+000,4.2287145333e+000,4.3511691051e+000,4.2217284894e+000,4.6954753071e+000,
3.1125000000e+001,3.9698438908e+000,4.2949887550e+000,3.8232581229e+000,3.6701186541e+000,4.2915691315e+000,4.4884713152e+000,3.4395766762e+000,3.4880980424e+000,2.7326328750e+000,4.8422291623e+000,4.2058866128e+000,4.3835601301e+000,4.1992263950e+000,4.7759866380e+000,
3.1218750000e+001,3.9948447872e+000,4.3856069150e+000,3.8775312382e+000,3.7247771501e+000,4.3218025605e+000,4.5617926159e+000,3.4517831291e+000,3.5519507028e+000,2.7429039663e+000,4.8690755902e+000,4.2289980408e+000,4.4462770258e+000,4.2884608129e+000,4.8337859998e+000,
3.1312500000e+001,4.0539209275e+000,4.4960822272e+000,3.9690013728e+000,3.7927451992e+000,4.3446317065e+000,4.5989438480e+000,3.4611323056e+000,3.6123952834e+000,2.8342553485e+000,4.9372148174e+000,4.1950981982e+000,4.4972896979e+000,4.2587869070e+000,4.8605713035e+000,
3.1406250000e+001,4.0555043149e+000,4.5250115174e+000,3.9834885164e+000,3.7866156967e+000,4.3962653527e+000,4.5949006240e+000,3.4594967372e+000,3.6029324758e+000,2.8043821292e+000,5.0021235447e+000,4.1510243648e+000,4.4591553104e+000,4.2623397547e+000,4.8713453928e+000,
3.1500000000e+001,3.9730745899e+000,4.5054852784e+000,3.9757007208e+000,3.8138050627e+000,4.3288288411e+000,4.5004219313e+000,3.3231901159e+000,3.5484424549e+000,2.7782494427e+000,4.9262853028e+000,4.1434704885e+000,4.4428864837e+000,4.2448837947e+000,4.8660775561e+000,
3.1593750000e+001,3.8987032980e+000,4.4852552135e+000,4.0104837670e+000,3.8460512862e+000,4.2326114823e+000,4.4567871239e+000,3.2493755586e+000,3.6171379896e+000,2.7088405363e+000,4.9630641549e+000,4.1162168295e+000,4.4592612705e+000,4.1911317080e+000,4.8037358412e+000,
3.1687500000e+001,3.7956849359e+000,4.3779209816e+000,3.9628691206e+000,3.7543461750e+000,4.1154787882e+000,4.3266859771e+000,3.1887765377e+000,3.4744400055e+000,2.6526630554e+000,4.9307288650e+000,3.9341397644e+000,4.5996950032e+000,4.0648788020e+000,4.8141312636e+000,
3.1781250000e+001,3.7755335050e+000,4.3615073861e+000,3.9629160533e+000,3.7553360199e+000,4.1789945889e+000,4.3243888739e+000,3.2414827583e+000,3.4880727923e+000,2.6580715786e+000,4.9368744102e+000,3.8658582184e+000,4.6204392324e+000,4.0111384245e+000,4.7821639232e+000,
3.1875000000e+001,3.6975741140e+000,4.2730940223e+000,3.9118217829e+000,3.6669885957e+000,4.1496257253e+000,4.2312793670e+000,3.2225873252e+000,3.4721471149e+000,2.6762378679e+000,4.9474560966e+000,3.9110104945e+000,4.5784773211e+000,4.0407165898e+000,4.6801769173e+000,
3.1968750000e+001,3.6433978236e+000,4.2520658294e+000,3.9070314174e+000,3.6566410881e+000,4.0952657364e+000,4.2444039568e+000,3.1959568588e+000,3.5153926222e+000,2.6623560447e+000,4.9250917665e+000,3.8447773273e+000,4.5242113461e+000,3.9182119646e+000,4.5487731100e+000,
3.2062500000e+001,3.6945133537e+000,4.2869244894e+000,3.8830609406e+000,3.6595700371e+000,4.0791376893e+000,4.3231226837e+000,3.1670348076e+000,3.5143879377e+000,2.7884045497e+000,4.9508749262e+000,3.8048803666e+000,4.5145754524e+000,3.8420344167e+000,4.4378348979e+000,
3.2156250000e+001,3.6733706635e+000,4.2591620947e+000,3.8624368943e+000,3.5849433739e+000,4.0936396374e+000,4.2864462183e+000,3.2139924015e+000,3.4571286328e+000,2.7528763656e+000,4.9505935912e+000,3.7186281939e+000,4.4995917272e+000,3.8663904900e+000,4.3641657568e+000,
3.2250000000e+001,3.8255790872e+000,4.2403652187e+000,3.9061666246e+000,3.5509230926e+000,4.2013345783e+000,4.3399113927e+000,3.2865094055e+000,3.4822130112e+000,2.7585416888e+000,4.8829782463e+000,3.7379863759e+000,4.4676578883e+000,3.8699470265e+000,4.3076419640e+000,
3.2343750000e+001,3.9564493524e+000,4.3906342196e+000,4.0089824755e+000,3.7014011573e+000,4.2637819883e+000,4.5002781290e+000,3.3816234080e+000,3.6073806195e+000,2.6265047844e+000,4.9007058205e+000,3.7921956091e+000,4.4642659466e+000,3.9290175999e+000,4.2923085714e+000,
3.2437500000e+001,4.2443252238e+000,4.6793040291e+000,4.1957009902e+000,3.9441783415e+000,4.2691951029e+000,4.6667806429e+000,3.5668301881e+000,3.7547788007e+000,2.5752634333e+000,4.8855011767e+000,3.8468354184e+000,4.4462747896e+000,3.9199864122e+000,4.2124649521e+000,
3.2531250000e+001,4.4375341101e+000,4.8223987561e+000,4.3495777003e+000,4.0782803754e+000,4.3481998365e+000,4.8166223868e+000,3.6716697663e+000,3.8571525408e+000,2.5529762303e+000,5.0301762522e+000,3.8597014879e+000,4.5332533568e+000,3.9788612253e+000,4.2564226564e+000,
3.2625000000e+001,4.4942033016e+000,4.8810663679e+000,4.3987814195e+000,4.1163633389e+000,4.4788330912e+000,4.8973561970e+000,3.7246569305e+000,3.9256316462e+000,2.4885737815e+000,5.0683876081e+000,3.8395920661e+000,4.5817282147e+000,3.9351579738e+000,4.2761723514e+000,
3.2718750000e+001,4.5481659050e+000,4.9020889994e+000,4.3946667257e+000,4.1187654159e+000,4.5489533989e+000,4.9212047028e+000,3.7143535809e+000,3.9341161809e+000,2.5022640225e+000,5.0940972915e+000,3.7720525105e+000,4.4558884618e+000,3.8785437272e+000,4.1158751197e+000,
3.2812500000e+001,4.6363075472e+000,4.9349197118e+000,4.4775735058e+000,4.2026186795e+000,4.5651152217e+000,4.9973878248e+000,3.8093357663e+000,3.9416007818e+000,2.5772164245e+000,5.0717845084e+000,3.6705899208e+000,4.4114846592e+000,3.7884745773e+000,4.0365539926e+000,
3.2906250000e+001,4.7584952417e+000,5.0339590727e+000,4.5422426055e+000,4.2564833582e+000,4.7181198890e+000,5.0864960784e+000,3.8970308634e+000,3.9907714742e+000,2.6707799919e+000,5.0657999639e+000,3.6469789469e+000,4.3392977967e+000,3.8223145121e+000,4.0745480614e+000,
3.3000000000e+001,4.8462693089e+000,5.1091682614e+000,4.6002006833e+000,4.3009555276e+000,4.8185830257e+000,5.1263164398e+000,4.0249689559e+000,4.0064716690e+000,2.7084482747e+000,5.0403095355e+000,3.7907845223e+000,4.3181047546e+000,3.9152976076e+000,4.0665587942e+000,
3.3093750000e+001,4.9835864526e+000,5.2779081388e+000,4.7134474644e+000,4.4415135712e+000,5.0090506869e+000,5.3073411529e+000,4.2017161654e+000,4.1233721636e+000,2.7434948107e+000,5.0979192036e+000,3.8027917469e+000,4.3085985295e+000,3.9319336156e+000,4.0402011696e+000,
3.3187500000e+001,4.9999519451e+000,5.3119380243e+000,4.7751784527e+000,4.5247292309e+000,5.0149316863e+000,5.3327347996e+000,4.2020913514e+000,4.1651492652e+000,2.7495253114e+000,5.1417705090e+000,3.7917422760e+000,4.2860052551e+000,3.8230656751e+000,4.0043907058e+000,
3.3281250000e+001,5.0232232624e+000,5.3484051686e+000,4.8408821470e+000,4.5766923764e+000,5.0546366274e+000,5.3606261624e+000,4.2552001616e+000,4.1793552316e+000,2.7478925562e+000,5.2094852036e+000,3.7636669142e+000,4.1558613190e+000,3.7564931026e+000,3.9989424501e+000,
3.3375000000e+001,4.9725491144e+000,5.2768114026e+000,4.7727242382e+000,4.4946665684e+000,5.0181404366e+000,5.3104365774e+000,4.2250302898e+000,4.1038868231e+000,2.7837481151e+000,5.1568385990e+000,3.7368513140e+000,4.2261665945e+000,3.7799638139e+000,4.0489925900e+000,
3.3468750000e+001,4.8310353420e+000,5.0999245041e+000,4.6126713557e+000,4.3323594818e+000,4.9476507885e+000,5.2023632883e+000,4.1304761621e+000,3.9715425969e+000,2.7857828474e+000,5.0872312551e+000,3.6666333298e+000,4.1803718002e+000,3.7037736011e+000,4.0744217442e+000,
3.3562500000e+001,4.7987236348e+000,5.0823244797e+000,4.6043013089e+000,4.3195633879e+000,4.9272151898e+000,5.1903428101e+000,4.1037228731e+000,3.9348582012e+000,2.8343479473e+000,5.0672452161e+000,3.7777189669e+000,4.0480823127e+000,3.7286016306e+000,4.0179259803e+000,
3.3656250000e+001,4.9252342740e+000,5.1830503493e+000,4.7182966153e+000,4.4206337292e+000,4.9802243186e+000,5.2374604235e+000,4.2200688469e+000,3.9918855886e+000,3.0030910953e+000,5.0170856628e+000,3.8256327648e+000,4.0029797127e+000,3.8789286910e+000,4.1878062300e+000,
3.3750000000e+001,4.9193315588e+000,5.1952424194e+000,4.7040966387e+000,4.4086824087e+000,4.9849739603e+000,5.2448716847e+000,4.2603390151e+000,3.9952787538e+000,3.0647030222e+000,5.0054516955e+000,3.9080926416e+000,3.9593396268e+000,4.0462422342e+000,4.2473728091e+000,
3.3843750000e+001,4.8984920600e+000,5.2131038686e+000,4.6715258780e+000,4.3869428975e+000,4.9758909457e+000,5.2348197507e+000,4.2270095869e+000,3.9756703060e+000,3.0399861723e+000,5.0022559357e+000,3.8741492153e+000,3.9888157958e+000,4.1702128925e+000,4.3348373210e+000,
3.3937500000e+001,4.8300415003e+000,5.1516482922e+000,4.6269057494e+000,4.3397281489e+000,4.8760337062e+000,5.1781975224e+000,4.1904387740e+000,3.9559043586e+000,3.1027670351e+000,4.9656412212e+000,3.7381261425e+000,4.0334385302e+000,4.2083163316e+000,4.3922382265e+000,
3.4031250000e+001,4.7199829213e+000,5.0452451553e+000,4.5930340671e+000,4.2759168407e+000,4.7144321399e+000,5.0312521912e+000,4.0825180843e+000,3.8774287244e+000,3.0894657851e+000,4.8930653709e+000,3.8031374531e+000,4.0495809353e+000,4.3012728201e+000,4.4610321473e+000,
3.4125000000e+001,4.6189616347e+000,4.9359277435e+000,4.5058528443e+000,4.1445039412e+000,4.5220704989e+000,4.9402957907e+000,3.9737135853e+000,3.7905468841e+000,3.0234336322e+000,4.8421896125e+000,3.8680483260e+000,4.0534382089e+000,4.3533631284e+000,4.5218113925e+000,
3.4218750000e+001,4.5774510836e+000,4.8874546116e+000,4.3863144832e+000,4.0365497322e+000,4.4489250521e+000,4.8709259840e+000,3.9299944218e+000,3.7134121035e+000,3.0565527628e+000,4.8266988200e+000,3.8869161380e+000,4.2114672610e+000,4.4115880159e+000,4.6068044201e+000,
3.4312500000e+001,4.4498122812e+000,4.7796321682e+000,4.1990374435e+000,3.8782862144e+000,4.3698116830e+000,4.7789016342e+000,3.7844628049e+000,3.5777495260e+000,3.1553450751e+000,4.7438024857e+000,3.9220965977e+000,4.1732495188e+000,4.4352365416e+000,4.5377101891e+000,
3.4406250000e+001,4.4061289154e+000,4.7380220225e+000,4.2001631050e+000,3.8553253638e+000,4.3402453230e+000,4.7134064865e+000,3.7580329306e+000,3.5772126106e+000,3.1564898517e+000,4.7829423928e+000,3.9518641530e+000,4.1342847322e+000,4.4452197474e+000,4.5412196106e+000,
3.4500000000e+001,4.3876895381e+000,4.7457839464e+000,4.1693543710e+000,3.8579857096e+000,4.3587360460e+000,4.7127214839e+000,3.8091910349e+000,3.6102781089e+000,3.1534044435e+000,4.7736719326e+000,4.0090274750e+000,4.1417583376e+000,4.5116939252e+000,4.5276235966e+000,
3.4593750000e+001,4.2572945804e+000,4.6398052622e+000,3.9757786438e+000,3.6959782592e+000,4.2421489070e+000,4.5784259650e+000,3.7281130116e+000,3.4669435604e+000,3.1411631130e+000,4.5959264068e+000,4.0774477744e+000,4.0457111879e+000,4.5316667868e+000,4.4143017847e+000,
3.4687500000e+001,4.0654611803e+000,4.4831487974e+000,3.7122077721e+000,3.5490868284e+000,4.1059001445e+000,4.5139778983e+000,3.5696924626e+000,3.3432257023e+000,3.0737632067e+000,4.5551943317e+000,4.0551279092e+000,4.0070646643e+000,4.5109698180e+000,4.3492531752e+000,
3.4781250000e+001,4.0896195523e+000,4.4488305097e+000,3.7307556948e+000,3.4940833685e+000,4.0027010287e+000,4.5132881572e+000,3.4534477269e+000,3.3401375555e+000,3.0477723156e+000,4.5383129344e+000,4.0723308486e+000,3.9336790496e+000,4.4782457362e+000,4.3319740966e+000,
3.4875000000e+001,4.2059642154e+000,4.5479890329e+000,3.9132528800e+000,3.6351291379e+000,4.1818645097e+000,4.5875536151e+000,3.6044327028e+000,3.4407239588e+000,3.0421344395e+000,4.7570432688e+000,4.1188807266e+000,3.9881544924e+000,4.4421483906e+000,4.2889791350e+000,
3.4968750000e+001,4.2817719183e+000,4.5797817244e+000,4.0451983410e+000,3.7222832354e+000,4.2312053522e+000,4.6125875383e+000,3.5822023874e+000,3.4398552938e+000,2.9626847254e+000,4.7727596364e+000,4.2761867610e+000,3.9418500008e+000,4.3735046411e+000,4.1844922889e+000,
3.5062500000e+001,4.3480966847e+000,4.6969053232e+000,4.2210027338e+000,3.8631989751e+000,4.3616923528e+000,4.7217471321e+000,3.7542346584e+000,3.5448247071e+000,2.9608983216e+000,4.8571162070e+000,4.4360502786e+000,4.0206177695e+000,4.3268509961e+000,4.2096379746e+000,
3.5156250000e+001,4.3656819554e+000,4.7957281671e+000,4.3385313395e+000,3.9462263312e+000,4.4557701212e+000,4.8228796756e+000,3.8419554076e+000,3.6576916951e+000,2.9440629760e+000,5.0211072830e+000,4.5707890832e+000,4.1111694497e+000,4.3489057590e+000,4.1579212425e+000,
3.5250000000e+001,4.4939013106e+000,4.9501193693e+000,4.5359570836e+000,4.1541250510e+000,4.5144522929e+000,4.8771841477e+000,3.9395699513e+000,3.7416583899e+000,2.7720816318e+000,5.1053346157e+000,4.6552276948e+000,4.3031294437e+000,4.3665410623e+000,4.1975674496e+000,
3.5343750000e+001,4.5802610002e+000,5.0464349229e+000,4.6364740204e+000,4.2820200493e+000,4.5502220385e+000,5.0093257980e+000,4.0253553972e+000,3.8228105335e+000,2.7606498123e+000,5.1825461793e+000,4.7206160948e+000,4.4990710698e+000,4.4321508207e+000,4.3676373472e+000,
3.5437500000e+001,4.6552999245e+000,5.1263936911e+000,4.7706285073e+000,4.3921317115e+000,4.6071489095e+000,5.0656562086e+000,4.0932649134e+000,3.8821148488e+000,2.8434814744e+000,5.3467487237e+000,4.7323901682e+000,4.6424644319e+000,4.4688608004e+000,4.4866670301e+000,
3.5531250000e+001,4.7007672400e+000,5.1570984733e+000,4.8387543209e+000,4.4345545006e+000,4.6341459226e+000,5.0782391502e+000,4.1174048037e+000,3.9189872754e+000,2.8541154687e+000,5.3629434140e+000,4.7455614729e+000,4.7296019464e+000,4.4844972649e+000,4.5250017279e+000,
3.5625000000e+001,4.7680724173e+000,5.2123545994e+000,4.9399703766e+000,4.5057612403e+000,4.6737776817e+000,5.1514835387e+000,4.1062608619e+000,4.0437848107e+000,2.8299908465e+000,5.4752760251e+000,4.7991298313e+000,4.8108676018e+000,4.4705712592e+000,4.5823891760e+000,
3.5718750000e+001,4.7756866660e+000,5.2039445199e+000,4.9618650323e+000,4.5058268447e+000,4.6342549978e+000,5.1004863229e+000,4.0880736797e+000,4.0392607351e+000,2.9652812149e+000,5.4643720096e+000,4.8265980510e+000,4.8680946627e+000,4.5772432967e+000,4.7371229463e+000,
3.5812500000e+001,4.7067467714e+000,5.1790352554e+000,4.9433919113e+000,4.4893013799e+000,4.6684170100e+000,5.0706168886e+000,4.0688696659e+000,4.0368016664e+000,2.8905863460e+000,5.4444647520e+000,4.8122424448e+000,4.8859802330e+000,4.6140179345e+000,4.7738624658e+000,
3.5906250000e+001,4.5850719751e+000,5.0922350588e+000,4.8547304501e+000,4.4028761986e+000,4.5994314994e+000,4.9879548222e+000,3.9324707074e+000,3.9954147858e+000,2.8000335266e+000,5.3589957044e+000,4.7585846846e+000,4.8469673762e+000,4.6082039940e+000,4.7786716768e+000,
3.6000000000e+001,4.5576741146e+000,5.0731185791e+000,4.7903087354e+000,4.3659349745e+000,4.6071203932e+000,5.0531800617e+000,3.8381868232e+000,4.0184343920e+000,2.7455978745e+000,5.4779539504e+000,4.5962152443e+000,5.0187725141e+000,4.5534399381e+000,4.7910971078e+000,
3.6093750000e+001,4.5795522510e+000,5.0276914776e+000,4.7234106923e+000,4.3937074148e+000,4.5503281706e+000,5.0316366072e+000,3.7195276786e+000,4.0037744571e+000,2.7209210221e+000,5.4602362187e+000,4.5018838143e+000,5.0449542747e+000,4.5205739633e+000,4.7965852575e+000,
3.6187500000e+001,4.6490158942e+000,5.0264675372e+000,4.7384689246e+000,4.4422332049e+000,4.6405371482e+000,5.0154834918e+000,3.7775170497e+000,4.0526814096e+000,2.8279716656e+000,5.4433165523e+000,4.4224605533e+000,5.1058063359e+000,4.5097506615e+000,4.9568120516e+000,
3.6281250000e+001,4.6302294553e+000,4.9552812658e+000,4.6646339322e+000,4.3695357875e+000,4.7438840595e+000,5.0285714510e+000,3.7924574036e+000,4.0614271927e+000,2.9610635345e+000,5.4939899613e+000,4.3375028539e+000,5.1216802910e+000,4.5536073314e+000,5.0104847131e+000,
3.6375000000e+001,4.6556270529e+000,4.9699197372e+000,4.6476474460e+000,4.3791017170e+000,4.7632063383e+000,5.0834129998e+000,3.7852949388e+000,4.0831917944e+000,3.0247201793e+000,5.5545503331e+000,4.2756825976e+000,5.0809943382e+000,4.4885978861e+000,4.9531543039e+000,
3.6468750000e+001,4.7042439075e+000,5.0365622381e+000,4.5864084266e+000,4.4039518021e+000,4.8179290648e+000,5.1592093658e+000,3.7346372887e+000,4.0999578556e+000,2.9337634273e+000,5.4678850527e+000,4.3962724968e+000,4.9999115053e+000,4.5183804872e+000,4.9220399570e+000,
3.6562500000e+001,4.7965543569e+000,5.1314903448e+000,4.6206044505e+000,4.4619705909e+000,4.8109796903e+000,5.2408627021e+000,3.8489425357e+000,4.1366618476e+000,2.9570347133e+000,5.4519468628e+000,4.3679418894e+000,5.0273683319e+000,4.4321609287e+000,4.9726160655e+000,
3.6656250000e+001,4.7380352983e+000,5.0671002954e+000,4.5112101834e+000,4.4078107870e+000,4.7864192526e+000,5.1727011364e+000,3.8507637129e+000,4.0582036081e+000,2.8527328964e+000,5.4031540820e+000,4.1487483445e+000,5.0512568514e+000,4.3008177512e+000,4.9596652802e+000,
3.6750000000e+001,4.7387684987e+000,5.0425704919e+000,4.4922800726e+000,4.3930160037e+000,4.7724442914e+000,5.1793523845e+000,3.8595376538e+000,4.0198972852e+000,2.8210728186e+000,5.4058090129e+000,4.0967852423e+000,5.1291990257e+000,4.1614680848e+000,4.9174586991e+000,
3.6843750000e+001,4.7253925945e+000,5.0392905046e+000,4.4944372530e+000,4.3914055895e+000,4.7153492351e+000,5.1812441637e+000,3.8699069827e+000,4.0089662285e+000,2.8319092885e+000,5.4411686589e+000,4.0737420409e+000,5.1895838909e+000,4.1093661979e+000,4.9414750912e+000,
3.6937500000e+001,4.6771181471e+000,4.9871408556e+000,4.4465186134e+000,4.3408078637e+000,4.6783830028e+000,5.1211835104e+000,3.8238380551e+000,3.9445792627e+000,2.9065081170e+000,5.3738542928e+000,4.0726664767e+000,5.1958255346e+000,4.0972024833e+000,4.9654370137e+000,
3.7031250000e+001,4.6032126895e+000,4.8960646300e+000,4.3663200908e+000,4.2510334689e+000,4.6154008885e+000,4.9716826989e+000,3.7790699515e+000,3.8244128277e+000,2.9352813528e+000,5.2810021093e+000,4.1954637518e+000,5.1220964499e+000,4.1891042371e+000,4.9487830975e+000,
3.7125000000e+001,4.5418886826e+000,4.8255954885e+000,4.3198109561e+000,4.1239099401e+000,4.6364122761e+000,4.9360125080e+000,3.8491510875e+000,3.7350570306e+000,3.0012696702e+000,5.2523639820e+000,4.1531213179e+000,5.0370580977e+000,4.2871854672e+000,4.9470176953e+000,
3.7218750000e+001,4.4644049393e+000,4.7247709185e+000,4.2715277027e+000,3.9918294402e+000,4.5168193526e+000,4.8051624525e+000,3.7594425171e+000,3.5953935415e+000,2.9009629623e+000,5.1026284440e+000,4.0751280070e+000,4.9742727183e+000,4.2754745703e+000,4.7686382109e+000,
3.7312500000e+001,4.3620181228e+000,4.6114163905e+000,4.1815136484e+000,3.8541389787e+000,4.3595271839e+000,4.6224536472e+000,3.6664303028e+000,3.4893659241e+000,2.8066461210e+000,4.9815958373e+000,3.9625881897e+000,4.8674367495e+000,4.1919519605e+000,4.6940249966e+000,
3.7406250000e+001,4.2317754233e+000,4.3955802447e+000,4.0527808356e+000,3.6371152333e+000,4.2563521439e+000,4.3730733135e+000,3.5446611963e+000,3.3615009185e+000,2.7511421571e+000,4.7465035961e+000,3.8584956311e+000,4.8383302753e+000,4.1775415853e+000,4.6799947652e+000,
3.7500000000e+001,4.1664138899e+000,4.3066835962e+000,4.0472966231e+000,3.4984091019e+000,4.2748543303e+000,4.2009300434e+000,3.4745688561e+000,3.3115094056e+000,2.7681165723e+000,4.7427615377e+000,3.9751574113e+000,4.8353620591e+000,4.2516066244e+000,4.6670631916e+000,
3.7593750000e+001,4.1531959554e+000,4.2580424332e+000,4.1050456309e+000,3.4941425743e+000,4.3013164690e+000,4.0338473985e+000,3.5714039954e+000,3.2385487628e+000,2.7041766900e+000,4.7242540816e+000,4.0136809728e+000,4.7220095787e+000,4.2934014756e+000,4.5532523309e+000,
3.7687500000e+001,4.2046570056e+000,4.3329001377e+000,4.1796222368e+000,3.5722510219e+000,4.3533186819e+000,4.0689908432e+000,3.6325322853e+000,3.1928476862e+000,2.7114388732e+000,4.6889829595e+000,4.0527232462e+000,4.4974287102e+000,4.2796841853e+000,4.4120195971e+000,
3.7781250000e+001,4.1855259550e+000,4.3671358056e+000,4.1521040279e+000,3.6202919730e+000,4.3650478232e+000,4.0810563723e+000,3.6731454236e+000,3.1934428001e+000,2.7862296215e+000,4.7078035627e+000,4.1116967208e+000,4.3348640151e+000,4.2448487665e+000,4.2469254958e+000,
3.7875000000e+001,4.1649216345e+000,4.3525898635e+000,4.1422255040e+000,3.6091918993e+000,4.2970395729e+000,4.0607735702e+000,3.6322668129e+000,3.1856224587e+000,2.7583566751e+000,4.5920278273e+000,4.1761357560e+000,4.1502566858e+000,4.2173744932e+000,4.1177494683e+000,
3.7968750000e+001,4.1189116248e+000,4.3122737060e+000,4.1378857429e+000,3.6091394202e+000,4.1681959353e+000,4.0475618675e+000,3.5679065243e+000,3.1642382154e+000,2.6957834245e+000,4.5247163779e+000,4.1258080058e+000,4.0787269485e+000,4.1421226682e+000,4.0669096056e+000,
3.8062500000e+001,4.0646341383e+000,4.2643383627e+000,4.0928489591e+000,3.5622337744e+000,4.1358501447e+000,3.9635053729e+000,3.5123863742e+000,3.1480574599e+000,2.7490080450e+000,4.3792945538e+000,4.0112560535e+000,4.0078698688e+000,4.0290632875e+000,4.0710549977e+000,
3.8156250000e+001,3.9507976485e+000,4.2554069305e+000,4.0262745967e+000,3.5896197957e+000,3.9508862983e+000,4.0829907730e+000,3.3959349177e+000,3.2983053246e+000,2.6287077732e+000,4.4153714842e+000,4.0000657470e+000,3.8612728566e+000,3.8809241696e+000,4.1202211485e+000,
3.8250000000e+001,3.9365854749e+000,4.2496883642e+000,3.9921707028e+000,3.6342169641e+000,3.9676828452e+000,4.1103733583e+000,3.4010757326e+000,3.3369795227e+000,2.6118453989e+000,4.4004049915e+000,4.0145994826e+000,3.9956035076e+000,3.9327387462e+000,4.3393398609e+000,
3.8343750000e+001,3.9676426111e+000,4.2936788085e+000,4.0259821243e+000,3.7079932336e+000,4.0106424081e+000,4.1573875605e+000,3.3900050970e+000,3.4094056412e+000,2.6471737110e+000,4.5520127639e+000,3.9774261598e+000,4.1761805347e+000,3.9424262404e+000,4.5364944337e+000,
3.8437500000e+001,3.8669603212e+000,4.2091094346e+000,3.9438381235e+000,3.6469304601e+000,3.9369115725e+000,4.0507958385e+000,3.3122946584e+000,3.3468358244e+000,2.5748000074e+000,4.4561190770e+000,3.9729859564e+000,4.2735772224e+000,4.0268088310e+000,4.7109856215e+000,
3.8531250000e+001,3.8185174914e+000,4.2102154169e+000,3.9026806776e+000,3.6814054159e+000,3.8237134831e+000,4.1146204419e+000,3.2749098622e+000,3.5769711330e+000,2.6336058151e+000,4.4652385493e+000,3.8741865149e+000,4.3237791878e+000,3.9040275538e+000,4.7526861406e+000,
3.8625000000e+001,3.5109215461e+000,3.9132920840e+000,3.6309796412e+000,3.5236470067e+000,3.6068154820e+000,4.0442529758e+000,2.9161782329e+000,3.5739398786e+000,2.6627009852e+000,4.4666806186e+000,3.8537071949e+000,4.4396620831e+000,3.8747190741e+000,4.8350576820e+000,
3.8718750000e+001,3.3488817814e+000,3.8301679933e+000,3.5201224072e+000,3.4153051266e+000,3.5256748364e+000,3.9971817496e+000,2.7713197177e+000,3.5718284307e+000,2.5834406821e+000,4.4559574494e+000,3.8303558184e+000,4.5011348002e+000,3.8403818917e+000,4.8899778092e+000,
3.8812500000e+001,3.4522004158e+000,3.8171149746e+000,3.5805167019e+000,3.3919980224e+000,3.7285908075e+000,3.9903582097e+000,2.8223929969e+000,3.5584372646e+000,2.5457394959e+000,4.5391219335e+000,3.7718588612e+000,4.6034558927e+000,3.8816755615e+000,4.9821548397e+000,
3.8906250000e+001,3.4862574723e+000,3.8267391691e+000,3.5223615883e+000,3.3991032727e+000,3.8490423705e+000,4.0067990963e+000,2.9454641783e+000,3.5481639604e+000,2.6562701814e+000,4.6532284014e+000,3.6526727652e+000,4.7312287864e+000,3.8842718095e+000,5.0550308585e+000,
3.9000000000e+001,3.4951934743e+000,3.8369131137e+000,3.5699711357e+000,3.4138632193e+000,3.9558667618e+000,4.0398220121e+000,3.0065665646e+000,3.5735479824e+000,2.6612714103e+000,4.7715706100e+000,3.6255481496e+000,4.8694391203e+000,3.9117690949e+000,5.1656666464e+000,
3.9093750000e+001,3.5262991096e+000,3.8761415649e+000,3.5819771166e+000,3.4841295032e+000,3.9581432930e+000,4.0121296449e+000,2.9888585017e+000,3.6184231670e+000,2.6051164496e+000,4.8389610062e+000,3.6216235530e+000,4.9387317060e+000,3.8939639600e+000,5.1749153871e+000,
3.9187500000e+001,3.4371816472e+000,3.7818190039e+000,3.4808319565e+000,3.3991454170e+000,4.0313083728e+000,3.9818436712e+000,2.8834264598e+000,3.5044274975e+000,2.7455539669e+000,4.8625608712e+000,3.5828039808e+000,5.0192290869e+000,3.8622616707e+000,5.1825557332e+000,
3.9281250000e+001,3.4616085756e+000,3.7731558866e+000,3.5635862237e+000,3.3967857619e+000,4.0139691374e+000,3.9803090845e+000,2.9441674204e+000,3.4551640707e+000,2.8550231393e+000,4.8385158595e+000,3.6538086480e+000,4.9197013401e+000,3.8047787201e+000,5.0489110517e+000,
3.9375000000e+001,3.4174280268e+000,3.7800195161e+000,3.5953773300e+000,3.3975548186e+000,3.9427368437e+000,3.9700878719e+000,2.9596077016e+000,3.3395440079e+000,2.8371615593e+000,4.7400950358e+000,3.7602844406e+000,4.8542558514e+000,3.8974219406e+000,5.0224488751e+000,
3.9468750000e+001,3.4831994161e+000,3.9046073090e+000,3.6814529508e+000,3.4988605964e+000,3.9229370191e+000,4.0602465609e+000,3.0573301980e+000,3.3958342312e+000,2.8410447439e+000,4.7100964973e+000,3.7194786951e+000,4.7300421491e+000,3.8491794396e+000,4.8840082223e+000,
3.9562500000e+001,3.4576149154e+000,3.9442926429e+000,3.6951318482e+000,3.4584935409e+000,4.0300454580e+000,4.1018090437e+000,3.1965267110e+000,3.1402685381e+000,2.8302194245e+000,4.6712371548e+000,3.7688319251e+000,4.6952263442e+000,4.1315505421e+000,4.9035839276e+000,
3.9656250000e+001,3.6275502733e+000,4.0677498240e+000,3.8432636670e+000,3.5655807466e+000,4.0501831786e+000,4.1810345876e+000,3.3812571489e+000,3.1869125441e+000,2.8522017978e+000,4.6837137655e+000,3.7631218312e+000,4.6461861801e+000,4.2300955997e+000,4.8814575923e+000,
3.9750000000e+001,3.8591019157e+000,4.2384002864e+000,3.9808038998e+000,3.7359403753e+000,4.2246670247e+000,4.3409709946e+000,3.5673357330e+000,3.3560372131e+000,2.9009788543e+000,4.9222896102e+000,3.8509307640e+000,4.7002216185e+000,4.3578196783e+000,4.9171483337e+000,
3.9843750000e+001,3.8991553544e+000,4.3067949940e+000,3.9764272945e+000,3.7459812269e+000,4.1127520834e+000,4.3516316106e+000,3.5681882303e+000,3.3739409921e+000,2.9201722300e+000,4.9269226108e+000,4.0108670543e+000,4.6282896737e+000,4.4478041096e+000,4.8729414811e+000,
3.9937500000e+001,3.9887196195e+000,4.3839955928e+000,4.0236494878e+000,3.8412516223e+000,4.0029192292e+000,4.4297950524e+000,3.5443841609e+000,3.5038149409e+000,2.8080159563e+000,4.8916365866e+000,4.0878227803e+000,4.5731195398e+000,4.5924973506e+000,4.8564070175e+000,
4.0031250000e+001,4.1245904377e+000,4.4803432605e+000,4.0848708098e+000,3.9015892441e+000,4.1354685237e+000,4.4799731905e+000,3.7026615872e+000,3.4984997713e+000,2.9510906979e+000,4.8591531593e+000,4.1144275614e+000,4.4753424110e+000,4.6555948934e+000,4.8131538074e+000,
4.0125000000e+001,4.2007699213e+000,4.5603598461e+000,4.1426292023e+000,3.9635193659e+000,4.1476243968e+000,4.5876511930e+000,3.7516867870e+000,3.5205526956e+000,2.9485336721e+000,4.8735079403e+000,4.1970450118e+000,4.3083200370e+000,4.7104354216e+000,4.6989909223e+000,
4.0218750000e+001,4.2377432204e+000,4.5875114838e+000,4.1337780510e+000,3.9696589535e+000,4.1015095069e+000,4.6042955861e+000,3.7369963151e+000,3.6296131947e+000,2.9698078089e+000,4.8352947950e+000,4.2447291617e+000,4.3476461556e+000,4.8035550923e+000,4.7771443436e+000,
4.0312500000e+001,4.1957415261e+000,4.5425296320e+000,4.0454027348e+000,3.8990205346e+000,4.0510836828e+000,4.6188907762e+000,3.6768346223e+000,3.6422154539e+000,2.8920115319e+000,4.8672656097e+000,4.1660910511e+000,4.5669881755e+000,4.8365310709e+000,4.9652683430e+000,
4.0406250000e+001,4.2682897720e+000,4.5710318125e+000,4.0839486032e+000,3.9009430458e+000,4.1883345239e+000,4.6740222843e+000,3.7406291432e+000,3.6584515089e+000,3.0482889143e+000,4.9458749627e+000,4.1240134502e+000,4.6509266912e+000,4.8824070205e+000,5.0326127258e+000,
4.0500000000e+001,4.2069238971e+000,4.4882313965e+000,3.9909538161e+000,3.8126627886e+000,4.2254860077e+000,4.6052274539e+000,3.6704791778e+000,3.5772124393e+000,3.0717650049e+000,4.9351853152e+000,4.0151371861e+000,4.6963101604e+000,4.7917195116e+000,5.0511960511e+000,
4.0593750000e+001,4.2656211072e+000,4.4683244702e+000,3.9346908088e+000,3.7437305430e+000,4.3333240094e+000,4.5737055407e+000,3.6637961985e+000,3.5812206746e+000,3.1767142490e+000,5.0204464694e+000,4.0291141481e+000,4.7100523998e+000,4.7885766183e+000,5.0919950851e+000,
4.0687500000e+001,4.1370271481e+000,4.3530208515e+000,3.7006981535e+000,3.5591583009e+000,4.2940673721e+000,4.4633731154e+000,3.5435251472e+000,3.4795062680e+000,3.2223719779e+000,4.9701192890e+000,4.0201149228e+000,4.7093029852e+000,4.7915726819e+000,5.1253111420e+000,
4.0781250000e+001,3.9930638694e+000,4.2580493874e+000,3.6150032283e+000,3.4409850142e+000,4.2317878846e+000,4.4287271905e+000,3.4510456003e+000,3.4277230935e+000,3.1634303856e+000,4.6737732623e+000,3.9448988971e+000,4.6246912981e+000,4.8264488875e+000,5.1451119796e+000,
4.0875000000e+001,3.9669987561e+000,4.2605551833e+000,3.6101654511e+000,3.3878230835e+000,4.3346106576e+000,4.4497906211e+000,3.4625441788e+000,3.4160287133e+000,3.1348638242e+000,4.6956122237e+000,3.8515621937e+000,4.5756902217e+000,4.8267853680e+000,5.2178364750e+000,
4.0968750000e+001,3.9167582040e+000,4.2506513070e+000,3.6154525798e+000,3.3673700508e+000,4.3888051728e+000,4.5292807640e+000,3.4089787699e+000,3.3479372515e+000,3.1597157868e+000,4.8308377848e+000,3.8504300497e+000,4.5115076347e+000,4.8106259281e+000,5.2120188887e+000,
4.1062500000e+001,3.8518570089e+000,4.2102450052e+000,3.5329833026e+000,3.2914297787e+000,4.4802166901e+000,4.5182289004e+000,3.3566120867e+000,3.3144355502e+000,3.1628309254e+000,4.8308134538e+000,3.9467157870e+000,4.4432121086e+000,4.7980828565e+000,5.2080637653e+000,
4.1156250000e+001,3.7718033090e+000,4.1088583093e+000,3.4281647216e+000,3.1381298650e+000,4.5711721616e+000,4.4615247798e+000,3.3811881804e+000,3.2586277763e+000,3.1508798866e+000,4.8668304184e+000,3.9231266602e+000,4.4111609211e+000,4.7428579761e+000,5.1854506857e+000,
