Time (s),AF3,AF4,F3,F4,F7,F8,FC5,FC6,T7,T8,P7,P8,O1,O2,Sampling Rate
0.0000000000e+000,3.1434835516e+000,3.0490340563e+000,2.5620488966e+000,3.3476527478e+000,2.7396514055e+000,3.3338368089e+000,2.3118421336e+000,3.4961681266e+000,2.4979308063e+000,3.3723820105e+000,2.5014421411e+000,3.1722656424e+000,2.3082560601e+000,3.0251404112e+000,1
9.3750000000e-002,3.3673518380e+000,3.1926731869e+000,2.6424781210e+000,3.3581248038e+000,2.9089825427e+000,3.3291992449e+000,2.5552342968e+000,3.4626541462e+000,2.6183564569e+000,3.3677299481e+000,2.5139703526e+000,3.1895539862e+000,2.3803266840e+000,3.0650869336e+000,
1.8750000000e-001,3.4845101633e+000,3.3676760795e+000,2.6659885280e+000,3.3513119146e+000,3.1081080045e+000,3.4349462171e+000,2.7563706126e+000,3.4843411488e+000,2.6757349645e+000,3.3576482864e+000,2.5257112402e+000,3.1437030133e+000,2.4144153562e+000,3.0886020637e+000,
2.8125000000e-001,3.5141656164e+000,3.4160644462e+000,2.5516740557e+000,3.2752540935e+000,3.1500089843e+000,3.5605339601e+000,2.8267588570e+000,3.5074095616e+000,2.8021535949e+000,3.4233492708e+000,2.4588345994e+000,3.1051253192e+000,2.4446870625e+000,3.2403440104e+000,
3.7500000000e-001,3.5137831348e+000,3.4642907102e+000,2.5696557432e+000,3.3248906237e+000,3.2037307152e+000,3.7622761555e+000,2.8458746800e+000,3.5544036671e+000,2.9387509656e+000,3.5049552619e+000,2.4564015444e+000,3.1330196695e+000,2.4844796923e+000,3.2446809002e+000,
4.6875000000e-001,3.5539148057e+000,3.5091768003e+000,2.7047072587e+000,3.2957233295e+000,3.1975502685e+000,3.9321472535e+000,2.8436982059e+000,3.6193649354e+000,3.1501055419e+000,3.5261028453e+000,2.4319813919e+000,3.0734226102e+000,2.4030836660e+000,3.2200222319e+000,
5.6250000000e-001,3.5590645635e+000,3.4714475603e+000,2.7411508132e+000,3.3212799987e+000,3.2409001328e+000,3.9741797700e+000,2.6904340969e+000,3.6012124743e+000,3.1141959871e+000,3.4713166569e+000,2.4332787396e+000,3.0395056473e+000,2.3261328955e+000,3.0273488193e+000,
6.5625000000e-001,3.5415090460e+000,3.4956926039e+000,2.8271265916e+000,3.3552430633e+000,3.2313352874e+000,4.0268811499e+000,2.7127126265e+000,3.7233300125e+000,3.1889119890e+000,3.5391252431e+000,2.3850584550e+000,3.0988044147e+000,2.3774197853e+000,3.1508632012e+000,
7.5000000000e-001,3.5528785138e+000,3.5053086050e+000,2.8829096676e+000,3.4617370177e+000,3.1907634203e+000,4.0838430977e+000,2.7544032696e+000,3.7743559676e+000,3.2497949827e+000,3.6874991552e+000,2.3707204088e+000,3.3158211853e+000,2.3810910969e+000,3.2525053690e+000,
8.4375000000e-001,3.5360404212e+000,3.5387754496e+000,2.8886300881e+000,3.5062145381e+000,3.2126313373e+000,4.1074596961e+000,2.8502988508e+000,3.7085695466e+000,3.3534762669e+000,3.7770626060e+000,2.3173619947e+000,3.2656190765e+000,2.3722020942e+000,3.2255523065e+000,
9.3750000000e-001,3.4792050912e+000,3.5138913600e+000,2.7508227268e+000,3.3582415255e+000,3.0881075650e+000,4.0281026158e+000,2.9050766361e+000,3.6570801037e+000,3.3272855620e+000,3.7058471258e+000,2.1546784716e+000,3.0963535918e+000,2.3136165711e+000,3.2319078637e+000,
1.0312500000e+000,3.3934610965e+000,3.5369602129e+000,2.7757815922e+000,3.3810201118e+000,2.9997039826e+000,4.0535126480e+000,2.9539867615e+000,3.6279697563e+000,3.2340258054e+000,3.7366012609e+000,2.0587358671e+000,3.1179467447e+000,2.2914143549e+000,3.2264102706e+000,
1.1250000000e+000,3.2547619786e+000,3.4525574491e+000,2.7558249909e+000,3.4021698495e+000,2.9289915813e+000,4.0625551495e+000,2.8790519014e+000,3.6947214708e+000,3.2269078537e+000,3.7618526562e+000,2.0531733231e+000,3.0698587129e+000,2.2462892549e+000,3.2563523981e+000,
1.2187500000e+000,3.1561362630e+000,3.3030009750e+000,2.7432555295e+000,3.3665145328e+000,2.7055385230e+000,3.9932310727e+000,2.9312244036e+000,3.5809556672e+000,3.1864177189e+000,3.7358784999e+000,2.3583642403e+000,3.0968371959e+000,2.2104888155e+000,3.0822450320e+000,
1.3125000000e+000,3.2678719512e+000,3.3360879729e+000,2.8147826382e+000,3.4300149198e+000,2.7427113054e+000,3.9795641246e+000,2.9251716268e+000,3.6608427958e+000,3.3716894302e+000,3.7452702468e+000,2.4336769577e+000,3.1967773359e+000,2.2269114381e+000,3.1471199950e+000,
1.4062500000e+000,3.2015040832e+000,3.2744909257e+000,2.7595228742e+000,3.4355474515e+000,2.9942849634e+000,3.7239947753e+000,3.0894074788e+000,3.6302462032e+000,3.2902057581e+000,3.6192098939e+000,2.4331634226e+000,3.1738181527e+000,2.2892303026e+000,3.1707419904e+000,
1.5000000000e+000,3.2157168896e+000,3.3265572958e+000,2.7710753801e+000,3.4495445099e+000,3.2878717934e+000,3.6997192717e+000,3.3363622454e+000,3.6088073020e+000,3.3915757779e+000,3.6314593482e+000,2.5135953826e+000,3.2159251253e+000,2.3419141260e+000,3.1708159717e+000,
1.5937500000e+000,3.2161347175e+000,3.3485820145e+000,2.9120801025e+000,3.4143281003e+000,3.4143652751e+000,3.6734630373e+000,3.5707002540e+000,3.5547516093e+000,3.5648186654e+000,3.6052844685e+000,2.4628803618e+000,3.2044299115e+000,2.3917860580e+000,3.1954248252e+000,
1.6875000000e+000,3.2010567934e+000,3.3310364019e+000,2.8220378664e+000,3.3547624259e+000,3.4176635265e+000,3.5318422605e+000,3.6574226273e+000,3.3696050388e+000,3.5758615316e+000,3.4769968125e+000,2.5070030630e+000,3.1392282614e+000,2.3685430523e+000,3.0882491739e+000,
1.7812500000e+000,3.2172895734e+000,3.3223714345e+000,2.8773834530e+000,3.2455835097e+000,3.4513412497e+000,3.3400134679e+000,3.6647550882e+000,3.3687647438e+000,3.6031096568e+000,3.3852537881e+000,2.4960285326e+000,3.1084026841e+000,2.3732240705e+000,3.1089587640e+000,
1.8750000000e+000,3.2192516227e+000,3.1881105304e+000,2.8829285847e+000,3.1186995157e+000,3.4403057916e+000,3.3102067013e+000,3.6586096597e+000,3.3251427937e+000,3.5551260684e+000,3.2900094981e+000,2.4301239695e+000,3.0707134591e+000,2.3468550707e+000,3.0498880132e+000,
1.9687500000e+000,3.1606403801e+000,3.1106988030e+000,2.8980941534e+000,3.0536818975e+000,3.4507629381e+000,3.2500054719e+000,3.6519010932e+000,3.3492480962e+000,3.5841591657e+000,3.2350273236e+000,2.5293607231e+000,3.1129793405e+000,2.3365166533e+000,2.9312448336e+000,
2.0625000000e+000,3.1588958797e+000,3.1860268598e+000,2.9317071018e+000,2.9573922369e+000,3.4411567195e+000,3.1461478240e+000,3.6237137113e+000,3.3030652511e+000,3.5929694878e+000,3.1684902826e+000,2.5662071948e+000,3.2301069864e+000,2.4535895491e+000,3.1160226852e+000,
2.1562500000e+000,3.1703015039e+000,3.1981098886e+000,2.9259583583e+000,2.9728313294e+000,3.4487055531e+000,3.2057088883e+000,3.5457217240e+000,3.3315439952e+000,3.6023281624e+000,3.1994260296e+000,2.5161588497e+000,3.2999833652e+000,2.5000088110e+000,3.3620779428e+000,
2.2500000000e+000,3.1331148062e+000,3.2018788313e+000,2.9194776104e+000,2.9734388312e+000,3.4181311246e+000,3.2522235658e+000,3.4727830923e+000,3.2943591205e+000,3.6199345218e+000,3.1559346490e+000,2.2857588353e+000,3.2847876218e+000,2.4048835144e+000,3.4279297010e+000,
2.3437500000e+000,3.0482342739e+000,3.0395374753e+000,2.8847152883e+000,2.7901522675e+000,3.3157024752e+000,3.1701102006e+000,3.4463762071e+000,3.2841581616e+000,3.4602035656e+000,3.0662945652e+000,2.3248930682e+000,3.2780978252e+000,2.5827209503e+000,3.5744242776e+000,
2.4375000000e+000,3.0221645859e+000,2.9625906124e+000,2.7909057433e+000,2.6271068747e+000,3.1099127836e+000,3.1401853714e+000,3.3069030026e+000,3.3046156552e+000,3.3036393364e+000,3.0542311334e+000,2.2762902913e+000,3.2298023745e+000,2.5501442557e+000,3.6680031996e+000,
2.5312500000e+000,2.9731313320e+000,2.8334009747e+000,2.6497437691e+000,2.6417558222e+000,2.7211987731e+000,3.0773210345e+000,3.0049534947e+000,3.3472411580e+000,3.1100432116e+000,3.0503930765e+000,2.2592962344e+000,3.2505533562e+000,2.5510735913e+000,3.7611695998e+000,
2.6250000000e+000,3.0244570559e+000,2.9754495658e+000,2.7434999540e+000,2.7950477621e+000,2.6359883063e+000,3.3274052578e+000,2.9316809726e+000,3.5059087444e+000,2.9439344675e+000,3.3007885825e+000,2.3413206501e+000,3.3901501645e+000,2.6389985866e+000,3.8663727320e+000,
2.7187500000e+000,3.1769779968e+000,3.0784813187e+000,2.9801516563e+000,2.9011156113e+000,2.6535986423e+000,3.2904877422e+000,2.7661725304e+000,3.5261110667e+000,2.8275141091e+000,3.2218899493e+000,2.3137543099e+000,3.3258865325e+000,2.6755267491e+000,3.8880915025e+000,
2.8125000000e+000,3.1502705257e+000,3.2029658082e+000,3.0261297182e+000,2.9730870760e+000,2.5892406903e+000,3.3270639870e+000,2.6852052530e+000,3.6282689561e+000,2.7193262979e+000,3.1371529642e+000,2.3392004026e+000,3.3023018450e+000,2.7471816965e+000,3.8709731194e+000,
2.9062500000e+000,3.1807904841e+000,3.1927119531e+000,3.0548815328e+000,2.9441189782e+000,2.6128020289e+000,3.2789458158e+000,2.6106139985e+000,3.6140240443e+000,2.6730995347e+000,3.0855320812e+000,2.4167880050e+000,3.3192884059e+000,2.7900274839e+000,3.9009480272e+000,
3.0000000000e+000,3.1428722020e+000,3.1174002237e+000,3.0490555727e+000,2.8555492937e+000,2.5574320981e+000,3.2117556174e+000,2.5468930621e+000,3.5194868951e+000,2.4704812683e+000,2.9896613210e+000,2.3082387802e+000,3.2941607201e+000,2.9061418109e+000,3.9083063858e+000,
3.0937500000e+000,3.0694184167e+000,2.9443611777e+000,2.9648247532e+000,2.7437482771e+000,2.5878604918e+000,3.1257882058e+000,2.5453932836e+000,3.4631592884e+000,2.3232027393e+000,2.9557328885e+000,2.2834180966e+000,3.1385225367e+000,2.8396728762e+000,3.8437541505e+000,
3.1875000000e+000,3.0691684658e+000,2.9543718183e+000,2.9712767247e+000,2.7756712775e+000,2.5771015728e+000,3.0871682644e+000,2.5679567847e+000,3.5037300106e+000,2.3586213037e+000,2.9720994404e+000,2.3982221761e+000,3.0808543910e+000,2.8654731876e+000,3.7045374697e+000,
3.2812500000e+000,3.2277628779e+000,3.2559348627e+000,2.9338121990e+000,2.9322951226e+000,2.8113496732e+000,3.1664604909e+000,2.7882405600e+000,3.5847735906e+000,2.2595087580e+000,2.9532297598e+000,2.4406459341e+000,3.0805542613e+000,2.8761331043e+000,3.7305059643e+000,
3.3750000000e+000,3.2410896172e+000,3.3195293832e+000,2.9147658907e+000,2.8941661353e+000,2.8026325036e+000,3.1476594823e+000,2.6860606548e+000,3.4945949956e+000,2.2775004608e+000,2.9296949845e+000,2.3551376128e+000,2.8974662252e+000,2.7452805331e+000,3.5397786176e+000,
3.4687500000e+000,3.2614676695e+000,3.3793420111e+000,2.9733838103e+000,2.8396024223e+000,2.8626701461e+000,3.1491137429e+000,2.7110576887e+000,3.4814926019e+000,2.3170313963e+000,2.9224882223e+000,2.4555474203e+000,2.9366748191e+000,2.7928122369e+000,3.4964530179e+000,
3.5625000000e+000,3.3763329244e+000,3.4359188751e+000,3.0980950205e+000,2.8404177826e+000,2.8809022032e+000,3.0501070771e+000,2.5563168699e+000,3.5131107784e+000,2.2371191874e+000,2.7859072916e+000,2.4680199670e+000,2.9340330340e+000,2.8029878917e+000,3.3620028986e+000,
3.6562500000e+000,3.3506666444e+000,3.3887844425e+000,3.0627348387e+000,2.8644258664e+000,2.8359412282e+000,2.9953027004e+000,2.6199387762e+000,3.4283777625e+000,2.2069951765e+000,2.8151344316e+000,2.4081871220e+000,2.7459108867e+000,2.6605511534e+000,3.2895862128e+000,
3.7500000000e+000,3.2883566263e+000,3.2423978969e+000,2.8524982329e+000,2.7211980332e+000,2.7941190672e+000,2.9382154833e+000,2.6797009952e+000,3.3512582277e+000,2.2235881894e+000,2.8441624112e+000,2.4120493432e+000,2.6974953341e+000,2.6185635480e+000,3.2398989479e+000,
3.8437500000e+000,3.2679553263e+000,3.2418653733e+000,2.8628645791e+000,2.7850516486e+000,2.8215753000e+000,2.9688116167e+000,2.7383989749e+000,3.3672195880e+000,2.2634897834e+000,2.7987505714e+000,2.5016738433e+000,2.6691054778e+000,2.5306224379e+000,3.3053428448e+000,
3.9375000000e+000,3.3335268958e+000,3.3587158178e+000,2.8463938579e+000,2.9587489883e+000,2.9316381783e+000,3.1397124911e+000,2.8430774659e+000,3.4932050085e+000,2.2105639219e+000,2.8886370154e+000,2.4805931907e+000,2.6191249733e+000,2.5500674071e+000,3.3019592600e+000,
4.0312500000e+000,3.3689309470e+000,3.3919476511e+000,2.8999106295e+000,3.0273880152e+000,2.9644602611e+000,3.1508325631e+000,2.9397886483e+000,3.5759231584e+000,2.2117365202e+000,2.9806714392e+000,2.5230075545e+000,2.7706954409e+000,2.4293310193e+000,3.3579488354e+000,
4.1250000000e+000,3.4499540239e+000,3.4713146327e+000,2.9761512667e+000,3.0863749708e+000,2.9688125985e+000,3.2341566857e+000,3.0203803455e+000,3.6416530321e+000,2.2142779082e+000,2.9968519732e+000,2.5620189667e+000,2.8205168146e+000,2.4712248922e+000,3.3548041890e+000,
4.2187500000e+000,3.5529522927e+000,3.5108056437e+000,3.0771317692e+000,3.1686905730e+000,2.9305733719e+000,3.2968992912e+000,3.1055144684e+000,3.7395767528e+000,2.0841461687e+000,3.0262386212e+000,2.4532879328e+000,2.8336012278e+000,2.3535711059e+000,3.3343581449e+000,
4.3125000000e+000,3.5053058316e+000,3.3393102396e+000,3.0885159107e+000,3.1532858750e+000,2.7454610372e+000,3.1803426174e+000,3.0880115694e+000,3.6887959629e+000,2.0337496987e+000,3.0898630041e+000,2.4857423660e+000,2.8760089925e+000,2.2908413148e+000,3.2762929899e+000,
4.4062500000e+000,3.4682875232e+000,3.3600082233e+000,3.1378617809e+000,3.2178824359e+000,2.6773580073e+000,3.2787081036e+000,3.0934318831e+000,3.7190847437e+000,1.9466686869e+000,3.2175723784e+000,2.5153861233e+000,2.8762644315e+000,2.3546830986e+000,3.3648312018e+000,
4.5000000000e+000,3.4777327002e+000,3.2533083707e+000,3.0555562892e+000,3.1703156199e+000,2.5779307388e+000,3.2993780028e+000,3.0339652658e+000,3.7584860768e+000,1.9911965063e+000,3.2198377503e+000,2.5279181047e+000,2.7609969571e+000,2.2555933750e+000,3.2698004602e+000,
4.5937500000e+000,3.3720098205e+000,3.1973374066e+000,2.9069310213e+000,3.0687168509e+000,2.4673974294e+000,3.3088190981e+000,2.9724142460e+000,3.6992941023e+000,1.9444914559e+000,3.1742457346e+000,2.5690630865e+000,2.7422920304e+000,2.2902381981e+000,3.2220717200e+000,
4.6875000000e+000,3.2534455627e+000,3.0128018916e+000,2.7960579103e+000,3.0176200158e+000,2.4509042986e+000,3.1574016617e+000,2.8109769785e+000,3.8415389935e+000,1.8253202880e+000,3.0340860191e+000,2.5429828362e+000,2.7477241981e+000,2.3440525442e+000,3.2067503825e+000,
4.7812500000e+000,3.2575265114e+000,3.0260947744e+000,2.7873787612e+000,2.9550513889e+000,2.4746211279e+000,3.2279258431e+000,2.7381869230e+000,3.8041920438e+000,1.7208738652e+000,3.0649020830e+000,2.4728917134e+000,2.7267789428e+000,2.4129430954e+000,3.1999037946e+000,
4.8750000000e+000,3.2462388879e+000,2.9983973551e+000,2.7230144279e+000,2.8325669396e+000,2.4549595567e+000,3.1277813712e+000,2.8095335721e+000,3.8385941269e+000,1.6953388628e+000,3.0496294147e+000,2.4397942421e+000,2.7232060833e+000,2.5391123716e+000,3.1421466147e+000,
4.9687500000e+000,3.0939137198e+000,2.9899577015e+000,2.7888233700e+000,3.0075509635e+000,2.2134423576e+000,2.9789542322e+000,2.5301789191e+000,3.6569716979e+000,1.7592955129e+000,3.0020197831e+000,2.3421722613e+000,2.7934401429e+000,2.5453338738e+000,3.1278073650e+000,
5.0625000000e+000,3.0896884978e+000,2.9061060361e+000,2.8079912757e+000,2.9878167428e+000,2.2510565626e+000,3.0232007972e+000,2.6026320751e+000,3.6023723221e+000,1.7763998175e+000,2.8959816830e+000,2.3089373371e+000,2.7081794437e+000,2.4429681323e+000,3.0392099423e+000,
5.1562500000e+000,2.9959673065e+000,2.8609206638e+000,2.7777083237e+000,2.9418352661e+000,2.1745297253e+000,2.9457424660e+000,2.6088137354e+000,3.5061277985e+000,1.7529094651e+000,2.8952660659e+000,2.2802532845e+000,2.8256090889e+000,2.4426909862e+000,3.0248070730e+000,
5.2500000000e+000,2.7409854806e+000,2.7153868382e+000,2.7218724090e+000,2.9035785620e+000,2.1527738322e+000,2.9584860567e+000,2.5087453772e+000,3.4618119897e+000,1.7755035603e+000,3.0343824488e+000,2.2327505589e+000,2.8760833197e+000,2.4819355936e+000,2.9392603859e+000,
5.3437500000e+000,2.7054270951e+000,2.6279185560e+000,2.7432390173e+000,2.7610165989e+000,2.3406334568e+000,2.8283553198e+000,2.4849972028e+000,3.3849094592e+000,1.8094105758e+000,2.9348134737e+000,2.2579579315e+000,2.9798992990e+000,2.3935227914e+000,3.0352582346e+000,
5.4375000000e+000,2.6929185070e+000,2.5925905696e+000,2.6801580040e+000,2.7482340864e+000,2.3949328990e+000,2.6984346833e+000,2.5377246201e+000,3.2883757493e+000,1.8480491011e+000,2.9234019026e+000,2.2378514980e+000,3.1382203726e+000,2.3634941091e+000,3.0632937621e+000,
5.5312500000e+000,2.7706789406e+000,2.7351690708e+000,2.7656023475e+000,2.8517361668e+000,2.5189981679e+000,2.6331752087e+000,2.5909034608e+000,3.2692272574e+000,1.8008117594e+000,3.0004179360e+000,2.1463397465e+000,3.2849579038e+000,2.3585239194e+000,3.2621174132e+000,
5.6250000000e+000,2.8633027004e+000,2.8354124749e+000,2.7750655283e+000,2.8614636145e+000,2.5267190320e+000,2.5898169233e+000,2.6102321199e+000,3.3385904496e+000,1.8940426689e+000,3.0698962304e+000,2.1582810024e+000,3.3764952905e+000,2.3632408389e+000,3.3726377890e+000,
5.7187500000e+000,2.9274037146e+000,2.8650456550e+000,2.7471005967e+000,2.8512189994e+000,2.6211295176e+000,2.5621482996e+000,2.7072766165e+000,3.0833016760e+000,1.9438740613e+000,3.1671836895e+000,2.1955281126e+000,3.4855866217e+000,2.4972070381e+000,3.3795985491e+000,
5.8125000000e+000,2.8989547587e+000,2.9344437797e+000,2.7698207688e+000,2.9329423314e+000,2.6829538987e+000,2.7981765031e+000,2.7044824100e+000,3.1986921281e+000,2.0853788183e+000,3.2457482240e+000,2.1878988178e+000,3.6180665604e+000,2.5227945731e+000,3.4347594594e+000,
5.9062500000e+000,2.8834170758e+000,2.9917286779e+000,2.7742945190e+000,2.9486348490e+000,2.6683266145e+000,2.9161586354e+000,2.6460833870e+000,3.1361390861e+000,2.0013269251e+000,3.3167732496e+000,2.2540405843e+000,3.7083022578e+000,2.4613689638e+000,3.5099571925e+000,
6.0000000000e+000,2.8397307702e+000,3.0451606307e+000,2.6645716872e+000,2.6755265189e+000,2.6679061902e+000,2.9873936221e+000,2.7898010941e+000,3.2099663400e+000,2.1087343843e+000,3.3644746819e+000,2.2166535840e+000,3.7032101143e+000,2.4343267922e+000,3.4362859560e+000,
6.0937500000e+000,2.7283744371e+000,3.0019399799e+000,2.6302709772e+000,2.6120196340e+000,2.6998618419e+000,2.9223081564e+000,2.7606891740e+000,3.2193318031e+000,2.1070989917e+000,3.3228349159e+000,2.2233224881e+000,3.6913562746e+000,2.3924976195e+000,3.5173567229e+000,
6.1875000000e+000,3.0004887411e+000,3.2871333840e+000,2.7591417786e+000,2.7574120253e+000,3.1307647922e+000,3.0817771250e+000,2.8497010657e+000,3.2200852166e+000,2.2104297899e+000,3.3030341845e+000,2.3378726091e+000,3.7002229924e+000,2.4068398030e+000,3.6077362253e+000,
6.2812500000e+000,3.2709828152e+000,3.6285717986e+000,2.8939188880e+000,2.9915269364e+000,3.2954496635e+000,3.2586477515e+000,3.1047806885e+000,3.2996286788e+000,2.2888547385e+000,3.3167902033e+000,2.3067095649e+000,3.6799917314e+000,2.4149505988e+000,3.6269618249e+000,
6.3750000000e+000,3.3319156794e+000,3.6223091276e+000,2.7740987380e+000,3.0096997040e+000,3.2632351747e+000,3.3148832535e+000,3.0757769747e+000,3.2831474497e+000,2.2670185541e+000,3.2796027384e+000,2.2355625226e+000,3.6685185080e+000,2.5127817205e+000,3.6547166291e+000,
6.4687500000e+000,3.3173991265e+000,3.6699061812e+000,2.7725898840e+000,3.0319082479e+000,3.2333791596e+000,3.3393819857e+000,3.0506787450e+000,3.3054075268e+000,2.1531320429e+000,3.3481033675e+000,2.2312750472e+000,3.6231616861e+000,2.5789811494e+000,3.6142910926e+000,
6.5625000000e+000,3.2261920112e+000,3.5949853259e+000,2.7184994611e+000,3.0345777644e+000,3.2141592851e+000,3.3697393146e+000,3.0383247901e+000,3.2408787901e+000,2.1513338157e+000,3.2969069053e+000,2.2151058936e+000,3.5473896426e+000,2.4893797144e+000,3.5291892001e+000,
6.6562500000e+000,3.2798472661e+000,3.5869581036e+000,2.7370001046e+000,3.0572328785e+000,3.1679699266e+000,3.3510074060e+000,3.0093512519e+000,3.1801926461e+000,2.1618027574e+000,3.1732146985e+000,2.2048067851e+000,3.4767540240e+000,2.4338520170e+000,3.5062091604e+000,
6.7500000000e+000,3.3844746539e+000,3.6661459249e+000,2.6499069605e+000,3.0869137782e+000,3.1382862848e+000,3.4114223514e+000,2.9424755840e+000,3.2824501214e+000,2.2610460427e+000,3.2385232520e+000,2.0855524651e+000,3.5215546709e+000,2.1630997274e+000,3.5528861756e+000,
6.8437500000e+000,3.4169553096e+000,3.6469230586e+000,2.6871484946e+000,3.0810632494e+000,3.1288660203e+000,3.4299493140e+000,2.9186173720e+000,3.2765417343e+000,2.1774782808e+000,3.3402964635e+000,2.2471904421e+000,3.4756226031e+000,2.3623664677e+000,3.6204709713e+000,
6.9375000000e+000,3.4813672406e+000,3.6061965822e+000,2.7346456604e+000,3.1792198789e+000,3.1159726943e+000,3.4031557013e+000,2.8746315366e+000,3.3039455271e+000,2.1614969930e+000,3.3644506903e+000,2.3042866607e+000,3.3685830404e+000,2.3271879147e+000,3.5832760272e+000,
7.0312500000e+000,3.6683720036e+000,3.7678010754e+000,3.0681650157e+000,3.3872654178e+000,3.3387064802e+000,3.5976273935e+000,3.0586004071e+000,3.5736829348e+000,2.1778023764e+000,3.4109522296e+000,2.4577204969e+000,3.6386841591e+000,2.4994998007e+000,3.5756277616e+000,
7.1250000000e+000,3.7037433522e+000,3.8552424240e+000,3.0771745511e+000,3.4911694721e+000,3.3907503665e+000,3.7757558740e+000,3.1187027277e+000,3.6347463173e+000,2.3586706238e+000,3.5399542512e+000,2.4795427890e+000,3.6695485037e+000,2.6611960958e+000,3.6348835497e+000,
7.2187500000e+000,3.5917330177e+000,3.6524437132e+000,2.9903381565e+000,3.4154922142e+000,3.1547970111e+000,3.7621322235e+000,2.9582338445e+000,3.7011743098e+000,2.4385119087e+000,3.6512212600e+000,2.5170991090e+000,3.7976599892e+000,2.7180039180e+000,3.5831561908e+000,
7.3125000000e+000,3.7252519874e+000,3.6363441220e+000,3.2151619474e+000,3.4154664726e+000,3.2401674207e+000,3.7684519693e+000,2.9452059309e+000,3.7223945967e+000,2.5434020698e+000,3.6996176428e+000,2.5270133718e+000,3.8506259482e+000,2.7839798278e+000,3.5776966330e+000,
7.4062500000e+000,3.7556711387e+000,3.5850397990e+000,3.2250508038e+000,3.3782736234e+000,3.2768190405e+000,3.7628753532e+000,2.9957944020e+000,3.8010190854e+000,2.7989032852e+000,3.6498881290e+000,2.5346862148e+000,3.8569462721e+000,2.7485924422e+000,3.4804346687e+000,
7.5000000000e+000,3.7838093834e+000,3.6316581117e+000,3.2346237042e+000,3.4217949529e+000,3.3205586225e+000,3.7749016512e+000,3.1176951676e+000,3.8578912220e+000,2.8299807881e+000,3.6147873098e+000,2.5460801959e+000,3.7917235698e+000,2.7313574097e+000,3.4867839189e+000,
7.5937500000e+000,3.7735312150e+000,3.6361695734e+000,3.2764215010e+000,3.4261985456e+000,3.3157226712e+000,3.7721676091e+000,3.1206422670e+000,3.9035088673e+000,2.8189663800e+000,3.6115100804e+000,2.5415859891e+000,3.8442612038e+000,2.7384364286e+000,3.4331738466e+000,
7.6875000000e+000,3.7560697156e+000,3.5963463669e+000,3.2589695454e+000,3.3758384805e+000,3.3406726907e+000,3.7873732363e+000,3.2010508399e+000,3.9169650020e+000,2.8107784280e+000,3.6029775290e+000,2.6004725682e+000,3.7843786966e+000,2.7471810480e+000,3.3696659291e+000,
7.7812500000e+000,3.7312647248e+000,3.5973171481e+000,3.3172979961e+000,3.3718522468e+000,3.3736297502e+000,3.7131351786e+000,3.2197109177e+000,3.8030103371e+000,2.8205569792e+000,3.5070344013e+000,2.6356692644e+000,4.1290426118e+000,2.7311547680e+000,3.2776110374e+000,
7.8750000000e+000,3.7043236511e+000,3.6062966356e+000,3.3247443580e+000,3.3227134815e+000,3.3822819186e+000,3.6555221434e+000,3.2908040604e+000,3.8095472490e+000,2.8899237640e+000,3.4269093594e+000,2.5514406545e+000,4.1286583709e+000,2.6880805375e+000,3.1466907757e+000,
7.9687500000e+000,3.7081703019e+000,3.5973943788e+000,3.3340156128e+000,3.2950903480e+000,3.4510338942e+000,3.6697729044e+000,3.3321242668e+000,3.7683068907e+000,2.9365488051e+000,3.4257505671e+000,2.6375373267e+000,4.0829386753e+000,2.7291602320e+000,3.0909727860e+000,
8.0625000000e+000,3.5729540635e+000,3.4417774869e+000,3.0980819384e+000,3.0657951272e+000,3.3133229323e+000,3.4915976998e+000,3.1281158459e+000,3.6379239609e+000,2.8745402853e+000,3.3831536893e+000,2.5806665000e+000,4.0156163181e+000,2.7388931077e+000,3.0321750779e+000,
8.1562500000e+000,3.5896013907e+000,3.3525244215e+000,3.0931567999e+000,2.9868699619e+000,3.2188095574e+000,3.3215735294e+000,3.0500738904e+000,3.5366534665e+000,2.8561578343e+000,3.2360062159e+000,2.5101568381e+000,3.9961935502e+000,2.7222765373e+000,2.9884317325e+000,
8.2500000000e+000,3.4610648786e+000,3.3468634319e+000,2.9012892468e+000,3.0289560284e+000,3.0562559462e+000,3.2486043252e+000,3.1238046193e+000,3.4884133552e+000,2.7840025007e+000,3.1581775065e+000,2.4924870659e+000,3.8645360853e+000,2.8096256694e+000,2.9579604053e+000,
8.3437500000e+000,3.2966092913e+000,3.3591080854e+000,2.7870978773e+000,3.0334439477e+000,2.9630151710e+000,3.1724469442e+000,2.9918332081e+000,3.4740142643e+000,2.4935519360e+000,3.1173115721e+000,2.5878329781e+000,3.8271980542e+000,2.7794160491e+000,2.9343154303e+000,
8.4375000000e+000,3.2906191452e+000,3.4416674438e+000,2.8484104166e+000,3.0976721001e+000,2.9576476656e+000,3.3152975953e+000,2.9369090754e+000,3.4456587832e+000,2.4168900545e+000,3.1792206233e+000,2.5515488297e+000,3.8969945215e+000,2.7756438154e+000,2.9894073803e+000,
8.5312500000e+000,3.2729951481e+000,3.4343925802e+000,2.8323623837e+000,3.0258810489e+000,2.9478367850e+000,3.3579175628e+000,2.8550274182e+000,3.5685729955e+000,2.5357440967e+000,3.1588351255e+000,2.6580858447e+000,3.9805023402e+000,2.8496856309e+000,2.9715038856e+000,
8.6250000000e+000,3.2795426684e+000,3.5390163754e+000,2.8032552237e+000,3.0953317937e+000,2.9156918931e+000,3.4000985394e+000,2.8328197231e+000,3.4618312809e+000,2.9402222839e+000,3.2449835942e+000,2.7533789733e+000,4.0573047259e+000,2.9897986610e+000,3.0868590261e+000,
8.7187500000e+000,3.3011687251e+000,3.4685555762e+000,2.8198782702e+000,3.1351157831e+000,2.8891715961e+000,3.3952112703e+000,2.7809427886e+000,3.4579951428e+000,2.9202139111e+000,3.2897240310e+000,2.7582347330e+000,4.0655419247e+000,3.0944201687e+000,3.0545268283e+000,
8.8125000000e+000,3.3168549928e+000,3.4508180213e+000,2.7376100108e+000,3.1285719341e+000,3.0150757756e+000,3.4408085652e+000,2.9603602725e+000,3.5932561815e+000,3.0161361081e+000,3.3618292115e+000,2.7909294347e+000,3.7850693522e+000,3.1493310348e+000,3.1433671472e+000,
8.9062500000e+000,3.2662551938e+000,3.4731702285e+000,2.6832456919e+000,3.2953368864e+000,2.9639331312e+000,3.4646062604e+000,2.8810711587e+000,3.5785627289e+000,3.0291670198e+000,3.3013474023e+000,2.6393699601e+000,3.7077803355e+000,3.0672710603e+000,3.0277926058e+000,
9.0000000000e+000,3.3199364972e+000,3.4773379497e+000,2.6237629259e+000,3.2289220270e+000,2.9252101724e+000,3.4460986008e+000,2.8432349353e+000,3.6140036893e+000,3.0599221921e+000,3.3303482300e+000,2.7405935462e+000,3.8796055052e+000,3.0719074468e+000,3.2070584289e+000,
9.0937500000e+000,3.2983226336e+000,3.4721550246e+000,2.7184967446e+000,3.2903985752e+000,2.8689456054e+000,3.4117091021e+000,2.8607632053e+000,3.5903296697e+000,3.0549435627e+000,3.3357395281e+000,2.7488698369e+000,3.8616477557e+000,3.0004504829e+000,3.1732472895e+000,
9.1875000000e+000,3.1819108918e+000,3.3579184372e+000,2.6564415015e+000,3.2248703457e+000,2.8302912799e+000,3.3118224599e+000,2.7884688406e+000,3.5003135538e+000,3.0669194246e+000,3.3275259000e+000,2.6998923746e+000,3.8223501539e+000,2.8808369914e+000,3.1187315507e+000,
9.2812500000e+000,3.0158582379e+000,3.1974061806e+000,2.5816712904e+000,3.1004266891e+000,2.7996390076e+000,3.3312207804e+000,2.6199994025e+000,3.4850375886e+000,3.0373471995e+000,3.2564619332e+000,2.6871916839e+000,3.7829366833e+000,2.8124597305e+000,3.0836428564e+000,
9.3750000000e+000,3.0344681880e+000,3.0998869562e+000,2.6393372308e+000,3.0853950093e+000,2.8097113786e+000,3.3269200767e+000,2.6334630793e+000,3.5858903844e+000,3.0401495250e+000,3.2002398150e+000,2.6566888334e+000,3.8423885440e+000,2.8163489687e+000,3.1832087293e+000,
9.4687500000e+000,2.9647012096e+000,2.9935982971e+000,2.5443990102e+000,3.0265564270e+000,2.7588568393e+000,3.1299475181e+000,2.6476000574e+000,3.3863516148e+000,3.0000296130e+000,3.1939304581e+000,2.6311507459e+000,3.7500356258e+000,2.9339738164e+000,3.2370304538e+000,
9.5625000000e+000,3.0443488506e+000,2.8453071001e+000,2.5966973271e+000,2.9623385492e+000,2.7327218157e+000,3.0575411706e+000,2.6546878070e+000,3.3085180495e+000,2.7137327491e+000,3.1838172738e+000,2.5598511924e+000,3.6649710294e+000,2.9260642040e+000,3.2033725777e+000,
9.6562500000e+000,3.2378456005e+000,2.9247112133e+000,2.8150049056e+000,3.0311117246e+000,2.9225027106e+000,3.0632209019e+000,2.9052310812e+000,3.3495496586e+000,2.5890863296e+000,3.2169453340e+000,2.5660827178e+000,3.5776017645e+000,2.9970960086e+000,3.3228674967e+000,
9.7500000000e+000,3.1638914044e+000,2.9158069836e+000,2.8256218165e+000,2.9724498093e+000,2.8619823038e+000,2.9913193334e+000,2.8418052586e+000,3.2162885941e+000,2.5869586811e+000,3.2433114830e+000,2.5064975244e+000,3.5623251734e+000,2.9882849627e+000,3.3088064948e+000,
9.8437500000e+000,3.1128419505e+000,2.9000469481e+000,2.8585566773e+000,2.9988489801e+000,2.6787119618e+000,2.9653158162e+000,2.7030475101e+000,3.0953048152e+000,2.4707237966e+000,3.2101237753e+000,2.5142272201e+000,3.5662358485e+000,2.9663107985e+000,3.4507146239e+000,
9.9375000000e+000,3.2019968711e+000,2.9513514501e+000,2.9199374926e+000,3.0282572328e+000,2.7497759787e+000,3.0043857618e+000,2.7523034860e+000,3.1002401118e+000,2.4553558241e+000,3.3034875634e+000,2.5125121061e+000,3.5136484240e+000,2.9632429816e+000,3.5516059327e+000,
1.0031250000e+001,3.1456240522e+000,3.0011046204e+000,2.9773514320e+000,3.1717930607e+000,2.7510806410e+000,3.1944954145e+000,2.8599458439e+000,3.2966846235e+000,2.4723150568e+000,3.4465355050e+000,2.5293493031e+000,3.5525805296e+000,2.9910400039e+000,3.5198812387e+000,
1.0125000000e+001,3.2368765562e+000,3.0817013891e+000,3.0779884667e+000,3.1826588001e+000,3.0408771021e+000,3.4239531345e+000,2.9688680222e+000,3.4853838426e+000,2.3927420966e+000,3.9425782303e+000,2.6449234241e+000,3.8779218018e+000,3.0273610268e+000,3.5747861852e+000,
1.0218750000e+001,3.2688888533e+000,3.1530305546e+000,3.0564637119e+000,3.1717715650e+000,3.0579063081e+000,3.4610049112e+000,2.9747889730e+000,3.5386571556e+000,2.5112954812e+000,3.9515564068e+000,2.6265226967e+000,3.8922342654e+000,2.9970997610e+000,3.5777088945e+000,
1.0312500000e+001,3.3807401121e+000,3.2374927022e+000,3.0749620488e+000,3.2091509012e+000,3.0851373999e+000,3.4446356418e+000,2.9939003656e+000,3.6419562959e+000,2.8155821908e+000,4.0215889424e+000,2.6013552382e+000,4.0512567049e+000,3.0266168058e+000,3.5973268937e+000,
1.0406250000e+001,3.4762910607e+000,3.3718981114e+000,3.1432055696e+000,3.2778548137e+000,3.1215030612e+000,3.6230554024e+000,3.0942878840e+000,3.7552225127e+000,2.9150652048e+000,4.1141685394e+000,2.5164947541e+000,4.0779373273e+000,3.1467337288e+000,3.6255604078e+000,
1.0500000000e+001,3.5354581521e+000,3.4919736578e+000,3.1935865249e+000,3.3588292040e+000,3.2161835412e+000,3.7600133970e+000,3.1700407259e+000,3.8679072983e+000,2.9938126011e+000,4.1625030125e+000,2.4730562510e+000,4.0900980912e+000,3.0917473682e+000,3.6720395380e+000,
1.0593750000e+001,3.4361061988e+000,3.4973727469e+000,3.1196179844e+000,3.3616104194e+000,3.1672614160e+000,3.7478915875e+000,3.0724579521e+000,3.9823804959e+000,2.9825632379e+000,4.1190765287e+000,2.4534502029e+000,4.0877601452e+000,2.9881502123e+000,3.6408935508e+000,
1.0687500000e+001,3.3528136764e+000,3.5269265725e+000,3.1250892867e+000,3.3712245312e+000,3.1387499353e+000,3.7350582510e+000,3.0752497501e+000,3.9862954095e+000,3.0081424585e+000,4.0798085528e+000,2.5712181570e+000,4.0974933166e+000,2.9664889047e+000,3.6709283382e+000,
1.0781250000e+001,3.3911534111e+000,3.5299910378e+000,3.1612076425e+000,3.4704877476e+000,3.1294238676e+000,3.7880119040e+000,3.1198065947e+000,3.9902606517e+000,3.0437072184e+000,4.1113606081e+000,2.5733174652e+000,4.1122270336e+000,3.0196018304e+000,3.6785659241e+000,
1.0875000000e+001,3.4949729910e+000,3.5338726407e+000,3.1840264421e+000,3.5160828715e+000,3.2345322312e+000,3.8477821890e+000,3.0900445630e+000,4.0060337280e+000,3.1022267353e+000,4.1901170856e+000,2.7320825458e+000,4.1058860733e+000,3.0267535832e+000,3.5427794985e+000,
1.0968750000e+001,3.3716258728e+000,3.5166026901e+000,3.1324640279e+000,3.4166818232e+000,3.2095666501e+000,3.7725436202e+000,3.1479428662e+000,3.8964962772e+000,3.1122018714e+000,4.1376662720e+000,2.7567278291e+000,4.0286060306e+000,3.0758508814e+000,3.4821958978e+000,
1.1062500000e+001,3.3664309915e+000,3.5030673144e+000,3.1127765486e+000,3.4063673869e+000,3.1687719915e+000,3.7332166232e+000,3.0541258249e+000,3.8737477486e+000,3.0564631266e+000,4.0595603075e+000,2.6152287297e+000,3.9727993984e+000,3.0469525042e+000,3.4674399684e+000,
1.1156250000e+001,3.2782141855e+000,3.3940451923e+000,2.9575269148e+000,3.3151646058e+000,2.9129094043e+000,3.5973290629e+000,2.9168986655e+000,3.7650338146e+000,3.0474732663e+000,3.6434808698e+000,2.6632112334e+000,3.7969551863e+000,3.0809635677e+000,3.4715652952e+000,
1.1250000000e+001,3.4035350729e+000,3.4099159678e+000,3.0091719134e+000,3.3762022996e+000,2.9497981065e+000,3.6133199817e+000,2.8579719308e+000,3.7602745263e+000,2.8908430038e+000,3.7311389947e+000,2.7882978475e+000,3.8581775281e+000,3.1925435244e+000,3.4141903749e+000,
1.1343750000e+001,3.4217939024e+000,3.4008742674e+000,2.9805077650e+000,3.4147079212e+000,2.9378070157e+000,3.5624963448e+000,2.7821961274e+000,3.6038526552e+000,2.9654751515e+000,3.6873831999e+000,2.8169444509e+000,3.6883635610e+000,3.2268150936e+000,3.5317758782e+000,
1.1437500000e+001,3.7699766808e+000,3.4621498293e+000,3.0509952465e+000,3.3738145957e+000,3.1637758530e+000,3.3971823579e+000,2.9983538663e+000,3.5579075283e+000,3.0462284432e+000,3.6337700723e+000,2.9595457049e+000,3.7310276089e+000,3.2195508913e+000,3.5001948587e+000,
1.1531250000e+001,3.8191673314e+000,3.4451668550e+000,3.0952420427e+000,3.3788168890e+000,3.1797981572e+000,3.2583344356e+000,3.0213659719e+000,3.4028860414e+000,3.0281488006e+000,3.5566236523e+000,3.0001605730e+000,3.8341726846e+000,3.2603748480e+000,3.4990240250e+000,
1.1625000000e+001,3.8073521536e+000,3.4137091642e+000,3.1329777325e+000,3.3981290070e+000,3.2137711793e+000,3.4962782250e+000,3.0992970470e+000,3.4785982051e+000,2.9659555704e+000,3.6430463828e+000,3.0494017340e+000,3.9489186166e+000,3.1884571670e+000,3.6005708681e+000,
1.1718750000e+001,3.8076659089e+000,3.4255846250e+000,3.1140634672e+000,3.3263510258e+000,3.2154708816e+000,3.4777266778e+000,3.0180388860e+000,3.5151358908e+000,2.8815984974e+000,3.6454291426e+000,2.9948916241e+000,3.8704213433e+000,3.1824614136e+000,3.4140791346e+000,
1.1812500000e+001,3.7851530677e+000,3.4496368217e+000,3.0819028666e+000,3.2547075474e+000,3.1746872138e+000,3.4298861152e+000,2.9972697570e+000,3.5362102300e+000,2.8997781038e+000,3.6111925382e+000,2.9138186389e+000,3.9318650471e+000,3.2036887248e+000,3.6561743325e+000,
1.1906250000e+001,3.7620337519e+000,3.4082481406e+000,3.1366550694e+000,3.2172665498e+000,3.1137936667e+000,3.3956015774e+000,2.9853079309e+000,3.5388561817e+000,2.7736972899e+000,3.5462134557e+000,2.9044557076e+000,3.9914400469e+000,3.1855033669e+000,3.8004979097e+000,
1.2000000000e+001,3.7738376015e+000,3.3179384192e+000,3.0884640502e+000,3.1571054879e+000,3.1021965129e+000,3.3846945348e+000,2.9589044721e+000,3.6010181107e+000,2.7742939236e+000,3.5554082785e+000,2.9983721661e+000,4.0910112643e+000,3.2670833603e+000,4.1145278919e+000,
1.2093750000e+001,3.9063097455e+000,3.4751916901e+000,3.2750493772e+000,3.3619117286e+000,3.1436747088e+000,3.4602344975e+000,3.1046559411e+000,3.6136027381e+000,2.7963052771e+000,3.6013433257e+000,3.0383378158e+000,4.1156723378e+000,3.2762518500e+000,4.1810305861e+000,
1.2187500000e+001,3.8911044201e+000,3.5375744129e+000,3.2954007995e+000,3.4151313568e+000,3.0756193124e+000,3.4607136563e+000,3.1507504140e+000,3.5605565507e+000,2.7386628517e+000,3.5258896402e+000,2.9736091021e+000,4.0505610587e+000,3.2891827337e+000,4.1961345408e+000,
1.2281250000e+001,3.7654459744e+000,3.4830152663e+000,3.3027232448e+000,3.3461997674e+000,3.1359577778e+000,3.4178575030e+000,3.2699698321e+000,3.5773472291e+000,2.6183893249e+000,3.4755209464e+000,2.9984708036e+000,4.0751709841e+000,3.1873068687e+000,4.1971492199e+000,
1.2375000000e+001,3.5504858763e+000,3.3744293100e+000,3.2133235729e+000,3.3438745379e+000,2.9991530162e+000,3.4055863934e+000,3.1513811759e+000,3.6613986355e+000,2.3654250378e+000,3.3632186240e+000,2.9394451414e+000,3.9822660550e+000,3.0218130173e+000,4.1227670471e+000,
1.2468750000e+001,3.1870856151e+000,3.2527207442e+000,3.1208186961e+000,3.2856093402e+000,2.7497240924e+000,3.4050361369e+000,3.0621183034e+000,3.6426313568e+000,2.2589084250e+000,3.3424527105e+000,2.8504884096e+000,3.9453887887e+000,2.8073686123e+000,4.1555515657e+000,
1.2562500000e+001,3.1604646860e+000,3.2410258956e+000,3.1438364737e+000,3.2821566895e+000,2.7454472110e+000,3.2946679141e+000,3.0830780518e+000,3.5709080695e+000,2.2924578245e+000,3.3174359557e+000,2.8075357460e+000,3.8517519478e+000,2.8284097254e+000,4.1579772976e+000,
1.2656250000e+001,3.1361646476e+000,3.3296015817e+000,3.0597075180e+000,3.3932324510e+000,2.6046178849e+000,3.2284448506e+000,2.9999024237e+000,3.4096671629e+000,2.3218722781e+000,3.3600063015e+000,2.7426707025e+000,3.7982959834e+000,2.7472704850e+000,4.1108657195e+000,
1.2750000000e+001,3.1738420317e+000,3.2694324664e+000,3.0633557359e+000,3.4395717664e+000,2.5793230749e+000,3.2148705044e+000,2.9852914716e+000,3.4962056736e+000,2.3266898057e+000,3.3425105120e+000,2.7853428000e+000,3.7845586490e+000,2.6318997711e+000,4.0773778301e+000,
1.2843750000e+001,3.1780430585e+000,3.2913447260e+000,3.0608998206e+000,3.3617729696e+000,2.5713573527e+000,3.2352013805e+000,2.9488286786e+000,3.5492523172e+000,2.4902670460e+000,3.3025377349e+000,2.7706355652e+000,3.6666843189e+000,2.5857585755e+000,3.9280505452e+000,
1.2937500000e+001,3.1022019237e+000,3.2811055683e+000,3.0692446237e+000,3.3489558681e+000,2.5861746242e+000,3.1847275468e+000,2.8800568736e+000,3.5664334389e+000,2.5166797644e+000,3.2122277355e+000,2.7387455226e+000,3.6048388208e+000,2.5532075150e+000,3.7689363276e+000,
1.3031250000e+001,2.9998514890e+000,3.2655779641e+000,3.0920097400e+000,3.2906814098e+000,2.6153405480e+000,3.1844403544e+000,2.7605394211e+000,3.5379540874e+000,2.4540549277e+000,3.0915728929e+000,2.6176325971e+000,3.4382337620e+000,2.4111462466e+000,3.3928926727e+000,
1.3125000000e+001,2.8627849140e+000,3.1766295835e+000,2.9628547780e+000,3.1556935360e+000,2.7350338142e+000,3.2357132368e+000,2.8397526336e+000,3.5108837086e+000,2.4097207977e+000,3.0965136193e+000,2.6674578929e+000,3.5012931803e+000,2.3243795972e+000,3.2056524234e+000,
1.3218750000e+001,3.0382572967e+000,3.2259759207e+000,3.0034221474e+000,3.2185203311e+000,2.7254132155e+000,3.3444465329e+000,2.8098606919e+000,3.4078355201e+000,2.3761030270e+000,3.0356873469e+000,2.5394035781e+000,3.3950508382e+000,2.1585447051e+000,3.1096780579e+000,
1.3312500000e+001,3.1797297046e+000,3.3573009038e+000,3.0617359852e+000,3.2277305085e+000,2.7735085920e+000,3.4609686813e+000,2.7552022260e+000,3.4339033319e+000,2.4491828553e+000,3.1893928293e+000,2.5477488598e+000,3.3508291663e+000,2.1509298258e+000,3.1152174639e+000,
1.3406250000e+001,3.2038076235e+000,3.3944569024e+000,3.0636106170e+000,3.2131252414e+000,2.7728456641e+000,3.4544941806e+000,2.7987868888e+000,3.4952819600e+000,2.4962456833e+000,3.0801873029e+000,2.5740095586e+000,3.4349400161e+000,2.3089244044e+000,3.3847366459e+000,
1.3500000000e+001,3.1504281312e+000,3.4371401383e+000,3.0167964775e+000,3.2107132593e+000,2.6948918883e+000,3.4907704850e+000,2.7439176416e+000,3.5251406188e+000,2.4457057394e+000,3.1445857079e+000,2.5258667225e+000,3.4191484080e+000,2.3526377627e+000,3.4277461391e+000,
1.3593750000e+001,3.1522644964e+000,3.3844984629e+000,3.0256121519e+000,3.1753558882e+000,2.5967805288e+000,3.4957157886e+000,2.6377989099e+000,3.6000309160e+000,2.3931027417e+000,3.1764636744e+000,2.5372487767e+000,3.3410818527e+000,2.3391848969e+000,3.2717339325e+000,
1.3687500000e+001,3.1923704432e+000,3.4092228637e+000,3.1046927003e+000,3.6781511306e+000,2.6479674302e+000,3.5281298459e+000,2.7471716452e+000,3.6678584919e+000,2.3983393426e+000,3.0882177065e+000,2.4111580877e+000,3.4268170342e+000,2.4531131890e+000,3.3035255261e+000,
1.3781250000e+001,3.2145151142e+000,5.0070466737e+000,3.1257547794e+000,1.0668091367e+001,2.6393242878e+000,3.5769289652e+000,2.8245196617e+000,5.0248433028e+000,2.4384652979e+000,3.1022970783e+000,2.4117441473e+000,3.4175771527e+000,2.5657317760e+000,3.3805320847e+000,
1.3875000000e+001,3.3353715985e+000,5.3018757534e+000,3.1799288409e+000,1.0904397596e+001,2.7104573360e+000,3.5675384960e+000,2.8710316140e+000,5.1997694758e+000,2.7106732187e+000,3.0329265146e+000,2.3789841140e+000,3.4509817935e+000,2.6251130783e+000,3.4461446054e+000,
1.3968750000e+001,3.3288756333e+000,5.2971496866e+000,3.1462423651e+000,1.0910197369e+001,2.7274317953e+000,3.5079995073e+000,2.9120807902e+000,5.2030078388e+000,2.7295235892e+000,3.1306540021e+000,2.3601314862e+000,3.5818009969e+000,2.5370107609e+000,3.4712519366e+000,
1.4062500000e+001,3.4441568446e+000,5.2969306780e+000,3.2022198007e+000,1.0910347442e+001,2.7499823794e+000,3.4462865806e+000,2.9570842890e+000,5.2134118089e+000,2.7213288672e+000,3.1045877145e+000,2.3493921987e+000,3.4343398554e+000,2.5813066242e+000,3.4882321478e+000,
1.4156250000e+001,3.5371412468e+000,5.2906631030e+000,3.2638310863e+000,1.0910277510e+001,2.6757586012e+000,3.3596016447e+000,2.7724500219e+000,5.2302573835e+000,2.7402004516e+000,3.1511717414e+000,2.3633007741e+000,3.4273028381e+000,2.6444043913e+000,3.4644034168e+000,
1.4250000000e+001,3.4026929437e+000,5.2767410267e+000,3.2238076460e+000,1.0910240267e+001,2.6471624969e+000,3.3816934621e+000,2.6340966837e+000,5.2409801233e+000,2.7446783217e+000,3.1808106806e+000,2.3081394234e+000,3.4826504640e+000,2.6201510674e+000,3.5127701304e+000,
1.4343750000e+001,3.3364432259e+000,5.2672451559e+000,3.1686674033e+000,1.0910231968e+001,2.6289183372e+000,3.3774452718e+000,2.6954682059e+000,5.2197354706e+000,2.7220401253e+000,3.1125797037e+000,2.3068084241e+000,3.4357509572e+000,2.5669398595e+000,3.4601349888e+000,
1.4437500000e+001,3.4371268666e+000,5.2617365762e+000,3.3018498073e+000,1.0910213162e+001,2.7376416457e+000,3.4113980413e+000,2.7976526750e+000,5.2119932011e+000,2.7037390931e+000,3.1375050505e+000,2.2791065547e+000,3.4550201786e+000,2.4784588101e+000,3.3405157051e+000,
1.4531250000e+001,3.4911522408e+000,5.2678215568e+000,3.3718388958e+000,1.0910370606e+001,2.7620956232e+000,3.3390704521e+000,2.8396246438e+000,5.2482035091e+000,2.6264323534e+000,3.1039482235e+000,2.2689993218e+000,3.5108299085e+000,2.5317869380e+000,3.4046053226e+000,
1.4625000000e+001,3.4820956783e+000,5.2563021065e+000,3.2992645130e+000,1.0910449333e+001,2.7552699993e+000,3.2837122252e+000,2.7189500450e+000,5.2613097858e+000,2.6389368146e+000,3.0657990376e+000,2.2125611036e+000,3.4667489225e+000,2.5182229041e+000,3.4749822990e+000,
1.4718750000e+001,3.4492734159e+000,5.2360484137e+000,3.2441777734e+000,1.0803731209e+001,2.7545390040e+000,3.2815432882e+000,2.7492410321e+000,5.2940947459e+000,2.6625918753e+000,2.9845639890e+000,2.2935499504e+000,3.4498922594e+000,2.3775614979e+000,3.4827650570e+000,
1.4812500000e+001,3.3773490187e+000,3.6036953151e+000,3.2052191748e+000,7.9220831028e+000,2.7979524808e+000,3.2626173783e+000,2.6675696360e+000,4.2600756529e+000,2.3112539105e+000,3.1329301704e+000,2.2815777190e+000,3.5124957231e+000,2.2716754486e+000,3.5284223967e+000,
1.4906250000e+001,3.2440804999e+000,3.1724417297e+000,3.2098543775e+000,5.7922832597e+000,2.6610733530e+000,3.1867829126e+000,2.7489099118e+000,4.0886609457e+000,1.8483666723e+000,3.1318569578e+000,2.1688989332e+000,3.5389538528e+000,2.1993328336e+000,3.5587932207e+000,
1.5000000000e+001,3.3173130378e+000,3.2136678398e+000,3.2253164140e+000,5.3347883883e+000,2.5958290138e+000,3.2654494672e+000,2.7387645735e+000,4.0862967496e+000,1.9841637965e+000,3.1871016892e+000,2.1881468576e+000,3.4560234785e+000,2.0277209964e+000,3.6696123798e+000,
1.5093750000e+001,3.1339749898e+000,3.1663801385e+000,3.1510459518e+000,5.3295857954e+000,2.6348520194e+000,3.2591138431e+000,2.7442298933e+000,4.1140432231e+000,2.0742426102e+000,3.1732768633e+000,2.2464053859e+000,3.4437477784e+000,1.8812803126e+000,3.6474380682e+000,
1.5187500000e+001,2.9432521596e+000,3.0833551289e+000,3.0667283012e+000,5.3378349055e+000,2.5930688884e+000,3.1698810328e+000,2.7981424017e+000,4.0185164336e+000,2.3364556814e+000,3.1270949551e+000,2.1961492702e+000,3.4683738435e+000,1.8611625867e+000,3.6314801771e+000,
1.5281250000e+001,2.8857727291e+000,3.0973169587e+000,2.9898240124e+000,5.3337999322e+000,2.4800965604e+000,3.0399783238e+000,2.7019620221e+000,4.0348346576e+000,2.4168062820e+000,3.0846601883e+000,2.2029278211e+000,3.4012737283e+000,2.0032018029e+000,3.6028213310e+000,
1.5375000000e+001,2.7699746860e+000,3.0109469846e+000,2.8867207170e+000,5.3373918074e+000,2.3535015668e+000,2.9661307265e+000,2.6008857542e+000,4.0282257035e+000,2.3663231439e+000,3.1470024737e+000,2.2673644599e+000,3.4207080558e+000,2.0149426705e+000,3.6442634581e+000,
1.5468750000e+001,2.6718148280e+000,3.1184256210e+000,2.8759297598e+000,5.3434853727e+000,2.4571509289e+000,2.9818621712e+000,2.6525473030e+000,4.0572034159e+000,2.4316630383e+000,3.1660474932e+000,2.3072388803e+000,3.3731115298e+000,2.0258558869e+000,3.5432264420e+000,
1.5562500000e+001,2.5313450273e+000,3.0713209989e+000,2.8179393328e+000,5.2938175038e+000,2.4672621532e+000,2.9968951812e+000,2.5662943395e+000,3.9677091431e+000,2.4044006772e+000,3.1360932056e+000,2.3453933510e+000,3.2920726759e+000,1.8580498521e+000,3.3675133640e+000,
1.5656250000e+001,2.4620190806e+000,2.9831485022e+000,2.8317300265e+000,5.2680951478e+000,2.4547244998e+000,2.9714399498e+000,2.5690931247e+000,3.8842470302e+000,2.4285432480e+000,3.1168575321e+000,2.4416895381e+000,3.2809897026e+000,2.0415251388e+000,3.3366615168e+000,
1.5750000000e+001,2.3785387755e+000,2.8826706722e+000,2.7873236970e+000,4.8648294889e+000,2.4045809369e+000,2.9104739686e+000,2.6484193612e+000,3.6875641087e+000,2.4279336601e+000,3.1459752019e+000,2.4409745410e+000,3.1864485130e+000,2.0560231929e+000,3.3253160680e+000,
1.5843750000e+001,2.5702347940e+000,3.2709147013e+000,2.8850305314e+000,9.0435101070e+000,2.5770133544e+000,3.0543623123e+000,2.7675669516e+000,3.5864725095e+000,2.4672120715e+000,3.0661537420e+000,2.4654668512e+000,3.1558885989e+000,2.0403502407e+000,3.3041902135e+000,
1.5937500000e+001,2.7229431738e+000,5.0339149004e+000,2.9607721961e+000,1.1594540812e+001,2.6830617610e+000,3.1121639568e+000,2.6444647114e+000,4.8584787350e+000,2.6736306511e+000,3.0460225864e+000,2.5314766956e+000,3.1042176724e+000,2.1412482245e+000,3.1177464451e+000,
1.6031250000e+001,2.6857768833e+000,5.4798873330e+000,2.8274894724e+000,1.1931076810e+001,2.7286016437e+000,3.0803122321e+000,2.6777074225e+000,5.2611294292e+000,2.7888795567e+000,3.0796969002e+000,2.5907861102e+000,3.1187762861e+000,2.1440185439e+000,3.0311495706e+000,
1.6125000000e+001,2.7753418613e+000,5.5213122293e+000,2.7940689792e+000,1.1946783700e+001,2.7049158717e+000,3.1669823963e+000,2.6929363104e+000,5.2828021836e+000,2.7481344126e+000,3.0914903921e+000,2.6039694524e+000,3.2052721189e+000,2.1685749514e+000,3.1110943977e+000,
1.6218750000e+001,2.9045461316e+000,5.5259061597e+000,2.9002080464e+000,1.1947351910e+001,2.8396621535e+000,3.1899987196e+000,2.7786644625e+000,5.2817634984e+000,2.5960841666e+000,3.1442617896e+000,2.6334329654e+000,3.1632184126e+000,2.1382263669e+000,3.1361103985e+000,
1.6312500000e+001,2.9495110567e+000,5.5283503376e+000,2.9551968477e+000,1.1947353120e+001,2.8540212901e+000,3.2300918421e+000,2.7699690282e+000,5.2882613137e+000,2.5366517205e+000,3.2349991127e+000,2.6155635186e+000,3.1760448220e+000,2.1628662915e+000,3.0735400486e+000,
1.6406250000e+001,3.1732845036e+000,5.5355160564e+000,2.9376482334e+000,1.1947341831e+001,2.8518033930e+000,3.2232853995e+000,2.6533453228e+000,5.2934775530e+000,2.4610511087e+000,3.2283586114e+000,2.5554192625e+000,3.3099597525e+000,2.1449059175e+000,3.0429920224e+000,
1.6500000000e+001,3.2164510758e+000,5.5253806099e+000,2.9054486046e+000,1.1947320786e+001,2.7505996550e+000,3.1888460782e+000,2.6543804347e+000,5.2633259235e+000,2.4182427646e+000,3.2490528844e+000,2.5065274283e+000,3.3367065100e+000,2.2332715920e+000,2.9684540180e+000,
1.6593750000e+001,3.2960851318e+000,5.5353719687e+000,3.0502691244e+000,1.1947315466e+001,2.8802888621e+000,3.2847624096e+000,2.6064336170e+000,5.2456340993e+000,2.4563479514e+000,3.3576339471e+000,2.4857515669e+000,3.4397855925e+000,2.2998096105e+000,3.1050476851e+000,
1.6687500000e+001,3.2984922250e+000,5.5409805662e+000,3.1391569735e+000,1.1947307954e+001,3.0362515576e+000,3.2652882885e+000,2.5767053661e+000,5.2440254726e+000,2.4745492156e+000,3.2992612936e+000,2.3396898824e+000,3.3943574380e+000,2.1619479107e+000,3.0660732979e+000,
1.6781250000e+001,3.2887189901e+000,5.5380932543e+000,3.0612678231e+000,1.1947245953e+001,2.9452669229e+000,3.2341204975e+000,2.3620209151e+000,5.2519021042e+000,2.4647009917e+000,3.2778243677e+000,2.3871972832e+000,3.3696172210e+000,2.1611776551e+000,2.9161939118e+000,
1.6875000000e+001,3.3259629052e+000,5.4938280036e+000,3.0832561054e+000,1.1865801556e+001,2.8940135572e+000,3.2056766362e+000,2.4054912000e+000,5.2414716969e+000,2.3506735784e+000,3.3194970217e+000,2.4096172349e+000,3.4506850571e+000,2.1187333226e+000,2.7725659187e+000,
1.6968750000e+001,3.2246503930e+000,4.2248310683e+000,3.1090262512e+000,9.8457627405e+000,2.7935885847e+000,3.1882973110e+000,2.4646397529e+000,4.0856783564e+000,2.2808741846e+000,3.3572076316e+000,2.4642774763e+000,3.4045691155e+000,2.0129223217e+000,2.8140578755e+000,
1.7062500000e+001,3.1886126056e+000,3.4224228019e+000,3.2134219024e+000,6.7642923843e+000,2.9289275752e+000,3.3123537387e+000,2.6223785829e+000,3.5093903916e+000,2.1973702356e+000,3.3672006423e+000,2.4739280610e+000,3.4306123469e+000,2.0086881439e+000,2.7881336284e+000,
1.7156250000e+001,3.1786145339e+000,3.2284427239e+000,3.2543746726e+000,2.7574369736e+000,2.8534821530e+000,3.1843745206e+000,2.5755558622e+000,3.3984125974e+000,2.1977992298e+000,3.2709156307e+000,2.3039140695e+000,3.3448710676e+000,2.3419995585e+000,2.7553970157e+000,
1.7250000000e+001,3.2335267113e+000,3.2626678067e+000,3.2761304120e+000,6.2757330970e-001,2.8516452875e+000,3.1580703232e+000,2.6484787397e+000,3.3515151766e+000,2.1474833425e+000,3.2295767336e+000,2.3328176068e+000,3.3363275075e+000,2.3043234881e+000,2.7424552982e+000,
1.7343750000e+001,3.1718164589e+000,3.1998654323e+000,3.2193313871e+000,1.3032994341e-002,2.8305173319e+000,3.1306925204e+000,2.6492296747e+000,3.4303582276e+000,2.1471726090e+000,3.0910539020e+000,2.3206528199e+000,3.2070296282e+000,2.2546712108e+000,2.7230413975e+000,
1.7437500000e+001,3.0052379533e+000,3.1738850242e+000,3.2063769189e+000,5.6908457905e-004,2.8101585142e+000,3.1650350408e+000,2.6416609450e+000,3.5269336330e+000,2.1985837668e+000,3.1427100834e+000,2.4590411581e+000,3.1872225206e+000,2.1447088597e+000,2.8558032087e+000,
1.7531250000e+001,2.9427022163e+000,3.2083316791e+000,3.2076582476e+000,1.8090143840e-005,2.8253071423e+000,3.2836327633e+000,2.6652304890e+000,3.5801989327e+000,2.2205848722e+000,3.2115177349e+000,2.5840474822e+000,3.1678783709e+000,2.2297184387e+000,2.8452524096e+000,
1.7625000000e+001,2.8264500486e+000,3.0941234190e+000,3.0581231672e+000,2.9328532965e-007,2.7506111964e+000,3.2073578540e+000,2.6318569125e+000,3.7078010172e+000,2.1130982487e+000,3.1117430274e+000,2.6093146180e+000,3.0737870372e+000,2.2780704755e+000,2.7873295870e+000,
1.7718750000e+001,2.8938039979e+000,3.1148230852e+000,3.0562909591e+000,1.7847102525e-008,2.7357740889e+000,3.2315783535e+000,2.6478854825e+000,3.7474853114e+000,2.0261403968e+000,3.1842501416e+000,2.6915486020e+000,3.1608278712e+000,2.3853638868e+000,2.8372555857e+000,
1.7812500000e+001,2.9917860594e+000,3.1493760499e+000,3.1252917583e+000,2.8213675836e-010,2.7256036454e+000,3.1931935007e+000,2.6165591149e+000,3.7608406034e+000,2.1481816525e+000,3.1111609463e+000,2.6887956892e+000,3.1914914135e+000,2.4620532622e+000,2.9308694382e+000,
1.7906250000e+001,2.9697483567e+000,3.1176060888e+000,2.9639353202e+000,1.1180167903e-011,2.7356696542e+000,3.1652329889e+000,2.5158134960e+000,3.7029765407e+000,2.2046305605e+000,3.0467668882e+000,2.5977404976e+000,3.1396544000e+000,2.4780530617e+000,3.0138971681e+000,
1.8000000000e+001,3.0088458172e+000,3.0902125115e+000,2.8681264416e+000,3.8502534494e-013,2.7127563653e+000,3.1720784596e+000,2.5000114610e+000,3.7227588247e+000,2.0913629159e+000,2.9938630957e+000,2.5582616982e+000,3.1489225519e+000,2.4840107866e+000,2.9631651603e+000,
1.8093750000e+001,2.9988891400e+000,2.9390624199e+000,2.7021553863e+000,5.9952043330e-015,2.6240422742e+000,3.0956050994e+000,2.3989146611e+000,3.7191389650e+000,2.0905716347e+000,2.9549384690e+000,2.6353479268e+000,3.1028253416e+000,2.3446594104e+000,2.9847450565e+000,
1.8187500000e+001,3.0527345894e+000,2.9609292762e+000,2.6916010186e+000,4.4408920985e-016,2.7219327905e+000,3.1240622436e+000,2.6352043247e+000,3.6637356456e+000,2.1300157552e+000,2.9411915162e+000,2.6216426460e+000,3.1256114588e+000,2.2082401905e+000,2.9416654766e+000,
1.8281250000e+001,3.0630766015e+000,2.8699352497e+000,2.6746405459e+000,0.0000000000e+000,2.8035950148e+000,3.1609807453e+000,2.6892086289e+000,3.7489345586e+000,2.1647863150e+000,3.0602584137e+000,2.6139963539e+000,3.2433172136e+000,2.3952485687e+000,3.0064687648e+000,
1.8375000000e+001,3.1005672868e+000,2.8602575123e+000,2.6789141422e+000,0.0000000000e+000,2.7865457315e+000,3.2645577149e+000,2.7035541623e+000,3.7009551344e+000,2.3575108243e+000,3.1324683670e+000,2.6286235267e+000,3.2673706113e+000,2.4363424342e+000,3.0460122716e+000,
1.8468750000e+001,3.2426528014e+000,2.8675464582e+000,2.6583489862e+000,4.2710542238e-003,2.8527688574e+000,3.2746515143e+000,2.8027242043e+000,3.6429942141e+000,2.4226722289e+000,3.0990190766e+000,2.5666087751e+000,3.2663784750e+000,2.4429210680e+000,3.0986438237e+000,
1.8562500000e+001,3.2912379715e+000,2.8845386778e+000,2.6547357465e+000,2.4258380986e-001,2.9210278224e+000,3.2769426851e+000,2.7294044454e+000,3.5997304237e+000,2.5319345378e+000,3.1495141696e+000,2.6976171938e+000,3.3480556245e+000,2.5214171030e+000,3.1810526673e+000,
1.8656250000e+001,3.3087288532e+000,2.9211129709e+000,2.7511494563e+000,9.5211932166e-001,2.9505312173e+000,3.2836137888e+000,2.7844511307e+000,3.5503345787e+000,2.5964292630e+000,3.2524365550e+000,2.9591222522e+000,3.7538048324e+000,2.5249665367e+000,3.3435706387e+000,
1.8750000000e+001,3.3121536218e+000,2.9259352024e+000,2.7487603302e+000,1.2865422790e+000,2.9700382132e+000,3.2965412201e+000,2.7965159812e+000,3.4775638996e+000,2.5811738034e+000,3.2485627205e+000,2.8977462022e+000,3.7155049893e+000,2.4850472184e+000,3.3824482234e+000,
1.8843750000e+001,3.1964524442e+000,2.8910676691e+000,2.7266817928e+000,2.1843441814e+000,2.9709422601e+000,3.2608189295e+000,2.9129574270e+000,3.5631790618e+000,2.4863749204e+000,3.2190979355e+000,2.9329903971e+000,3.7285733967e+000,2.4593743880e+000,3.2739892620e+000,
1.8937500000e+001,3.1879666429e+000,2.9433758801e+000,2.7637541899e+000,2.5960673845e+000,2.9952673719e+000,3.2517960090e+000,2.9584326780e+000,3.6593467127e+000,2.5424310267e+000,3.2591050386e+000,2.9108674823e+000,3.7345839799e+000,2.5410033437e+000,3.2939435492e+000,
1.9031250000e+001,3.2122295323e+000,3.0340463276e+000,2.8551998610e+000,2.7052714572e+000,3.0324081408e+000,3.2429098691e+000,2.9995358055e+000,3.6960028952e+000,2.5143860380e+000,3.3295212951e+000,2.8946230605e+000,3.7539200407e+000,2.6220461768e+000,3.3902293210e+000,
1.9125000000e+001,3.2395837493e+000,2.9789962889e+000,2.7225265887e+000,2.8974726335e+000,2.9532593197e+000,3.3192717901e+000,2.7809812102e+000,3.8170447728e+000,2.4295815502e+000,3.3934323909e+000,2.8629426896e+000,3.7784735381e+000,2.6908195491e+000,3.4704648044e+000,
1.9218750000e+001,3.3200426222e+000,3.0458621324e+000,2.7484966428e+000,3.0440801191e+000,2.9467207183e+000,3.3911569806e+000,2.7040380546e+000,3.8772274119e+000,2.4269962788e+000,3.3768021855e+000,2.8886589262e+000,3.7578313775e+000,2.6765632899e+000,3.5332081650e+000,
1.9312500000e+001,3.3325911335e+000,3.0892730297e+000,2.8413191213e+000,3.1685543070e+000,2.8864182288e+000,3.3873693297e+000,2.6402825490e+000,3.8533987957e+000,2.3199361499e+000,3.3996078195e+000,2.8758437031e+000,3.7152523605e+000,2.5860947831e+000,3.5394993912e+000,
1.9406250000e+001,3.2551709775e+000,3.1100839868e+000,2.7662407092e+000,3.2277576882e+000,3.1358575741e+000,3.2454932834e+000,2.8796031762e+000,3.8465752660e+000,2.3125360607e+000,3.2987736165e+000,2.8773938601e+000,3.7345370988e+000,2.6007163279e+000,3.5571961811e+000,
1.9500000000e+001,3.1987890015e+000,3.1202129765e+000,2.7179021958e+000,3.2620973735e+000,3.1265756623e+000,3.3020504414e+000,2.8682502765e+000,3.8177427220e+000,2.2495534816e+000,3.3189901238e+000,2.9156618338e+000,3.6952216180e+000,2.5200750800e+000,3.4500764707e+000,
1.9593750000e+001,3.1437636124e+000,3.0976189556e+000,2.6754956650e+000,3.3140725109e+000,3.0825678609e+000,3.2315103690e+000,2.8586347876e+000,3.7810593457e+000,2.1583224424e+000,3.1889836376e+000,2.5074272983e+000,3.4095077826e+000,2.4781231781e+000,3.3526581968e+000,
1.9687500000e+001,3.1322728148e+000,3.1064157870e+000,2.6469628001e+000,3.3064437370e+000,2.9734165481e+000,3.1732661961e+000,2.8232307359e+000,3.7708686780e+000,2.1756522855e+000,3.0696374462e+000,2.4312670678e+000,3.0787179226e+000,2.5045706169e+000,3.2324305868e+000,
1.9781250000e+001,3.1138014281e+000,3.1059207795e+000,2.6158520380e+000,3.3008933253e+000,2.9553561481e+000,3.1928705498e+000,2.8026833392e+000,3.7589493174e+000,2.2060631735e+000,3.1105601573e+000,2.4369555040e+000,3.0477651641e+000,2.5831640242e+000,3.3235649710e+000,
1.9875000000e+001,3.3122784084e+000,3.3823814068e+000,2.7631242510e+000,3.2141208376e+000,3.0539392282e+000,3.3999844243e+000,2.8207074422e+000,3.7904575395e+000,2.3931047906e+000,3.1790810057e+000,2.3585460065e+000,2.9762235747e+000,2.5879731013e+000,3.4562607473e+000,
1.9968750000e+001,3.2521734273e+000,3.4116215958e+000,2.7458086340e+000,3.1522791451e+000,3.0353789731e+000,3.4720346452e+000,2.7558707501e+000,3.7132138029e+000,2.2883683776e+000,3.1105913122e+000,2.2875169678e+000,2.8743619955e+000,2.5092709534e+000,3.4109602594e+000,
2.0062500000e+001,3.2091699325e+000,3.4468185234e+000,2.7929719856e+000,3.1885597590e+000,3.0878668297e+000,3.4033214645e+000,2.8032239678e+000,3.6145062306e+000,2.1962938245e+000,3.0678114634e+000,2.2893649258e+000,3.1210015799e+000,2.5390108284e+000,3.4702735794e+000,
2.0156250000e+001,3.1630238357e+000,3.4896633171e+000,2.8380174337e+000,3.1613590539e+000,3.0784815786e+000,3.3395640125e+000,2.8042949439e+000,3.4922895368e+000,2.2290513171e+000,3.0614972179e+000,2.2720559994e+000,3.1215965954e+000,2.4334837525e+000,3.4623633815e+000,
2.0250000000e+001,3.1800896029e+000,3.4933097673e+000,2.7926313093e+000,3.0730357718e+000,3.0949510103e+000,3.2865553940e+000,2.8151045666e+000,3.3838897760e+000,2.3295079706e+000,3.0052218879e+000,2.2075158969e+000,3.0482108050e+000,2.3725466223e+000,3.3184268158e+000,
2.0343750000e+001,3.2512180008e+000,3.5252651573e+000,2.8637130851e+000,3.1308774429e+000,3.0262124559e+000,3.3937251326e+000,2.6694582553e+000,3.4108883790e+000,2.2541911324e+000,3.1379973842e+000,2.2361336394e+000,3.2659941794e+000,2.4045999970e+000,3.3786940318e+000,
2.0437500000e+001,3.3281269195e+000,3.5122388919e+000,3.0222793081e+000,3.1704641961e+000,2.9141717406e+000,3.3894367223e+000,2.5781058203e+000,3.4187752659e+000,2.2561939711e+000,3.1805573201e+000,2.2472480488e+000,3.3350170122e+000,2.5784757467e+000,3.4098308384e+000,
2.0531250000e+001,3.3396507906e+000,3.5261788567e+000,3.1208085712e+000,3.2075186495e+000,2.9285864188e+000,3.3525947192e+000,2.5933992417e+000,3.5266426814e+000,2.3919906977e+000,3.2294675962e+000,2.1969293101e+000,3.3958051104e+000,2.6012187441e+000,3.4707693885e+000,
2.0625000000e+001,3.2974929988e+000,3.4843751860e+000,3.1134211170e+000,3.1847563497e+000,2.9057808657e+000,3.4213377780e+000,2.6562199489e+000,3.4983351522e+000,2.4213229302e+000,3.2351837570e+000,2.2119998383e+000,3.4438664398e+000,2.5720623980e+000,3.4350229449e+000,
2.0718750000e+001,3.3013683232e+000,3.4985436497e+000,3.1648980190e+000,3.2105193725e+000,2.9541110260e+000,3.4995388548e+000,2.7016535385e+000,3.5062728843e+000,2.4734246923e+000,3.2986928582e+000,2.2516548995e+000,3.6968259234e+000,2.6618723819e+000,3.4447327418e+000,
2.0812500000e+001,3.2371904055e+000,3.4832912948e+000,3.0977338592e+000,3.1638320376e+000,3.6015832113e+000,3.5677898757e+000,3.3049668068e+000,3.4678452109e+000,2.5191230833e+000,3.3586839776e+000,2.3005111711e+000,3.7104801132e+000,2.6077324687e+000,3.3506898701e+000,
2.0906250000e+001,3.2283861312e+000,3.3137435134e+000,3.1349749568e+000,3.2033442047e+000,3.7409841204e+000,3.4683617575e+000,3.5273563307e+000,3.5991256937e+000,2.5554681375e+000,3.3400226475e+000,2.3450745904e+000,3.7598488118e+000,2.6020937568e+000,3.3293903116e+000,
2.1000000000e+001,3.2609478363e+000,3.3157590475e+000,3.1436595315e+000,3.1654455483e+000,3.7702422144e+000,3.4926893273e+000,3.5531563710e+000,3.6054655741e+000,2.5914599080e+000,3.3742784899e+000,2.3852364665e+000,3.8319647343e+000,2.5681787070e+000,3.2960424098e+000,
2.1093750000e+001,3.2403241844e+000,3.1977090241e+000,3.1146051265e+000,3.0478311474e+000,3.7739963789e+000,3.5479240482e+000,3.5913978470e+000,3.6246616713e+000,2.6660987423e+000,3.3250543613e+000,2.5619361647e+000,4.1857646884e+000,2.8583414092e+000,3.1554269055e+000,
2.1187500000e+001,3.0944652689e+000,3.0745685455e+000,3.0768987749e+000,3.0131244354e+000,3.7401107773e+000,3.4621251076e+000,3.5727189722e+000,3.6353508854e+000,2.7998972327e+000,3.3387350919e+000,2.5935639120e+000,4.3231639010e+000,2.9171640135e+000,3.2217453809e+000,
2.1281250000e+001,2.9869623255e+000,3.0016031246e+000,3.0603098588e+000,2.9576576870e+000,3.8451823499e+000,3.4312994190e+000,3.6301648164e+000,3.6829948334e+000,2.7260628961e+000,3.2913763709e+000,2.6364937617e+000,4.3190089302e+000,2.9124892179e+000,3.2060052420e+000,
2.1375000000e+001,3.0229377668e+000,2.9241027531e+000,3.0518899881e+000,2.8790857756e+000,3.8774408731e+000,3.3877665669e+000,3.6980722815e+000,3.6953847099e+000,2.7589038893e+000,3.2042144042e+000,2.6641789174e+000,4.2958272958e+000,2.8767785862e+000,3.2159412533e+000,
2.1468750000e+001,2.8853211198e+000,2.8657713939e+000,2.9839294163e+000,2.7557046099e+000,3.9878086038e+000,3.4611460639e+000,3.7987731014e+000,3.6543936868e+000,2.7676831129e+000,3.1674684636e+000,2.6187832873e+000,4.3190849274e+000,2.7939313025e+000,3.2982565407e+000,
2.1562500000e+001,3.0162666959e+000,3.1279771040e+000,3.0742074216e+000,2.8364909983e+000,4.3648485888e+000,4.1704605938e+000,4.3685089026e+000,3.6676506994e+000,3.6802836375e+000,3.3915764703e+000,2.5963691824e+000,4.4018458314e+000,2.9150539988e+000,3.4533952241e+000,
2.1656250000e+001,3.3071725508e+000,3.4921791643e+000,3.2430353657e+000,3.0954416639e+000,4.8126848861e+000,4.4032599251e+000,4.7234869488e+000,3.7184347910e+000,4.4537918335e+000,3.5548493455e+000,2.9671827249e+000,4.4235398760e+000,3.0207525354e+000,3.4918536764e+000,
2.1750000000e+001,3.4517903278e+000,3.4541186043e+000,3.3160725842e+000,3.1755586888e+000,4.9895210880e+000,4.7186060438e+000,4.9467824828e+000,3.6948947456e+000,4.7930803056e+000,3.6888819586e+000,3.0647140616e+000,4.3536786991e+000,2.9426898332e+000,3.4919254777e+000,
2.1843750000e+001,3.4016309255e+000,3.3987402002e+000,3.2699788800e+000,3.2221847998e+000,4.8827140252e+000,4.7273973183e+000,4.8359192806e+000,3.7588100767e+000,4.9788145058e+000,3.6770017538e+000,3.0849583921e+000,4.3401488124e+000,2.9520707687e+000,3.5350979370e+000,
2.1937500000e+001,3.4835705163e+000,3.4634636822e+000,3.3270705809e+000,3.1951278815e+000,5.1077692658e+000,5.1649972522e+000,4.9764934992e+000,3.7466562460e+000,5.2920307259e+000,4.4106431037e+000,3.1491877705e+000,4.3803940466e+000,3.0318414258e+000,3.5641487103e+000,
2.2031250000e+001,3.5764171403e+000,3.4784474643e+000,3.4358210540e+000,3.3332397766e+000,5.2013653754e+000,5.3357289048e+000,5.0372264896e+000,4.1182400062e+000,5.4605567355e+000,4.9414285128e+000,3.2186546965e+000,4.3643024344e+000,3.0372783784e+000,3.6322815126e+000,
2.2125000000e+001,3.6321202316e+000,3.6432390318e+000,3.5301305589e+000,3.4350850060e+000,5.2285204042e+000,5.3502472425e+000,5.0696573022e+000,4.1727352237e+000,5.5824838006e+000,4.9628393030e+000,3.1843374160e+000,4.0025944461e+000,2.9085381710e+000,3.6400183709e+000,
2.2218750000e+001,3.6615840763e+000,3.7064235459e+000,3.5664017711e+000,3.5434312665e+000,5.2292073336e+000,5.4483719370e+000,5.0770275868e+000,4.3605632156e+000,5.6164353486e+000,5.0532819942e+000,3.2064012020e+000,3.8971618131e+000,2.9114434666e+000,3.6644724114e+000,
2.2312500000e+001,3.6612271531e+000,3.7320857141e+000,3.5684411875e+000,3.5686842914e+000,5.2428105781e+000,5.4760347566e+000,5.1160233087e+000,4.4362876579e+000,5.6551923901e+000,5.1344525885e+000,3.2718183988e+000,3.9902937895e+000,2.9956445882e+000,3.6802561195e+000,
2.2406250000e+001,3.6972192386e+000,3.8561704123e+000,3.5990933966e+000,3.6842096507e+000,5.2391274358e+000,5.5000994089e+000,5.1093221344e+000,4.5672344020e+000,5.6782952979e+000,5.1851672970e+000,3.2570746978e+000,3.9511992601e+000,3.0117845486e+000,3.6519882230e+000,
2.2500000000e+001,3.7271216449e+000,3.8706821511e+000,3.6198631862e+000,3.7617627916e+000,5.2111674884e+000,5.4849953406e+000,5.1014019218e+000,4.5535046196e+000,5.6793146050e+000,5.1946153363e+000,3.2751777977e+000,3.8024310174e+000,2.9025252807e+000,3.5874371678e+000,
2.2593750000e+001,3.6272699180e+000,3.6906354678e+000,3.4369156834e+000,3.7152234044e+000,4.9386565039e+000,5.3644219567e+000,4.7013238093e+000,4.5476572795e+000,5.5727146054e+000,5.1905028330e+000,3.2329359262e+000,3.8042614186e+000,2.8629664259e+000,3.5833924043e+000,
2.2687500000e+001,3.5581827180e+000,3.6074206069e+000,3.4120784109e+000,3.6232273513e+000,4.5636525785e+000,5.2487205629e+000,4.2972868543e+000,4.5601292346e+000,5.2793566540e+000,5.1827798612e+000,2.9133849221e+000,3.7635903785e+000,2.6508972957e+000,3.4811257921e+000,
2.2781250000e+001,3.5023987043e+000,3.6183699425e+000,3.3692309523e+000,3.5985306757e+000,4.4534421632e+000,5.1545465833e+000,4.1681929488e+000,4.5919446951e+000,5.2123687751e+000,5.1761342179e+000,2.9043172872e+000,3.7391922057e+000,2.6337053776e+000,3.4687439824e+000,
2.2875000000e+001,3.4380746384e+000,3.5891080853e+000,3.3005479330e+000,3.5420260817e+000,4.3102488849e+000,5.0701513068e+000,4.0636654037e+000,4.5608162243e+000,5.0414277810e+000,5.1311392155e+000,2.9071271179e+000,3.7563466578e+000,2.7339992373e+000,3.4397679322e+000,
2.2968750000e+001,3.3576226005e+000,3.4972879358e+000,3.1759805837e+000,3.4715098545e+000,3.6003322487e+000,4.5941022297e+000,3.6754791216e+000,4.3739942803e+000,4.5528814067e+000,4.5671129026e+000,2.6842647825e+000,3.5833613663e+000,2.5042460583e+000,3.2964889039e+000,
2.3062500000e+001,3.2445168005e+000,3.3797617366e+000,3.0334084550e+000,3.3114617855e+000,3.2296800841e+000,4.2950589546e+000,3.5396895774e+000,4.2354820743e+000,4.1841398026e+000,4.2827894189e+000,2.6448650373e+000,3.5594587055e+000,2.5832427087e+000,3.2713599766e+000,
2.3156250000e+001,3.1738149859e+000,3.3352572310e+000,2.9739395026e+000,3.2726862199e+000,3.1586971608e+000,4.1411443066e+000,3.4547404112e+000,4.1869096359e+000,3.8213927801e+000,4.1694778279e+000,2.5671059192e+000,3.5328319390e+000,2.5341929161e+000,3.3369711138e+000,
2.3250000000e+001,3.1831050513e+000,3.2112861888e+000,2.9051265855e+000,3.1374758719e+000,2.9193411963e+000,3.8515223492e+000,3.1986199483e+000,3.9769950084e+000,3.6576146724e+000,3.9387362457e+000,2.4776604468e+000,3.4286454125e+000,2.4741169084e+000,3.2859343046e+000,
2.3343750000e+001,3.1475222442e+000,3.1272081064e+000,2.8474732017e+000,3.0541882987e+000,2.7916544495e+000,3.6523331671e+000,3.1290398819e+000,3.7828615683e+000,3.1725276566e+000,3.6465368854e+000,2.3645232001e+000,3.2727895940e+000,2.4197999258e+000,3.2193343399e+000,
2.3437500000e+001,3.1407667995e+000,2.9492687981e+000,2.7606388882e+000,2.9342557440e+000,2.7331349223e+000,3.4840274001e+000,3.1067628904e+000,3.5222038058e+000,3.1206264384e+000,3.5212620298e+000,2.4215027741e+000,3.2504288523e+000,2.3828030654e+000,3.0832304825e+000,
2.3531250000e+001,2.9859671573e+000,2.7396113997e+000,2.6602962388e+000,2.7514603408e+000,2.7299339999e+000,3.2902217423e+000,3.0766195763e+000,3.3660675318e+000,3.0015478021e+000,3.3437532578e+000,2.4039219811e+000,3.1741459234e+000,2.2865912790e+000,2.9315996675e+000,
2.3625000000e+001,2.9292246972e+000,2.5483067239e+000,2.5486760011e+000,2.6244947995e+000,2.6755025651e+000,3.1778303566e+000,3.0506469979e+000,3.3478093061e+000,3.0814615348e+000,3.1313463507e+000,2.3485096365e+000,3.1679079594e+000,2.2825217037e+000,2.9900706526e+000,
2.3718750000e+001,2.7183817359e+000,2.5737371107e+000,2.4374073815e+000,2.6337233230e+000,2.7117495357e+000,3.1896329657e+000,3.1022986367e+000,3.1999018986e+000,3.0695891509e+000,3.0554149051e+000,2.2843626045e+000,3.2633863009e+000,2.2396907863e+000,3.0393368319e+000,
2.3812500000e+001,2.6634837822e+000,2.5363585186e+000,2.4232867994e+000,2.5979150757e+000,2.5438853639e+000,3.0516203299e+000,3.0344142959e+000,3.1343226899e+000,2.8570693118e+000,3.0347187453e+000,2.1645777260e+000,3.2290053113e+000,2.3309708015e+000,2.9975403884e+000,
2.3906250000e+001,2.6649803823e+000,2.5348551793e+000,2.4609951139e+000,2.6202202038e+000,2.5316355928e+000,2.9945456554e+000,2.8975466690e+000,3.1410126280e+000,2.7676074154e+000,2.9925120784e+000,2.0918496314e+000,3.1476619207e+000,2.2712073340e+000,2.9780552183e+000,
2.4000000000e+001,2.7628236812e+000,2.7451140823e+000,2.4590878294e+000,2.6736167778e+000,2.5559121135e+000,2.9799644112e+000,2.9550401245e+000,3.1259978872e+000,2.6495740223e+000,2.9481963614e+000,2.1540113143e+000,3.2038473850e+000,2.3670266095e+000,3.0594689548e+000,
2.4093750000e+001,2.7930624871e+000,2.7703040944e+000,2.4032275429e+000,2.7151675422e+000,2.5469223946e+000,2.9907392097e+000,2.8130566770e+000,3.2417773904e+000,2.5119323133e+000,2.9771036134e+000,2.2476724640e+000,3.2184077952e+000,2.2743096464e+000,3.0814137826e+000,
2.4187500000e+001,2.8767518264e+000,2.7025966775e+000,2.4080199160e+000,2.6723769353e+000,2.5365355546e+000,2.9963694475e+000,2.7005922065e+000,3.3640918158e+000,2.4282110038e+000,2.8748689047e+000,2.2450609237e+000,3.2377186072e+000,2.1740590582e+000,3.0408398222e+000,
2.4281250000e+001,2.7748145332e+000,2.8176404795e+000,2.4042151957e+000,2.7411575335e+000,2.4223325105e+000,2.9910751725e+000,2.6459621124e+000,3.4357704274e+000,2.2957419116e+000,2.8797517617e+000,2.2022397224e+000,3.3483805123e+000,2.1523485631e+000,2.8736809113e+000,
2.4375000000e+001,2.9320067101e+000,2.8792266527e+000,2.6091917977e+000,2.7663513231e+000,2.5849794267e+000,2.9429112249e+000,2.7524737905e+000,3.4522947519e+000,2.4475529409e+000,2.7964319229e+000,2.3561499252e+000,3.2935546736e+000,2.1800927899e+000,3.0791850183e+000,
2.4468750000e+001,2.9403029897e+000,2.9540862299e+000,2.6879690413e+000,2.7185568090e+000,2.4701664025e+000,2.8943206787e+000,2.5721324039e+000,3.5191790468e+000,2.4865609505e+000,2.7643646155e+000,2.3697783943e+000,3.2984645680e+000,2.2278169265e+000,3.0674948406e+000,
2.4562500000e+001,2.9887607903e+000,3.1071818552e+000,2.7586700467e+000,2.7884901803e+000,2.4114058107e+000,3.0100115060e+000,2.4544222897e+000,3.5445050900e+000,2.3686615178e+000,2.8961392424e+000,2.3010246883e+000,3.3585480014e+000,2.2142048026e+000,3.0686322438e+000,
2.4656250000e+001,3.1054753392e+000,3.1717651652e+000,2.8356014712e+000,2.7764972443e+000,2.3145877516e+000,2.9093306649e+000,2.3463174872e+000,3.7016113181e+000,2.3072018248e+000,2.7894845857e+000,2.3089532451e+000,3.3899349145e+000,2.3189507747e+000,3.1443917012e+000,
2.4750000000e+001,3.1897533510e+000,3.1414904945e+000,2.7888870160e+000,2.7583308817e+000,2.2896906499e+000,2.8141420909e+000,2.2067991309e+000,3.7485194662e+000,2.3259366892e+000,2.8579966096e+000,2.3560785905e+000,3.3265155897e+000,2.3415302689e+000,3.2342452565e+000,
2.4843750000e+001,3.2552878271e+000,3.3142301038e+000,2.8371602077e+000,2.8151890656e+000,2.4067264361e+000,2.9457527237e+000,2.2261770585e+000,3.7321207728e+000,2.3801624137e+000,2.8775455106e+000,2.5227372982e+000,3.3342651683e+000,2.2738355916e+000,3.2757840803e+000,
2.4937500000e+001,3.3219142781e+000,3.3667071348e+000,2.9579505262e+000,2.9171369584e+000,2.5259447064e+000,3.0477353324e+000,2.3355271568e+000,3.8143902109e+000,2.4923515780e+000,3.0188902887e+000,2.5207844718e+000,3.3575540941e+000,2.1538508284e+000,3.2670547154e+000,
2.5031250000e+001,3.2714496495e+000,3.2851806223e+000,2.9487317714e+000,2.8339407046e+000,2.5766031944e+000,3.0798188347e+000,2.2716661953e+000,3.8207964943e+000,2.4619785056e+000,3.0133538270e+000,2.5216118152e+000,3.3025391970e+000,2.2165658732e+000,3.2186302933e+000,
2.5125000000e+001,3.2216434300e+000,3.3219795326e+000,2.9704330522e+000,2.8000241804e+000,2.6134532410e+000,3.0570837337e+000,2.3363489308e+000,3.6997811589e+000,2.4895454899e+000,2.9965190813e+000,2.4696731150e+000,3.3164306019e+000,2.1832453987e+000,3.1913166877e+000,
2.5218750000e+001,3.2975226476e+000,3.3699879871e+000,3.0719228868e+000,2.8687793211e+000,2.6938238592e+000,3.1213268996e+000,2.4169248496e+000,3.6743075406e+000,2.5455495523e+000,3.0248612175e+000,2.3894885487e+000,3.2773369557e+000,2.3068839937e+000,3.1264758918e+000,
2.5312500000e+001,3.3555737447e+000,3.3320688891e+000,3.0471364080e+000,2.8854270943e+000,2.6919085494e+000,3.0784284937e+000,2.3989063038e+000,3.7242885181e+000,2.5461591196e+000,3.0635222020e+000,2.4026339644e+000,3.3181128579e+000,2.4658342680e+000,3.2888723876e+000,
2.5406250000e+001,3.2407014232e+000,3.3054006662e+000,2.8947599886e+000,2.8750087323e+000,2.5406616386e+000,3.1017721739e+000,2.2177796951e+000,3.7861938523e+000,2.4657702204e+000,3.0475882127e+000,2.3296197177e+000,3.3352657871e+000,2.4859394168e+000,3.2025556597e+000,
2.5500000000e+001,3.2472548981e+000,3.2635364830e+000,2.9277951876e+000,2.8484592442e+000,2.5967945558e+000,3.2176708795e+000,2.3012172859e+000,3.8047482406e+000,2.4294326547e+000,3.0225008437e+000,2.2728523571e+000,3.3185552192e+000,2.5569638871e+000,3.2060650283e+000,
2.5593750000e+001,3.2178179209e+000,3.1773263094e+000,2.8653442781e+000,2.8333824333e+000,2.6067568288e+000,3.1536834322e+000,2.3606378770e+000,3.8722924941e+000,2.4646961225e+000,2.9436057753e+000,2.2502408290e+000,3.2748844294e+000,2.5072911184e+000,3.1032230920e+000,
2.5687500000e+001,3.1636530391e+000,3.1270923807e+000,2.8694835809e+000,2.8091053103e+000,2.5951467607e+000,3.1321151551e+000,2.4019359751e+000,3.7970404801e+000,2.4128689760e+000,2.8994813173e+000,2.2694574819e+000,3.1514466664e+000,2.4791463948e+000,3.0355510252e+000,
2.5781250000e+001,3.0816437521e+000,2.9814803635e+000,2.9103305434e+000,2.6996415439e+000,2.5692878988e+000,3.0538870938e+000,2.4327698801e+000,3.8207709073e+000,2.4045919204e+000,2.7735794905e+000,2.1763958766e+000,3.1574976262e+000,2.4934556312e+000,2.9827604487e+000,
2.5875000000e+001,2.9334706021e+000,2.7789725468e+000,2.7545283736e+000,2.4631453605e+000,2.5562999092e+000,2.9517627998e+000,2.3377853371e+000,3.7718208356e+000,2.2735214653e+000,2.7061731375e+000,2.2844891362e+000,3.1378380340e+000,2.6260724388e+000,3.1106259634e+000,
2.5968750000e+001,2.9875256092e+000,2.8503639122e+000,2.8582734382e+000,2.5907496818e+000,2.4889888656e+000,2.9742791773e+000,2.3294431301e+000,3.6656204851e+000,2.2123842218e+000,2.8073760803e+000,2.1979065103e+000,3.2009324082e+000,2.7534728372e+000,3.1333214303e+000,
2.6062500000e+001,3.0165200768e+000,2.8604175352e+000,2.8310916910e+000,2.6598565766e+000,2.4783331167e+000,2.9620312017e+000,2.2757917574e+000,3.6616085283e+000,2.1962862165e+000,2.8186825056e+000,2.2893213705e+000,3.2951292886e+000,2.7990179635e+000,3.2359675522e+000,
2.6156250000e+001,2.9523081425e+000,2.8454100503e+000,2.7308250055e+000,2.6777809191e+000,2.4224951931e+000,2.9621145441e+000,2.2272732578e+000,3.7355903553e+000,2.1937529820e+000,2.7538834844e+000,2.3508362203e+000,3.3497624966e+000,2.8338339852e+000,3.3760760246e+000,
2.6250000000e+001,2.8552490409e+000,2.7283800379e+000,2.6735785735e+000,2.6374852159e+000,2.4919564385e+000,2.9484132981e+000,2.2005229320e+000,3.5808045119e+000,2.3469355306e+000,2.7751736956e+000,2.4248040555e+000,3.3374058916e+000,2.7804598060e+000,3.3540171270e+000,
2.6343750000e+001,2.7663185426e+000,2.8488275120e+000,2.7368996545e+000,2.7274734591e+000,2.5588708761e+000,3.0357870141e+000,2.3236413974e+000,3.4427613058e+000,2.4442711582e+000,2.5806519596e+000,2.5261472432e+000,3.3213365213e+000,2.8751633228e+000,3.4909367439e+000,
2.6437500000e+001,2.8260497084e+000,2.8456790820e+000,2.7053342223e+000,2.7030558489e+000,2.5172974977e+000,2.9913709820e+000,2.3186425165e+000,3.4598488534e+000,2.4228413412e+000,2.6086992011e+000,2.6452209147e+000,3.3075540695e+000,2.9533768586e+000,3.6114545521e+000,
2.6531250000e+001,2.8462235340e+000,2.7527005162e+000,2.7792523747e+000,2.7189289768e+000,2.6233225052e+000,2.8285575246e+000,2.2889412339e+000,3.4120385027e+000,2.4018626369e+000,2.5931985457e+000,2.6538947159e+000,3.2908029765e+000,2.9598749872e+000,3.6745664893e+000,
2.6625000000e+001,2.9005318720e+000,2.7542692192e+000,2.8185697880e+000,2.7025422034e+000,2.6657088626e+000,2.8250207322e+000,2.2955347307e+000,3.3628791595e+000,2.4461737919e+000,2.6639054779e+000,2.7100369512e+000,3.2629645955e+000,2.9940048757e+000,3.6580100194e+000,
2.6718750000e+001,2.8236832311e+000,2.6801896847e+000,2.8511203007e+000,2.7666416881e+000,2.6500473430e+000,2.8446354522e+000,2.2597793390e+000,3.2719891650e+000,2.4830646081e+000,2.7234951547e+000,2.6566061350e+000,3.3476184207e+000,3.0766708310e+000,3.7070712731e+000,
2.6812500000e+001,2.7350661163e+000,2.6585527252e+000,2.8639089233e+000,2.8654590244e+000,2.5877929590e+000,2.8513584712e+000,2.2060822085e+000,3.3328747764e+000,2.4865425258e+000,2.7876084720e+000,2.6368439430e+000,3.3319613414e+000,3.1131193170e+000,3.7310429012e+000,
2.6906250000e+001,2.7554865829e+000,2.7261608963e+000,2.8787790737e+000,2.9806798031e+000,2.5345757804e+000,2.8525271596e+000,2.2241361099e+000,3.4756409271e+000,2.5005898552e+000,2.8289775429e+000,2.6801559600e+000,3.3389488863e+000,3.0626580673e+000,3.7087790286e+000,
2.7000000000e+001,2.6604348897e+000,2.7674223383e+000,2.7795569991e+000,2.9896177278e+000,2.5363070538e+000,2.8622913479e+000,2.2005373605e+000,3.6303879646e+000,2.5579532177e+000,2.7173549192e+000,2.6851421566e+000,3.2042889858e+000,2.9283119318e+000,3.6406638595e+000,
2.7093750000e+001,2.6062207853e+000,2.7637349805e+000,2.8273309672e+000,3.0064800431e+000,2.5350807386e+000,2.8513287221e+000,2.2779500970e+000,3.5882758498e+000,2.5282386352e+000,2.7347225368e+000,2.6718244473e+000,3.1132012569e+000,2.9153170520e+000,3.5665179873e+000,
2.7187500000e+001,2.6323537498e+000,2.7490420682e+000,2.8574423207e+000,2.9967383176e+000,2.4404144892e+000,2.8396449888e+000,2.2628982290e+000,3.5605432678e+000,2.3944113436e+000,2.7837606018e+000,2.5763438041e+000,2.9952901178e+000,2.8291505132e+000,3.5015662394e+000,
2.7281250000e+001,2.6622356759e+000,2.7940071619e+000,2.8471798350e+000,2.9830394000e+000,2.4568273036e+000,2.7142638396e+000,2.2873635122e+000,3.5506585050e+000,2.2622236760e+000,2.7011402940e+000,2.5723338264e+000,2.9757843993e+000,2.8277341225e+000,3.4064049151e+000,
2.7375000000e+001,2.6318933668e+000,2.6969801242e+000,2.8096010887e+000,2.9734437335e+000,2.4741517112e+000,2.8319013374e+000,2.1959385190e+000,3.5785932181e+000,2.0728254116e+000,2.9241741825e+000,2.5848933552e+000,2.8465461096e+000,2.6697320468e+000,3.1085761708e+000,
2.7468750000e+001,2.6556189042e+000,2.8210963492e+000,2.7486671758e+000,3.1540146051e+000,2.5006257692e+000,2.9918281114e+000,2.2254105948e+000,3.6105092139e+000,2.1329007243e+000,2.9797813619e+000,2.4279796269e+000,2.8878674399e+000,2.4613553484e+000,2.8036184207e+000,
2.7562500000e+001,2.3962209842e+000,2.8995659530e+000,2.7159197706e+000,3.1403127083e+000,2.3572703741e+000,2.9919615426e+000,2.2455807712e+000,3.5897497595e+000,2.1217021739e+000,3.0265559704e+000,2.4849490798e+000,2.9575687548e+000,2.4248728394e+000,2.8865946040e+000,
2.7656250000e+001,2.6629160466e+000,2.9242066800e+000,2.7878774364e+000,3.1942262815e+000,2.4470079304e+000,2.9850484083e+000,2.3189909740e+000,3.5437232430e+000,2.0722332687e+000,2.9813191534e+000,2.5604732008e+000,2.9636366795e+000,2.3750015197e+000,2.8194863060e+000,
2.7750000000e+001,2.7299053788e+000,2.9557274351e+000,2.7345295662e+000,3.1742484325e+000,2.5365850165e+000,3.1108038415e+000,2.4652090868e+000,3.5098494336e+000,2.0895886538e+000,3.1226764918e+000,2.6513202177e+000,3.0231920278e+000,2.2778223362e+000,2.7819257405e+000,
2.7843750000e+001,2.9318896765e+000,3.1438121950e+000,2.8935393110e+000,3.3329508947e+000,2.6769799030e+000,3.4642114732e+000,2.5481849814e+000,3.5313845817e+000,2.0936217177e+000,3.5648506713e+000,2.6413689827e+000,3.4582894342e+000,2.2432962814e+000,2.7250170274e+000,
2.7937500000e+001,2.9580220724e+000,3.0509781595e+000,2.8569013696e+000,3.2593392311e+000,2.7044895028e+000,3.4351216577e+000,2.5599700682e+000,3.3505400997e+000,2.0628910725e+000,3.5458920729e+000,2.6604316907e+000,3.4929722145e+000,2.2201059079e+000,2.8070713724e+000,
2.8031250000e+001,3.0485749318e+000,3.0187055802e+000,2.9227311031e+000,3.2377325319e+000,2.7515638529e+000,3.4724678914e+000,2.6017530619e+000,3.4544462413e+000,2.0392480514e+000,3.6236744982e+000,2.6701189734e+000,3.6060105873e+000,2.2245321080e+000,2.8423062936e+000,
2.8125000000e+001,3.0395701317e+000,3.0633283228e+000,2.9989763804e+000,3.2925427488e+000,2.8482721153e+000,3.4640133827e+000,2.6578484740e+000,3.5329029762e+000,2.1194624846e+000,3.5946660208e+000,2.6504037795e+000,3.6282765963e+000,2.2553555345e+000,2.8644483950e+000,
2.8218750000e+001,3.0276271799e+000,3.1251857508e+000,3.0255506921e+000,3.3219354532e+000,2.8692459019e+000,3.5100646653e+000,2.7823713199e+000,3.5477327471e+000,2.1950545639e+000,3.6140923255e+000,2.8379651754e+000,3.6915104088e+000,2.4998742664e+000,3.0110801472e+000,
2.8312500000e+001,3.0749559764e+000,3.2154586923e+000,3.1009309632e+000,3.3890327064e+000,2.8923147865e+000,3.5886887658e+000,2.8581526273e+000,3.5837405209e+000,2.1988041160e+000,3.6356060639e+000,2.7920341230e+000,3.7288512829e+000,2.5437540389e+000,3.1214705376e+000,
2.8406250000e+001,3.0277316615e+000,3.1049641386e+000,3.0756770776e+000,3.2371503658e+000,2.8144896672e+000,3.4183981692e+000,2.7940500594e+000,3.5440236867e+000,2.2604530913e+000,3.5344821907e+000,2.7094444042e+000,3.7111927827e+000,2.5731650481e+000,3.0897652312e+000,
2.8500000000e+001,3.0384451544e+000,3.0528606946e+000,3.0499482251e+000,3.2455774585e+000,2.8396111715e+000,3.3908660303e+000,2.7798316133e+000,3.6488859452e+000,2.2250281168e+000,3.5452612859e+000,2.6990830468e+000,3.7664449485e+000,2.6302959452e+000,3.1395520400e+000,
2.8593750000e+001,2.9886731568e+000,3.0318916507e+000,3.0445225692e+000,3.2157301760e+000,2.7784856689e+000,3.3578186446e+000,2.7524845119e+000,3.7046038959e+000,2.1681165491e+000,3.5542444152e+000,2.5411421894e+000,3.7454195305e+000,2.5460239610e+000,3.2248091144e+000,
2.8687500000e+001,2.8977259411e+000,2.9879537753e+000,2.9847177222e+000,3.2178488446e+000,2.8302235950e+000,3.3396978566e+000,2.7328330417e+000,3.6369712673e+000,2.0912437700e+000,3.5198160382e+000,2.5315770061e+000,3.7576064386e+000,2.5555988184e+000,3.2613792970e+000,
2.8781250000e+001,2.8152496887e+000,3.0169401614e+000,2.9241578556e+000,3.1445613276e+000,2.7241943973e+000,3.1412034609e+000,2.5583394709e+000,3.6675343343e+000,2.0681583371e+000,3.3530593073e+000,2.4927052753e+000,3.6987077721e+000,2.5034809373e+000,3.2308202993e+000,
2.8875000000e+001,2.6523049009e+000,2.8335018134e+000,2.8833117444e+000,3.1080129033e+000,2.6505810384e+000,2.9240632893e+000,2.5110815733e+000,3.6280620936e+000,2.1714142130e+000,2.9591987899e+000,2.5644941298e+000,3.5361904879e+000,2.4561168995e+000,3.1710949027e+000,
2.8968750000e+001,2.4669485769e+000,2.8326302339e+000,2.8560029055e+000,3.0770068230e+000,2.5989267640e+000,2.8386032562e+000,2.4074378222e+000,3.6322206177e+000,2.1508264552e+000,2.8479339206e+000,2.5408573098e+000,3.4422377851e+000,2.5050823529e+000,3.1720995474e+000,
2.9062500000e+001,2.4663893261e+000,2.8622600261e+000,2.7553829954e+000,3.0605222238e+000,2.5635563402e+000,2.8329373949e+000,2.4050142501e+000,3.5241499279e+000,2.0078559948e+000,2.8959164216e+000,2.6544703818e+000,3.4879404997e+000,2.4924016784e+000,3.1857881672e+000,
2.9156250000e+001,2.5099146932e+000,2.7604410631e+000,2.7997052190e+000,3.0914623846e+000,2.4171436537e+000,2.8765946237e+000,2.1303090088e+000,3.7467959375e+000,1.9471337450e+000,2.9244545925e+000,2.7115046098e+000,3.6111684439e+000,2.5253697547e+000,3.2103892099e+000,
2.9250000000e+001,2.4841547144e+000,2.6649511524e+000,2.7457279083e+000,3.0390145770e+000,2.3584935673e+000,2.7232871383e+000,1.7833360927e+000,3.8590247617e+000,1.9297529966e+000,2.8175607332e+000,2.6118759891e+000,3.5727979064e+000,2.3627377405e+000,3.0887396743e+000,
2.9343750000e+001,2.5189279302e+000,2.5839175851e+000,2.6895873873e+000,3.0092466348e+000,2.3172128902e+000,2.7395234875e+000,1.6584088603e+000,3.8192723011e+000,1.9302759101e+000,2.8198060651e+000,2.5994561604e+000,3.5818297911e+000,2.3365792257e+000,3.1411856191e+000,
2.9437500000e+001,2.4459590459e+000,2.6912059380e+000,2.6899904164e+000,2.9429813136e+000,2.1802246361e+000,2.7312355616e+000,1.5693415197e+000,3.7052481384e+000,1.8502703011e+000,2.7006960827e+000,2.5779270940e+000,3.4997937486e+000,2.1769073603e+000,3.1888598463e+000,
2.9531250000e+001,2.5039926396e+000,2.7238100881e+000,2.7110276065e+000,2.9374057606e+000,2.2797846085e+000,2.8021268099e+000,1.7501025261e+000,3.6323835091e+000,1.8579085016e+000,2.7211688495e+000,2.6313016499e+000,3.5154789077e+000,2.4228555897e+000,3.2244163593e+000,
2.9625000000e+001,2.5111878159e+000,2.6564269188e+000,2.7328037657e+000,2.9677771635e+000,2.2683110305e+000,2.8524935519e+000,1.7375090614e+000,3.5843291455e+000,1.9527526965e+000,2.7976533028e+000,2.6936651223e+000,3.5338908629e+000,2.4860714835e+000,3.1954055301e+000,
2.9718750000e+001,2.4884938707e+000,2.7645211244e+000,2.7475479259e+000,3.0024455039e+000,2.1784015360e+000,2.8436851528e+000,1.8434092018e+000,3.6347806132e+000,1.9661263613e+000,2.8281780189e+000,2.6753583656e+000,3.5553906494e+000,2.4755293522e+000,3.3511085613e+000,
2.9812500000e+001,2.7358589649e+000,2.7754631540e+000,2.6847060201e+000,2.9170128556e+000,2.2887228901e+000,2.8750923560e+000,2.1244556087e+000,3.5633842110e+000,1.9957660282e+000,2.7735083977e+000,2.7909705845e+000,3.6974212226e+000,2.5480031418e+000,3.4529981070e+000,
2.9906250000e+001,2.7102164441e+000,2.7796386530e+000,2.4828517482e+000,2.8281454038e+000,2.3317902134e+000,2.7734534848e+000,2.2393643245e+000,3.5448506330e+000,2.0532622381e+000,2.6479013160e+000,2.6494908423e+000,3.6116115271e+000,2.5175492410e+000,3.4512860536e+000,
3.0000000000e+001,2.7578068780e+000,2.7840878884e+000,2.5045274455e+000,2.8267915799e+000,2.4333984009e+000,2.7726952813e+000,2.4280247485e+000,3.5705036335e+000,2.1937807929e+000,2.5739739619e+000,2.6325267082e+000,3.5176769900e+000,2.4987946138e+000,3.4704760505e+000,
3.0093750000e+001,2.7976941339e+000,2.7690251078e+000,2.4752078490e+000,2.6431701911e+000,2.3726558202e+000,2.7499990319e+000,2.4263079411e+000,3.4667093219e+000,2.1912586414e+000,2.4674282547e+000,2.3957631979e+000,3.3644945118e+000,2.4353423603e+000,3.4727139913e+000,
3.0187500000e+001,2.8888111190e+000,2.7904903843e+000,2.4114646877e+000,2.5902615687e+000,2.5473347813e+000,2.7760717315e+000,2.6061036355e+000,3.3216031511e+000,2.2485406153e+000,2.6805935083e+000,2.3557514226e+000,3.4193053102e+000,2.4040988596e+000,3.5021534413e+000,
3.0281250000e+001,2.8957228252e+000,2.8350077179e+000,2.3987734043e+000,2.5967452980e+000,2.5977446651e+000,2.9119941383e+000,2.6963388600e+000,3.3780189044e+000,2.3116983236e+000,2.8544994342e+000,2.4841004534e+000,3.3638673290e+000,2.4245381257e+000,3.4741768234e+000,
3.0375000000e+001,2.9534316374e+000,2.9151073899e+000,2.4451689814e+000,2.7297876346e+000,2.6910815487e+000,2.9763743101e+000,2.7704659151e+000,3.5145066232e+000,2.4351507413e+000,2.8495832983e+000,2.5383606790e+000,3.3326499850e+000,2.5167971978e+000,3.5019560922e+000,
3.0468750000e+001,3.1335921712e+000,3.0367231209e+000,2.6395058790e+000,2.8276977334e+000,2.8766314442e+000,3.1134036800e+000,2.9656268735e+000,3.6626444527e+000,2.5098708556e+000,2.9876899099e+000,2.5913016635e+000,3.3794784241e+000,2.5183289587e+000,3.4695837198e+000,
3.0562500000e+001,3.1381763242e+000,3.0340578878e+000,2.5613665808e+000,2.7521058970e+000,2.8251233709e+000,3.1808987030e+000,2.9720186824e+000,3.6252845749e+000,2.4598380754e+000,3.0178002457e+000,2.6236595003e+000,3.2987545141e+000,2.2147038193e+000,3.3601756279e+000,
3.0656250000e+001,3.1202027258e+000,3.0795349783e+000,2.5369285678e+000,2.7762546402e+000,2.8531719247e+000,3.1730273614e+000,3.0995504633e+000,3.6714198698e+000,2.4491217243e+000,2.9453129979e+000,2.6113233297e+000,3.1440457538e+000,2.2725311179e+000,3.1129130930e+000,
3.0750000000e+001,3.1551973070e+000,2.9774264835e+000,2.5533528202e+000,2.8365231463e+000,2.8931602180e+000,3.1432916352e+000,3.1490688307e+000,3.6718168956e+000,2.3634107165e+000,2.9793287110e+000,2.5073980083e+000,3.1318236353e+000,2.2175777985e+000,3.1169176330e+000,
3.0843750000e+001,3.0636897508e+000,2.9377789874e+000,2.6044159924e+000,2.8517703853e+000,2.8391112238e+000,3.1455045875e+000,3.1132017720e+000,3.6564702242e+000,2.3616695891e+000,2.9648181319e+000,2.4606352636e+000,2.9466489678e+000,2.2667440925e+000,2.9853490668e+000,
3.0937500000e+001,3.0324591861e+000,2.9100991680e+000,2.5653895074e+000,2.7597460222e+000,2.7605843035e+000,3.2726930795e+000,3.0372384946e+000,3.7235912753e+000,2.2477235862e+000,3.0881992682e+000,2.4656174681e+000,2.9644047496e+000,2.2827542953e+000,2.9697442336e+000,
3.1031250000e+001,3.0966158513e+000,2.9556186372e+000,2.6420560865e+000,2.7527015316e+000,2.7558259656e+000,3.2205123776e+000,3.0613150827e+000,3.6941550996e+000,2.2324941634e+000,3.0806838430e+000,2.4861352436e+000,2.9169731704e+000,2.2611744628e+000,2.9090781420e+000,
3.1125000000e+001,3.0738661821e+000,2.9754204561e+000,2.6385529827e+000,2.7431928827e+000,2.7793052082e+000,3.1966129852e+000,3.0748584909e+000,3.7978692239e+000,2.2057158742e+000,3.0717990782e+000,2.4727909122e+000,3.1303379385e+000,2.2410407404e+000,3.1766933430e+000,
3.1218750000e+001,3.0278524931e+000,2.9748142303e+000,2.5789592672e+000,2.7785773192e+000,2.7114257415e+000,3.1347025830e+000,3.0346223459e+000,3.7445373693e+000,2.2660288565e+000,3.0311174203e+000,2.5615941062e+000,3.0539393263e+000,2.2821116703e+000,3.2770865306e+000,
3.1312500000e+001,3.0070889638e+000,2.8467991916e+000,2.5056127443e+000,2.7146311870e+000,2.6382042900e+000,3.0680532546e+000,3.0454711402e+000,3.7786360142e+000,2.2027817752e+000,3.0188956473e+000,2.4410863359e+000,3.2269677526e+000,2.1902907891e+000,3.3621206467e+000,
3.1406250000e+001,2.9916424489e+000,2.7695427678e+000,2.4695591315e+000,2.7138966717e+000,2.6106939326e+000,3.0836243691e+000,3.0453316935e+000,3.6842019231e+000,2.1042516231e+000,3.1104670638e+000,2.3913002824e+000,3.3367295859e+000,2.1494847691e+000,3.5787085452e+000,
3.1500000000e+001,2.7774692642e+000,2.6616131072e+000,2.3211838969e+000,2.5081546965e+000,2.4349299613e+000,2.8556595093e+000,2.9014433766e+000,3.6354872747e+000,1.9743269801e+000,2.9953551644e+000,2.3550678965e+000,3.2419691618e+000,2.2210387028e+000,3.5592803142e+000,
3.1593750000e+001,2.7520117422e+000,2.7146675427e+000,2.3255273712e+000,2.5904597304e+000,2.4125101425e+000,2.7831901990e+000,2.8770786920e+000,3.6753504519e+000,1.9331725241e+000,2.9520199117e+000,2.2726147563e+000,3.4138969890e+000,2.2589648906e+000,3.6757956828e+000,
3.1687500000e+001,2.7531761003e+000,2.7032190784e+000,2.2520752513e+000,2.6530512681e+000,2.3688303391e+000,2.8541800384e+000,2.8303364230e+000,3.6968894295e+000,1.9331487796e+000,2.9496398989e+000,2.3701766867e+000,3.5016398336e+000,2.3706530788e+000,3.7068618322e+000,
3.1781250000e+001,2.8530300891e+000,2.8911896797e+000,2.3851790735e+000,2.6639204348e+000,2.3977870806e+000,2.9282415086e+000,2.7634040528e+000,3.7389542076e+000,1.9813965958e+000,3.0191865903e+000,2.4651818805e+000,3.5380374731e+000,2.3738839166e+000,3.8133854744e+000,
3.1875000000e+001,2.8808738863e+000,2.9600688828e+000,2.3810196030e+000,2.7441497982e+000,2.3999382156e+000,2.8734899234e+000,2.7744373666e+000,3.7348430338e+000,2.1059616187e+000,3.0352199778e+000,2.4783427342e+000,3.4925035100e+000,2.3229510201e+000,3.8362924626e+000,
3.1968750000e+001,3.0961607562e+000,3.0062294095e+000,2.5160513056e+000,2.8950671057e+000,2.4421785654e+000,2.9310475399e+000,2.7024771710e+000,3.7088776206e+000,2.1926518357e+000,2.9079146976e+000,2.5742362400e+000,3.5169925280e+000,2.2866137469e+000,3.8700969037e+000,
3.2062500000e+001,3.0211851940e+000,2.9152908164e+000,2.5291211185e+000,2.9957431678e+000,2.3588447829e+000,2.9440618910e+000,2.5656984136e+000,3.7072018597e+000,2.2519661442e+000,2.9480950296e+000,2.5251978052e+000,3.5102196565e+000,2.2751167672e+000,3.8328371502e+000,
3.2156250000e+001,3.1237422050e+000,3.0186092322e+000,2.6829915303e+000,3.0714507904e+000,2.4295734441e+000,3.1151655209e+000,2.6107270365e+000,3.8143296598e+000,2.3844185520e+000,2.9911799961e+000,2.6561178434e+000,3.5785694088e+000,2.3399993927e+000,3.7573565353e+000,
3.2250000000e+001,3.1507526699e+000,3.1147007767e+000,2.7087110388e+000,3.1117581994e+000,2.4937325010e+000,3.0835088518e+000,2.5655027379e+000,3.8305500378e+000,2.5148204426e+000,2.9932725170e+000,2.5904244138e+000,3.5623310521e+000,2.4206785600e+000,3.7089285352e+000,
3.2343750000e+001,3.2796767171e+000,3.2027409240e+000,2.7869889179e+000,3.1450756300e+000,2.7124341323e+000,2.9764440692e+000,2.4097137846e+000,3.8387376250e+000,2.5169191496e+000,2.9340418777e+000,2.6367099132e+000,3.4806386343e+000,2.4771889982e+000,3.6118151052e+000,
3.2437500000e+001,3.2433678128e+000,3.1309590364e+000,2.7716007215e+000,3.1640043312e+000,2.7626959484e+000,2.9939072421e+000,2.3799083240e+000,3.7998566377e+000,2.5334418778e+000,2.9030057571e+000,2.6497252960e+000,3.4201358994e+000,2.4159946498e+000,3.5008681660e+000,
3.2531250000e+001,3.2932241485e+000,3.2215068866e+000,2.7714113156e+000,3.1801054183e+000,2.7853670234e+000,3.1569001256e+000,2.4495742631e+000,3.8230403290e+000,2.5934871154e+000,2.9964164180e+000,2.6586585186e+000,3.3822525467e+000,2.3724880667e+000,3.4411556225e+000,
3.2625000000e+001,3.2813717152e+000,3.2315731154e+000,2.7698443358e+000,3.0785580340e+000,2.7707240552e+000,3.0873601594e+000,2.4473023145e+000,3.8068944245e+000,2.6290396487e+000,2.9175637124e+000,2.5941196041e+000,3.2716902860e+000,2.2827256308e+000,3.3826664880e+000,
3.2718750000e+001,3.2624325292e+000,3.2906349126e+000,2.7255917718e+000,3.0562437729e+000,2.7507424581e+000,3.0421122011e+000,2.4279157084e+000,3.8103978366e+000,2.6438771632e+000,2.9370463738e+000,2.5395496120e+000,3.1574271777e+000,2.3199935003e+000,3.2888003557e+000,
3.2812500000e+001,3.2036527842e+000,3.1735884440e+000,2.7279675118e+000,2.9745987821e+000,2.7612387563e+000,3.0623748696e+000,2.3955924986e+000,3.8357411829e+000,2.6469757079e+000,2.9754505142e+000,2.5611434067e+000,3.1427047281e+000,2.3659522539e+000,3.1681935116e+000,
3.2906250000e+001,3.1945319147e+000,3.1898168068e+000,2.7420931894e+000,2.8658521382e+000,2.8062988703e+000,3.0340559249e+000,2.5077426109e+000,3.9301615814e+000,2.6030043917e+000,3.0801468417e+000,2.6214791332e+000,3.5618420379e+000,2.4865907199e+000,3.2687588017e+000,
3.3000000000e+001,3.1743415136e+000,3.2053763045e+000,2.7233727668e+000,2.8215284917e+000,2.8561158329e+000,2.9323094879e+000,2.5371188252e+000,3.9226128929e+000,2.4765994755e+000,3.0999451703e+000,2.5765035779e+000,3.7091524248e+000,2.5088616685e+000,3.3462757901e+000,
3.3093750000e+001,3.2313042976e+000,3.2582513399e+000,2.7615288576e+000,2.9524792255e+000,2.8694972842e+000,2.8762643554e+000,2.4928698259e+000,3.8637727297e+000,2.3668228306e+000,3.0731497057e+000,2.5764964427e+000,3.7184895817e+000,2.5708877398e+000,3.3370513886e+000,
3.3187500000e+001,3.1719108459e+000,3.1167970342e+000,2.6882904234e+000,2.8910721272e+000,2.8150083607e+000,2.7226617457e+000,2.4322854462e+000,3.7094074209e+000,2.3618248254e+000,3.0377598478e+000,2.5211524769e+000,3.6566666045e+000,2.5043037375e+000,3.2380352732e+000,
3.3281250000e+001,2.9644505707e+000,2.9242232276e+000,2.6946996882e+000,2.8347906118e+000,2.6136505843e+000,2.7554743341e+000,2.3833586421e+000,3.5778869773e+000,2.2108432650e+000,3.0081670979e+000,2.6479489383e+000,3.6344454189e+000,2.4655144148e+000,3.2639283555e+000,
3.3375000000e+001,2.9573800350e+000,2.9604094909e+000,2.5893679428e+000,2.9537681952e+000,2.4648442300e+000,2.9070040190e+000,2.5293370541e+000,3.6239714774e+000,2.1947578173e+000,3.1037320820e+000,2.6427613831e+000,3.6332576168e+000,2.4492272591e+000,3.3046275364e+000,
3.3468750000e+001,3.0181861777e+000,3.0660226666e+000,2.6995998282e+000,3.0156012347e+000,2.5487451681e+000,2.8765922117e+000,2.6423988563e+000,3.6749143801e+000,2.2006270883e+000,3.1532470518e+000,2.6541225759e+000,3.8227616879e+000,2.4858897798e+000,3.3243761967e+000,
3.3562500000e+001,3.0834177250e+000,2.9795660964e+000,2.7978185859e+000,3.0387884560e+000,2.6833793982e+000,2.8578618555e+000,2.5865650155e+000,3.7646854514e+000,2.2218668283e+000,3.2581720139e+000,2.7554317323e+000,4.3304518013e+000,2.5307007951e+000,3.3741492371e+000,
3.3656250000e+001,3.0372229950e+000,2.9114316698e+000,2.8993228321e+000,3.0987565083e+000,2.7803995733e+000,2.8203248579e+000,2.5085486694e+000,3.8376648213e+000,2.2359705607e+000,3.2633220934e+000,2.7968145502e+000,4.4491944132e+000,2.5606515647e+000,3.3228197118e+000,
3.3750000000e+001,3.0306948306e+000,2.8652120247e+000,2.8659514936e+000,3.0938042689e+000,2.7773160227e+000,2.8005201407e+000,2.5577344179e+000,3.7541545510e+000,2.2849250205e+000,3.2480470179e+000,2.7334168687e+000,4.4698707590e+000,2.4578858888e+000,3.2421292335e+000,
3.3843750000e+001,3.0018214169e+000,2.9348460811e+000,2.8971697018e+000,3.2286035654e+000,2.7585261897e+000,2.7223481278e+000,2.6715005905e+000,3.6588028647e+000,2.2397472258e+000,3.2409129929e+000,2.6326586304e+000,4.4108726888e+000,2.3834632499e+000,3.2851855537e+000,
3.3937500000e+001,2.9556547282e+000,2.8571831392e+000,2.8979735525e+000,3.2323168818e+000,2.6956308241e+000,2.6994963538e+000,2.7610227822e+000,3.6648297468e+000,2.2878958313e+000,3.1978384578e+000,2.5538317145e+000,4.3379600755e+000,2.3814596212e+000,3.1974076770e+000,
3.4031250000e+001,2.7315290847e+000,2.7552060828e+000,2.8739820318e+000,3.0952704920e+000,2.6664418458e+000,2.7528026408e+000,2.7722112477e+000,3.7457522623e+000,2.3382342757e+000,3.2127084561e+000,2.5697186327e+000,4.3090143232e+000,2.4046223363e+000,3.1893118235e+000,
3.4125000000e+001,2.7528493572e+000,2.8628143704e+000,2.9147677383e+000,3.0839771587e+000,2.7444463416e+000,2.7879477229e+000,2.8583217989e+000,3.9300563322e+000,2.2529311034e+000,3.1725690226e+000,2.6103959398e+000,4.2924472361e+000,2.4498462566e+000,3.2419064257e+000,
3.4218750000e+001,2.8738936953e+000,2.8974557314e+000,2.9027639787e+000,3.0155350376e+000,2.7571428715e+000,2.8688555181e+000,2.9252686908e+000,4.0629116585e+000,2.3437840108e+000,3.2532461777e+000,2.4215066942e+000,4.2636417162e+000,2.4215270088e+000,3.2804151313e+000,
3.4312500000e+001,2.9259327710e+000,2.9991623353e+000,2.8978290930e+000,2.8988399599e+000,2.8288503469e+000,2.9075407225e+000,2.9848443964e+000,4.0647759885e+000,2.3093427342e+000,3.2670772238e+000,2.2626789301e+000,4.2882334456e+000,2.4581283560e+000,3.3095389736e+000,
3.4406250000e+001,2.9448538520e+000,3.1390584571e+000,2.9744943376e+000,2.8911995297e+000,2.8948785586e+000,2.9835076258e+000,3.0263222776e+000,4.1213758762e+000,2.2662271681e+000,3.2919198859e+000,2.2121838068e+000,4.2776426313e+000,2.4529219704e+000,3.2968671673e+000,
3.4500000000e+001,2.9617306064e+000,3.1754528395e+000,2.9995266023e+000,2.8991210535e+000,2.8552712490e+000,3.0579762036e+000,3.1219087362e+000,4.1265352052e+000,2.3054179141e+000,3.2387287374e+000,2.2511234615e+000,3.9090172685e+000,2.4511670254e+000,3.2790027068e+000,
3.4593750000e+001,2.8361862607e+000,3.1658715555e+000,3.0180548094e+000,2.8653993231e+000,2.7463658688e+000,2.9768915985e+000,3.1817136444e+000,4.0829073634e+000,2.3746657817e+000,3.1146465993e+000,2.0994800392e+000,3.5377419373e+000,2.4460424277e+000,3.2581511629e+000,
3.4687500000e+001,2.8329609540e+000,3.1850869285e+000,2.9507678667e+000,2.8736213572e+000,2.7274686749e+000,3.0371209370e+000,3.1633623664e+000,4.0477129010e+000,2.4777014807e+000,3.1118306785e+000,2.1802397788e+000,3.3587919957e+000,2.4443034590e+000,3.2191513463e+000,
3.4781250000e+001,2.8744487423e+000,3.2144441028e+000,2.9358146916e+000,2.8675650094e+000,2.6813301243e+000,3.0381814234e+000,3.0914226720e+000,4.0995186278e+000,2.4640298703e+000,3.0161928173e+000,2.1325656036e+000,3.3013230902e+000,2.4015431304e+000,3.3195464527e+000,
3.4875000000e+001,2.9909816574e+000,3.1668674851e+000,2.9544505666e+000,2.8322391744e+000,2.8128418071e+000,3.0596910641e+000,3.0363571399e+000,4.1049605307e+000,2.4242783461e+000,3.0430866219e+000,2.1567585625e+000,3.3318986717e+000,2.4445216252e+000,3.3509035655e+000,
3.4968750000e+001,3.0157023400e+000,3.2738287883e+000,3.0169432828e+000,2.9803858035e+000,2.8018253611e+000,3.1056496826e+000,2.9617410856e+000,4.0822356428e+000,2.3445934046e+000,3.0830849799e+000,2.2114696628e+000,3.4032860111e+000,2.3844896843e+000,3.3450951198e+000,
3.5062500000e+001,3.1617983393e+000,3.4345953033e+000,3.0010279517e+000,3.1644751757e+000,2.8060290807e+000,3.1634632380e+000,3.0992454640e+000,3.9770073533e+000,2.2744406280e+000,3.0984521517e+000,2.0910269116e+000,3.4272890835e+000,2.3588153952e+000,3.3393902482e+000,
3.5156250000e+001,3.2554494805e+000,3.4547092081e+000,3.0184157558e+000,3.2880069712e+000,2.7774552430e+000,3.1896389151e+000,3.0881041670e+000,4.0136786015e+000,2.2425736389e+000,3.0821216536e+000,2.1889342561e+000,3.4546185425e+000,2.3325182151e+000,3.3849349040e+000,
3.5250000000e+001,3.1505232052e+000,3.5521364251e+000,3.0270180294e+000,3.2930354269e+000,2.7657049158e+000,3.1783021828e+000,3.1066811844e+000,3.8779263529e+000,2.2256609492e+000,3.0290108144e+000,2.2162102602e+000,3.4547554092e+000,2.3694999614e+000,3.3735630689e+000,
3.5343750000e+001,3.1325313963e+000,3.5008216513e+000,3.0415858473e+000,3.2561963184e+000,2.7116797629e+000,3.0565126732e+000,3.1025110743e+000,3.8287718989e+000,2.2350334368e+000,3.0003280384e+000,2.3675087304e+000,3.4330608236e+000,2.3219951036e+000,3.3650695188e+000,
3.5437500000e+001,3.1835068591e+000,3.4819058387e+000,3.0832793594e+000,3.2475525605e+000,2.7456206322e+000,3.0469942992e+000,3.0100174903e+000,3.6972494634e+000,2.2827594606e+000,2.9691620275e+000,2.3731513413e+000,3.3946402277e+000,2.3753236523e+000,3.2976892673e+000,
3.5531250000e+001,3.1494081536e+000,3.4389578681e+000,3.0226452039e+000,3.2615786955e+000,2.7324025360e+000,2.8863018755e+000,2.9538158581e+000,3.6492410156e+000,2.1944162820e+000,2.8744870610e+000,2.3207653864e+000,3.3239940642e+000,2.3966084175e+000,3.2364740802e+000,
3.5625000000e+001,3.2069832189e+000,3.5024510761e+000,3.0371050266e+000,3.2627506716e+000,2.7563072587e+000,3.0910432697e+000,2.9305611787e+000,3.7054746966e+000,2.2004713018e+000,3.0643279440e+000,2.3005982518e+000,3.3031971929e+000,2.3025106826e+000,3.2790826701e+000,
3.5718750000e+001,3.1740280473e+000,3.4313081217e+000,3.0040429867e+000,3.2266326197e+000,2.7268222568e+000,3.0497145085e+000,2.9317532168e+000,3.7116578784e+000,2.1282584199e+000,3.0574252188e+000,2.3309891602e+000,3.3037010614e+000,2.3073778733e+000,3.2486987278e+000,
3.5812500000e+001,3.1938417714e+000,3.4157375350e+000,2.9447995872e+000,3.1788234933e+000,2.6522062628e+000,3.0280294595e+000,2.8342316791e+000,3.7740802763e+000,2.1955747267e+000,3.0511500425e+000,2.2987045766e+000,3.2579999608e+000,2.3343839678e+000,3.1471898931e+000,
3.5906250000e+001,3.2863989629e+000,3.3942604171e+000,3.0002591093e+000,3.1234556130e+000,2.6528110118e+000,3.0744300467e+000,2.8653275572e+000,3.8335498644e+000,2.3045690789e+000,2.9377350852e+000,2.3310023818e+000,3.1114665894e+000,2.3317411109e+000,3.0852182199e+000,
3.6000000000e+001,3.2875303318e+000,3.3460060424e+000,2.9700890937e+000,3.0660383302e+000,2.6908176503e+000,3.1560262394e+000,2.8656612462e+000,3.8763820489e+000,2.3710237537e+000,3.0463285009e+000,2.3781352768e+000,3.2313712877e+000,2.4504147085e+000,3.1797225389e+000,
3.6093750000e+001,3.0955564355e+000,3.1091558754e+000,2.7995496266e+000,2.8404457933e+000,2.6167983629e+000,3.0275430141e+000,2.6349439414e+000,3.8458531061e+000,2.3573872914e+000,3.0378355366e+000,2.3575670841e+000,3.2059476360e+000,2.3320605430e+000,3.2731313649e+000,
3.6187500000e+001,3.1458111090e+000,3.1001382817e+000,2.7326024024e+000,2.7177027049e+000,2.6317528590e+000,3.0932460013e+000,2.5531158457e+000,3.8032982433e+000,2.3856092649e+000,3.1381571900e+000,2.3171477872e+000,3.2517586250e+000,2.1740486910e+000,3.2291602690e+000,
3.6281250000e+001,3.1642753127e+000,2.9769303165e+000,2.7452856756e+000,2.8346951350e+000,2.5615834688e+000,3.1500628500e+000,2.4535650570e+000,3.8345025950e+000,2.3494090790e+000,3.0796189620e+000,2.4686434300e+000,3.2834091656e+000,2.2544030376e+000,3.1366707715e+000,
3.6375000000e+001,3.1835689740e+000,3.0009882777e+000,2.7126509414e+000,3.0068422022e+000,2.6580351923e+000,3.1490140238e+000,2.4438850457e+000,3.8980783336e+000,2.3559922365e+000,3.0206986249e+000,2.3323240977e+000,3.2076230519e+000,2.2300837938e+000,3.1038177486e+000,
3.6468750000e+001,3.1673277529e+000,3.0373602311e+000,2.5589722571e+000,2.9956391808e+000,2.5913969688e+000,3.0900121969e+000,2.4384158346e+000,3.9683533458e+000,2.2703862159e+000,3.0351075829e+000,2.4040310702e+000,3.3077711737e+000,2.1477668456e+000,3.1533863264e+000,
3.6562500000e+001,3.1242228894e+000,3.0542939473e+000,2.5106070226e+000,3.0623919791e+000,2.4374935955e+000,3.0610504651e+000,2.1976898786e+000,3.9526381636e+000,2.2236840801e+000,3.0152314779e+000,2.5409183599e+000,3.4496959760e+000,2.1102287805e+000,3.1998617298e+000,
3.6656250000e+001,3.1236750415e+000,3.0907200367e+000,2.6743301751e+000,3.0649623706e+000,2.4342072603e+000,3.0563456833e+000,2.2978410529e+000,4.0113358833e+000,2.2642775193e+000,2.9388918188e+000,2.6119488752e+000,3.4910694997e+000,2.0506733046e+000,3.2147761122e+000,
3.6750000000e+001,3.1597960153e+000,3.2067731466e+000,2.7160629575e+000,3.0929464275e+000,2.5244046563e+000,3.1978008909e+000,2.4035742550e+000,3.8882337130e+000,2.4175696612e+000,3.0175077475e+000,2.5770742853e+000,3.5918399802e+000,2.0471035987e+000,3.3239883548e+000,
3.6843750000e+001,3.1320937900e+000,3.1884373342e+000,2.7158199474e+000,3.1930170676e+000,2.5721973707e+000,3.2027409835e+000,2.4664670092e+000,3.8972634004e+000,2.2896787971e+000,3.1601794580e+000,2.5903826541e+000,3.6458682392e+000,1.9957195336e+000,3.4500145683e+000,
3.6937500000e+001,3.0867558858e+000,3.2265431873e+000,2.7538021977e+000,3.1560752243e+000,2.6274132120e+000,3.1729357172e+000,2.5468617271e+000,3.8983243299e+000,2.2367612171e+000,3.1739278159e+000,2.5488405849e+000,3.6310815890e+000,2.0206423169e+000,3.4202085398e+000,
3.7031250000e+001,3.1853117914e+000,3.3036562726e+000,2.7839737647e+000,3.2746201929e+000,2.6039008819e+000,3.2450915364e+000,2.5936380279e+000,3.9774192802e+000,2.1814654082e+000,3.1295780613e+000,2.5872601514e+000,3.5395795465e+000,1.9706805551e+000,3.2564779736e+000,
3.7125000000e+001,3.2029712321e+000,3.2977612025e+000,2.8432823121e+000,3.3080591962e+000,2.7437892011e+000,3.2934661553e+000,2.8604752583e+000,3.9511694013e+000,2.2102809660e+000,3.2143633209e+000,2.5077174054e+000,3.5811760695e+000,2.1271371296e+000,3.2571551049e+000,
3.7218750000e+001,3.1267640044e+000,3.1943025340e+000,2.8483515442e+000,3.3106559652e+000,2.6985472710e+000,3.2909764433e+000,2.8119510788e+000,3.9138255395e+000,2.1848881536e+000,3.2463140491e+000,2.4790666200e+000,3.5396830861e+000,2.2234551502e+000,3.3300725082e+000,
3.7312500000e+001,3.0584638897e+000,3.1216874552e+000,2.7445749253e+000,3.1564272724e+000,2.6166361037e+000,3.2488840193e+000,2.7697657044e+000,3.8423448848e+000,2.2805211173e+000,3.3308948948e+000,2.4575677759e+000,3.5251203694e+000,2.2550762113e+000,3.3109816709e+000,
3.7406250000e+001,3.0267285476e+000,3.1136878709e+000,2.7728203477e+000,3.0992439784e+000,2.5658570487e+000,3.2447330818e+000,2.7684030330e+000,3.8245101995e+000,2.3250312720e+000,3.3883361603e+000,2.4399512823e+000,3.5573632725e+000,2.3001489852e+000,3.3326428993e+000,
3.7500000000e+001,3.0047276284e+000,2.9090623518e+000,2.7073269498e+000,2.9893016529e+000,2.5387076636e+000,3.2137328407e+000,2.7588534820e+000,3.7421381079e+000,2.4163900122e+000,3.3551891495e+000,2.3413150616e+000,3.4947897828e+000,2.3508049089e+000,3.3040281056e+000,
3.7593750000e+001,3.1395849655e+000,2.9999720988e+000,2.7932267347e+000,3.0600053145e+000,2.7206705801e+000,3.3918563957e+000,2.7434305462e+000,3.7095881195e+000,2.4810838412e+000,3.4495566236e+000,2.2037955602e+000,3.4770073045e+000,2.4334647000e+000,3.3157537512e+000,
3.7687500000e+001,3.1879626316e+000,3.0119335812e+000,2.7508113809e+000,3.0866899827e+000,2.7296535285e+000,3.3736500118e+000,2.7200938310e+000,3.7348132677e+000,2.4254518594e+000,3.4724141479e+000,2.1332428021e+000,3.4291845185e+000,2.4535601345e+000,3.2414513460e+000,
3.7781250000e+001,3.0417941250e+000,3.0035339560e+000,2.7278511325e+000,3.0682148218e+000,2.6688868052e+000,3.2512839538e+000,2.6996739008e+000,3.8932352014e+000,2.3096761544e+000,3.3792415041e+000,2.1944483150e+000,3.3830639854e+000,2.4679653323e+000,3.1779653398e+000,
3.7875000000e+001,2.9821910444e+000,3.0901175973e+000,2.6989660344e+000,3.0013015954e+000,2.5289949753e+000,3.2825590808e+000,2.6434863246e+000,3.9104827344e+000,2.4049840119e+000,3.3116418583e+000,2.2206159745e+000,3.3192449342e+000,2.5223081808e+000,3.1040734432e+000,
3.7968750000e+001,3.0274026409e+000,3.0841216630e+000,2.7018951137e+000,2.9859089410e+000,2.5309364706e+000,3.3112889393e+000,2.7454273996e+000,3.7806510514e+000,2.4638606561e+000,3.3438706873e+000,2.2567854654e+000,3.4136692788e+000,2.6112308307e+000,3.2712355139e+000,
3.8062500000e+001,2.9689532506e+000,3.0183558790e+000,2.7550189107e+000,2.9989416642e+000,2.5186681062e+000,3.2959377226e+000,2.7956510404e+000,3.7232864075e+000,2.4711076676e+000,3.3277412304e+000,2.2445683341e+000,3.5254303262e+000,2.6342573530e+000,3.4636618903e+000,
3.8156250000e+001,2.8565920937e+000,3.0172125942e+000,2.7271620398e+000,2.8537355974e+000,2.3434263855e+000,3.2096647542e+000,2.6618205204e+000,3.7457219945e+000,2.4709920697e+000,3.1883049888e+000,2.3625204746e+000,3.5265250708e+000,2.6707347522e+000,3.4628631211e+000,
3.8250000000e+001,2.8294146509e+000,3.0974142778e+000,2.7194287009e+000,2.7723958532e+000,2.3713734056e+000,3.1702214111e+000,2.6802251433e+000,3.7238122163e+000,2.4072745225e+000,3.1232445403e+000,2.3533648842e+000,3.5810148151e+000,2.5710657178e+000,3.4521418612e+000,
3.8343750000e+001,2.9794665723e+000,3.1605114201e+000,2.7972859830e+000,2.8268406176e+000,2.3908759677e+000,3.1465060820e+000,2.6427818390e+000,3.7032808064e+000,2.2705718250e+000,2.9526608221e+000,2.3395985489e+000,3.5958773980e+000,2.6120215830e+000,3.5400327348e+000,
3.8437500000e+001,2.9551345478e+000,3.2982582804e+000,2.9427322418e+000,2.9719371317e+000,2.4791985398e+000,3.2490672415e+000,2.8766504196e+000,3.7708514661e+000,2.1788586452e+000,3.0515976820e+000,2.4330952459e+000,3.6135609272e+000,2.6333941510e+000,3.5935401951e+000,
3.8531250000e+001,2.9119525785e+000,3.2864554291e+000,2.9534777727e+000,2.9482478046e+000,2.4661771391e+000,3.1903831348e+000,2.8654341386e+000,3.8311320900e+000,2.0039812888e+000,3.0216186496e+000,2.4540803513e+000,3.5401382932e+000,2.6055032699e+000,3.5918273642e+000,
3.8625000000e+001,2.7608020627e+000,3.2881142664e+000,2.8864435479e+000,2.7668338634e+000,2.3816646464e+000,2.9488822435e+000,2.9067548523e+000,3.8317909693e+000,1.9279921956e+000,2.8228461417e+000,2.4854619511e+000,3.4711018885e+000,2.6218852724e+000,3.5278282785e+000,
3.8718750000e+001,2.8286616882e+000,3.2345120804e+000,2.8810217134e+000,2.9059890969e+000,2.4130240784e+000,2.9849526598e+000,2.9358177058e+000,3.7263888899e+000,1.8850976373e+000,2.9026111613e+000,2.5145397737e+000,3.4558859797e+000,2.5898267436e+000,3.5965709645e+000,
3.8812500000e+001,2.9365327771e+000,3.2715988772e+000,2.9574820554e+000,2.9746877720e+000,2.4243236786e+000,3.0283846954e+000,2.9275294800e+000,3.6232739698e+000,1.5016313700e+000,2.8711822531e+000,2.5226674906e+000,3.4236386976e+000,2.5843607812e+000,3.6198432588e+000,
3.8906250000e+001,2.8871706604e+000,3.1670567905e+000,2.9524437818e+000,2.9212739324e+000,2.3380069959e+000,2.8909963824e+000,2.8110957938e+000,3.5917707872e+000,1.4247543138e+000,2.8655684589e+000,2.6066380733e+000,3.3713334324e+000,2.4059480243e+000,3.5881417498e+000,
3.9000000000e+001,2.8800677631e+000,3.2348279096e+000,2.9390442577e+000,2.9279293266e+000,2.4046403000e+000,2.7950767733e+000,2.8759276085e+000,3.6496597890e+000,1.3587153914e+000,2.8537366256e+000,2.6257556465e+000,3.2713632386e+000,2.3886592947e+000,3.4617633778e+000,
3.9093750000e+001,2.8559037000e+000,3.2573035498e+000,2.8943797770e+000,3.1625837049e+000,2.3933714983e+000,2.9373178207e+000,2.7701248088e+000,3.6627662384e+000,1.3562790589e+000,2.8991617774e+000,2.6039838893e+000,3.1488493764e+000,2.4309900817e+000,3.2797690590e+000,
3.9187500000e+001,2.9331442865e+000,3.2856606970e+000,2.9335431924e+000,3.2892824348e+000,2.4256124337e+000,2.9698961440e+000,2.6917662617e+000,3.6917037680e+000,1.3334444443e+000,3.0579462335e+000,2.5663873646e+000,3.2712753332e+000,2.5035947386e+000,3.3290012796e+000,
3.9281250000e+001,3.0138053090e+000,3.2237602671e+000,3.0493683639e+000,3.3269956829e+000,2.4583073051e+000,3.0373369044e+000,2.6996090542e+000,3.8281014034e+000,1.4797530640e+000,3.0431980047e+000,2.6332086928e+000,3.3082815695e+000,2.5414935872e+000,3.3580110469e+000,
3.9375000000e+001,2.9635457629e+000,3.1498615904e+000,3.0199238672e+000,3.3089277146e+000,2.4576824536e+000,3.1344589812e+000,2.6511821961e+000,3.9224832265e+000,1.5905920138e+000,3.1185413045e+000,2.6525795774e+000,3.3443786831e+000,2.4935249918e+000,3.2722390114e+000,
3.9468750000e+001,2.8990852248e+000,3.0446753851e+000,2.8547263004e+000,3.1780405361e+000,2.4108167338e+000,3.0775878949e+000,2.3003164052e+000,3.8005317717e+000,1.6500912982e+000,3.0011187103e+000,2.5850133764e+000,3.4135765967e+000,2.4104339411e+000,3.3166944594e+000,
3.9562500000e+001,3.0125091678e+000,3.1836004934e+000,2.9293609168e+000,3.2134920490e+000,2.6533279336e+000,3.1330689572e+000,2.4268057339e+000,3.7352810228e+000,1.7118610459e+000,3.0874436646e+000,2.6679742824e+000,3.4167971840e+000,2.4048164718e+000,3.3028406315e+000,
3.9656250000e+001,3.0302899597e+000,3.2355736255e+000,2.8937131841e+000,3.2261676334e+000,2.6316842750e+000,3.1854202926e+000,2.4806240738e+000,3.7573336133e+000,1.6995074514e+000,3.0661395119e+000,2.6455563965e+000,3.4511945950e+000,2.4883988802e+000,3.2930629855e+000,
3.9750000000e+001,3.0261576149e+000,3.1893377163e+000,2.8767698044e+000,3.2063765475e+000,2.6854619306e+000,3.2393349663e+000,2.4957024601e+000,3.7483684964e+000,1.6849044048e+000,3.1314835104e+000,2.6036647475e+000,3.4986382169e+000,2.5965222919e+000,3.3200600397e+000,
3.9843750000e+001,3.0498356135e+000,3.2363924209e+000,2.8288269173e+000,3.2271684314e+000,2.7561079662e+000,3.2330069954e+000,2.5535512327e+000,3.6973167752e+000,1.6602911866e+000,3.2055505606e+000,2.5791544460e+000,3.5819004573e+000,2.6824359391e+000,3.2954719001e+000,
3.9937500000e+001,3.0545686209e+000,3.3323087289e+000,2.7787175161e+000,3.2415544649e+000,2.7607276339e+000,3.3245225576e+000,2.4916324418e+000,3.7509078585e+000,1.7173364894e+000,3.2176063623e+000,2.4897462671e+000,3.6535090622e+000,2.6861771349e+000,3.3412006291e+000,
4.0031250000e+001,3.1048813740e+000,3.2582030262e+000,2.8772668487e+000,3.1695297008e+000,2.7830363360e+000,3.2426404539e+000,2.3172663196e+000,3.6551675422e+000,1.8426827266e+000,3.1043058257e+000,2.6347992792e+000,3.7587383764e+000,2.6600328523e+000,3.3812618729e+000,
4.0125000000e+001,3.0621812778e+000,3.0947010061e+000,2.8294638208e+000,2.8901806349e+000,2.7184172806e+000,3.1883030561e+000,2.3330167911e+000,3.5760541123e+000,1.8661661349e+000,3.0888122264e+000,2.7169381185e+000,3.6744020760e+000,2.5092929019e+000,3.3111266558e+000,
4.0218750000e+001,3.1204732883e+000,3.1539033496e+000,2.8065986094e+000,2.8673168577e+000,2.7677698100e+000,3.2089066142e+000,2.3960594325e+000,3.6009541850e+000,1.8366705448e+000,3.0076307854e+000,2.7376427245e+000,3.6879385385e+000,2.3590866441e+000,3.2227849902e+000,
4.0312500000e+001,3.1102145135e+000,3.1607765500e+000,2.6852421341e+000,2.9572799230e+000,2.7287966356e+000,3.2165340761e+000,2.4262038381e+000,3.6051017651e+000,1.7099968858e+000,3.0638771721e+000,2.6533106737e+000,3.6447979860e+000,2.2718459717e+000,3.1073617477e+000,
4.0406250000e+001,3.1228400692e+000,3.2212771474e+000,2.6822379744e+000,3.0345233795e+000,2.6561897705e+000,3.2143503080e+000,2.3883029794e+000,3.6505894693e+000,1.6649640704e+000,3.0004784829e+000,2.6709295257e+000,3.6301089106e+000,2.3489240826e+000,3.3035369562e+000,
4.0500000000e+001,3.2096206044e+000,3.2514358376e+000,2.7727686779e+000,3.1151447351e+000,2.7231444780e+000,3.3239400597e+000,2.3739706744e+000,3.7963144767e+000,1.6652074342e+000,3.2121176506e+000,2.6923565081e+000,3.6437498237e+000,2.3631430931e+000,3.4325176789e+000,
4.0593750000e+001,3.1389291486e+000,2.9800030980e+000,2.6699377555e+000,3.0601610938e+000,2.5778076854e+000,3.2483636642e+000,2.3741616057e+000,3.7198995903e+000,1.5307677472e+000,3.1722248936e+000,2.7189288425e+000,3.6305444051e+000,2.2658484052e+000,3.4213838928e+000,
4.0687500000e+001,3.0624999744e+000,2.8731998457e+000,2.6201156533e+000,3.0268206965e+000,2.4717957149e+000,3.1684601156e+000,2.2534011582e+000,3.7371223398e+000,1.5376638268e+000,3.2060659139e+000,2.7198813724e+000,3.6771709885e+000,2.2984523928e+000,3.4928948452e+000,
4.0781250000e+001,3.0738392295e+000,2.8557764863e+000,2.6276957237e+000,2.8880495492e+000,2.4143972443e+000,3.1668577100e+000,2.0718325192e+000,3.8041182478e+000,1.6959891826e+000,3.0922179294e+000,2.7130804565e+000,3.6392929200e+000,2.3509188423e+000,3.5492898492e+000,
4.0875000000e+001,2.9974790045e+000,2.7788654192e+000,2.5506989896e+000,2.9078350845e+000,2.4289170718e+000,3.2157724393e+000,2.0622066452e+000,3.7882934207e+000,1.9864314738e+000,3.1082754170e+000,2.6892316854e+000,3.6039037550e+000,2.3932040252e+000,3.5294320012e+000,
4.0968750000e+001,3.0290166265e+000,2.7145547125e+000,2.6201406794e+000,2.9623318689e+000,2.5420116294e+000,3.3424795756e+000,2.1874490758e+000,3.8061198426e+000,2.0028877354e+000,3.0531215408e+000,2.6538239509e+000,3.5126710595e+000,2.4311438021e+000,3.4791764156e+000,
4.1062500000e+001,2.9591923735e+000,2.7537479018e+000,2.4980746411e+000,2.9843832513e+000,2.5133304303e+000,3.4197425781e+000,2.2872763361e+000,3.8000128414e+000,1.9456775456e+000,3.0397905058e+000,2.6726709202e+000,3.3525671004e+000,2.4517473956e+000,3.3955960077e+000,
4.1156250000e+001,2.9293575483e+000,2.8320804395e+000,2.4993944490e+000,2.8871036059e+000,2.5621678915e+000,3.4244310592e+000,2.4325261374e+000,3.8483254573e+000,1.9161393432e+000,3.0773642073e+000,2.6773418163e+000,3.3892852312e+000,2.5753365236e+000,3.4367729618e+000,
