Time (s),AF3,AF4,F3,F4,F7,F8,FC5,FC6,T7,T8,P7,P8,O1,O2,Sampling Rate
0.0000000000e+000,4.7727356275e+000,4.4792154885e+000,3.1468094902e+000,4.2869541407e+000,4.1765959973e+000,4.6385538734e+000,4.0702546708e+000,2.9127726029e+000,4.3239922992e+000,5.2807716152e+000,4.0490951069e+000,4.4872285949e+000,3.4421968732e+000,3.4779991867e+000,1
9.3750000000e-002,4.5783819106e+000,4.3258097154e+000,3.2317827517e+000,4.3289162763e+000,4.0928406583e+000,4.6715814018e+000,4.1248125480e+000,2.8798248067e+000,4.2522758020e+000,5.4860548953e+000,3.8371368406e+000,4.5971490799e+000,3.4163233437e+000,3.5864359011e+000,
1.8750000000e-001,4.4985394818e+000,4.1750838811e+000,3.2006595649e+000,4.2983876981e+000,4.0381607977e+000,4.6351084760e+000,4.0965581386e+000,2.9184729832e+000,4.2373967289e+000,5.3944594803e+000,3.8282781600e+000,4.5282239646e+000,3.4300374615e+000,3.5738406969e+000,
2.8125000000e-001,4.3707111177e+000,4.0882215864e+000,3.0712872805e+000,4.2377213444e+000,3.9035725289e+000,4.5851671261e+000,3.9977971822e+000,2.9287292198e+000,4.2215102280e+000,5.3400495449e+000,3.8585265936e+000,4.4439659115e+000,3.3992978155e+000,3.4700800107e+000,
3.7500000000e-001,4.0732950173e+000,3.8916213648e+000,2.9132085914e+000,4.0268739468e+000,3.4846747837e+000,4.3093047096e+000,3.7739287377e+000,2.8179251424e+000,3.9774732758e+000,5.3168431464e+000,3.6287701890e+000,4.2861002089e+000,3.2998497626e+000,3.4116927097e+000,
4.6875000000e-001,4.0591342773e+000,3.9239969279e+000,2.7401018318e+000,3.9831818745e+000,3.5256699224e+000,4.2915080299e+000,3.7061950014e+000,2.8366277393e+000,3.9681572177e+000,5.2935340963e+000,3.5393741166e+000,4.1994631746e+000,3.3323936336e+000,3.4570313319e+000,
5.6250000000e-001,4.0284539165e+000,3.8727759171e+000,2.7975514099e+000,3.8628927886e+000,3.5920837074e+000,4.2548352498e+000,3.7386041361e+000,2.7842019068e+000,3.9609633015e+000,5.3396385788e+000,3.4778405860e+000,4.2124276558e+000,3.2470331541e+000,3.4086803325e+000,
6.5625000000e-001,3.9762126385e+000,3.8473638352e+000,2.7098487206e+000,3.8053626321e+000,3.6059632126e+000,4.2066297847e+000,3.6838513406e+000,2.8362422172e+000,4.0847619794e+000,5.3006714377e+000,3.3999036101e+000,4.1574894001e+000,3.2183892228e+000,3.3009353666e+000,
7.5000000000e-001,3.9254876223e+000,3.8100195673e+000,2.6530886762e+000,3.8138742685e+000,3.6846805358e+000,4.1796087838e+000,3.6971749849e+000,2.9301980748e+000,4.1200467790e+000,5.3187874339e+000,3.4176488481e+000,4.1277936839e+000,3.1168548818e+000,3.2734654373e+000,
8.4375000000e-001,3.8172191439e+000,3.6385984405e+000,2.5225976666e+000,3.5945322455e+000,3.4896886671e+000,4.0665922173e+000,3.6212578797e+000,2.8796703036e+000,4.1006399823e+000,5.3175760240e+000,3.3700977806e+000,3.9974725379e+000,3.0086316367e+000,3.1041526198e+000,
9.3750000000e-001,3.7051020415e+000,3.6220317072e+000,2.5306584241e+000,3.5953686743e+000,3.4398797421e+000,3.8545769293e+000,3.5937110649e+000,2.8277343084e+000,4.0769205132e+000,5.2928180837e+000,3.4898392042e+000,3.9582299983e+000,2.7677445536e+000,3.1112380465e+000,
1.0312500000e+000,3.4922547889e+000,3.3938012796e+000,2.4487767891e+000,3.4069462471e+000,3.3198276989e+000,3.4848495846e+000,3.3588830301e+000,2.8814773297e+000,4.0205276267e+000,5.1728070284e+000,3.4744767202e+000,4.0281769580e+000,2.8061809657e+000,3.0400055191e+000,
1.1250000000e+000,3.4239095922e+000,3.5355636766e+000,2.3052629037e+000,3.3866193403e+000,3.4536222906e+000,3.3164316880e+000,3.2355346084e+000,2.7958793420e+000,4.0178494568e+000,4.8999709068e+000,3.5182532031e+000,3.8431510278e+000,2.7533784770e+000,2.9011800706e+000,
1.2187500000e+000,3.5723316787e+000,3.7675260253e+000,2.3851460059e+000,3.5463700046e+000,3.5404523957e+000,3.3893070489e+000,3.4268514459e+000,2.7374812996e+000,4.0474848619e+000,4.8931392807e+000,3.5463185283e+000,3.9366038393e+000,2.6949465794e+000,3.0504538972e+000,
1.3125000000e+000,3.6978369416e+000,3.7686088604e+000,2.3893866546e+000,3.5565491018e+000,3.6109768142e+000,3.3306372495e+000,3.4543551011e+000,2.7251026022e+000,4.1073969920e+000,4.8973751316e+000,3.4548277703e+000,3.8374936665e+000,2.6840986558e+000,2.9767652798e+000,
1.4062500000e+000,3.6575635589e+000,3.7670482723e+000,2.4099375129e+000,3.5582407477e+000,3.6879297079e+000,3.3722360050e+000,3.4993598989e+000,2.6552303285e+000,4.0665253179e+000,4.9123891395e+000,3.3867594479e+000,3.7520229280e+000,2.6943239391e+000,2.9493162017e+000,
1.5000000000e+000,3.7243511294e+000,3.8023791062e+000,2.6014081174e+000,3.6352682090e+000,3.7730947711e+000,3.5552718810e+000,3.6247809521e+000,2.6287830554e+000,4.0815985589e+000,5.0705574418e+000,3.4026834929e+000,3.7962997788e+000,2.7002672786e+000,3.0441978020e+000,
1.5937500000e+000,3.6729529540e+000,3.8598794727e+000,2.5265360685e+000,3.6962129560e+000,3.7956556223e+000,3.6167833813e+000,3.5226683607e+000,2.7973607672e+000,4.0190144561e+000,5.0794116473e+000,3.4893647480e+000,3.9235457285e+000,2.6590530422e+000,3.1083664340e+000,
1.6875000000e+000,3.6495197136e+000,3.9432271545e+000,2.5811197466e+000,3.7967403083e+000,3.8039385800e+000,3.7761235269e+000,3.5727448494e+000,2.7388742303e+000,4.0275016327e+000,5.1224963669e+000,3.5937266678e+000,4.0265633490e+000,2.7123494312e+000,3.2365723664e+000,
1.7812500000e+000,3.6148140453e+000,3.9469838177e+000,2.7072837218e+000,3.8159119482e+000,3.7427667615e+000,3.7826720520e+000,3.6349416676e+000,2.6804466649e+000,4.0451257334e+000,5.1254473641e+000,3.6493904635e+000,4.0308667729e+000,2.9418794580e+000,3.2273815500e+000,
1.8750000000e+000,3.8060049344e+000,4.1308871742e+000,2.8671482399e+000,3.9974444043e+000,3.9398230399e+000,3.9123152667e+000,3.7904572508e+000,2.7920462256e+000,4.2224006650e+000,5.1350054977e+000,3.7895816436e+000,4.1039793818e+000,3.1254411109e+000,3.2515183235e+000,
1.9687500000e+000,3.8525610340e+000,4.1829298127e+000,3.0218116216e+000,4.0562903683e+000,3.9865567887e+000,4.0721676601e+000,3.8632430874e+000,2.8352277043e+000,4.2367860485e+000,5.1722194770e+000,3.8235850077e+000,4.0683504127e+000,3.2340606745e+000,3.3496290277e+000,
2.0625000000e+000,3.8473791688e+000,4.2507023216e+000,3.0819250334e+000,4.1151959117e+000,4.0302977087e+000,4.1946420291e+000,3.8609596116e+000,2.9458723189e+000,4.1869743002e+000,5.2998433160e+000,3.8585054488e+000,4.0676482878e+000,3.2012895178e+000,3.3814987943e+000,
2.1562500000e+000,3.7698021831e+000,4.1662276804e+000,3.0126301633e+000,4.0915761334e+000,3.9554355787e+000,4.2650762264e+000,3.8286484461e+000,2.9716088440e+000,4.1661415539e+000,5.2929645781e+000,3.8587273255e+000,4.0739998697e+000,3.1949905040e+000,3.3243805482e+000,
2.2500000000e+000,3.7408200142e+000,4.0985491889e+000,3.0593126038e+000,4.0878153109e+000,3.9088003215e+000,4.3147618385e+000,3.7805434176e+000,3.1456966008e+000,4.0638764367e+000,5.3009626233e+000,3.8609537990e+000,4.0918502839e+000,3.2842835888e+000,3.2723028286e+000,
2.3437500000e+000,3.8023899949e+000,4.1683133450e+000,3.1104874445e+000,4.1641086766e+000,4.0352074608e+000,4.4328246359e+000,3.7862238499e+000,3.2540329948e+000,4.0975125178e+000,5.3099350867e+000,3.8631202743e+000,4.1072609378e+000,3.2802821999e+000,3.2933468954e+000,
2.4375000000e+000,3.8039441254e+000,4.1623709389e+000,3.1149942203e+000,4.1550368728e+000,3.9750857646e+000,4.4306513732e+000,3.7660336059e+000,3.2645990094e+000,4.1405225023e+000,5.3370514186e+000,3.8650391009e+000,4.0777083386e+000,3.1973907942e+000,3.1251091187e+000,
2.5312500000e+000,3.9700106317e+000,4.2461199868e+000,3.0951119845e+000,4.1360649463e+000,3.9452413448e+000,4.3833367443e+000,3.7817801198e+000,3.2672796977e+000,4.1700738455e+000,5.2356694943e+000,3.8479077368e+000,4.0038271274e+000,3.2197408341e+000,3.1930609391e+000,
2.6250000000e+000,4.0731689471e+000,4.3084665135e+000,3.1946267861e+000,4.1733882603e+000,4.0317924274e+000,4.4725023845e+000,3.9369508388e+000,3.1680024141e+000,4.2452202866e+000,5.2559709322e+000,3.8923258348e+000,4.0146284118e+000,3.3138747272e+000,3.2034253756e+000,
2.7187500000e+000,4.0689392595e+000,4.2437083105e+000,3.2095473780e+000,4.1074997475e+000,4.0499149207e+000,4.5051010472e+000,4.0979318756e+000,3.1572741059e+000,4.3164149173e+000,5.2959980829e+000,3.8695926181e+000,4.0148565244e+000,3.2693956956e+000,3.1344573794e+000,
2.8125000000e+000,4.1162516069e+000,4.2095942645e+000,3.1615670386e+000,4.1976286743e+000,4.0941277356e+000,4.4977462790e+000,4.1570501911e+000,3.1843455413e+000,4.1876631104e+000,5.1269338477e+000,3.9470535843e+000,3.9719552624e+000,3.2487416385e+000,3.1208635267e+000,
2.9062500000e+000,4.0985460158e+000,4.2768262431e+000,3.0585047115e+000,4.1276465868e+000,3.9706529618e+000,4.4612760069e+000,4.1586843355e+000,3.1304970561e+000,4.0463048731e+000,5.0830292509e+000,3.8412003391e+000,3.9625284904e+000,3.1109506060e+000,3.0370602180e+000,
3.0000000000e+000,4.0716087014e+000,4.2397622094e+000,2.9912607915e+000,4.0840397824e+000,4.0214240608e+000,4.4362930459e+000,4.1120229414e+000,3.0856389196e+000,4.1333039711e+000,5.0668061504e+000,3.8858113150e+000,3.9932534375e+000,3.0765528853e+000,2.9538286147e+000,
3.0937500000e+000,4.1203630084e+000,4.2452998763e+000,3.0145728273e+000,4.1194313783e+000,4.0143911795e+000,4.3850306342e+000,4.1352924670e+000,2.9974082595e+000,4.1862603704e+000,4.9455635219e+000,3.8884669404e+000,4.0484283462e+000,3.1048723121e+000,2.8977123822e+000,
3.1875000000e+000,4.1162230098e+000,4.2712311377e+000,3.0465676547e+000,4.1327023939e+000,4.0082176296e+000,4.2972412668e+000,4.2328992604e+000,2.9629300627e+000,4.2296469798e+000,5.0232381261e+000,3.8582306569e+000,4.1867999805e+000,3.0998937734e+000,2.9737411119e+000,
3.2812500000e+000,4.0782791599e+000,4.2511709587e+000,3.0102038184e+000,4.0851431930e+000,4.0137759174e+000,4.3266537671e+000,4.2072853882e+000,2.8525724115e+000,4.1896997571e+000,5.0235150734e+000,3.8699805703e+000,4.3122219468e+000,3.1025307685e+000,2.9725254367e+000,
3.3750000000e+000,4.0834845237e+000,4.2499409421e+000,3.0855439050e+000,4.0643043426e+000,3.9898383211e+000,4.2591503807e+000,4.1711576553e+000,2.8612368080e+000,4.1853528823e+000,4.9798885379e+000,3.9276992433e+000,4.3125379719e+000,3.1153955838e+000,3.0158649266e+000,
3.4687500000e+000,4.1106471239e+000,4.2926494282e+000,3.1131626487e+000,4.1624289118e+000,3.9769795307e+000,4.3145386521e+000,4.2677931056e+000,2.9003260672e+000,4.2933356313e+000,4.9670755729e+000,3.9465348069e+000,4.4115734126e+000,3.1235878656e+000,3.2111622847e+000,
3.5625000000e+000,3.8463209381e+000,4.1581835246e+000,3.0410538437e+000,4.1740343380e+000,3.8663316085e+000,4.2650151265e+000,4.1610917341e+000,2.9033837038e+000,4.2449084772e+000,4.9201272142e+000,3.9382363177e+000,4.4419034106e+000,3.1062365184e+000,3.2168192430e+000,
3.6562500000e+000,3.8356597492e+000,4.0334282135e+000,2.9643362314e+000,4.1421973002e+000,3.7992029574e+000,4.0553771664e+000,4.0613608378e+000,2.8020124880e+000,4.2342761485e+000,4.9042476972e+000,3.9644269911e+000,4.3973292349e+000,3.0964628169e+000,3.4220520899e+000,
3.7500000000e+000,3.9107729287e+000,4.0870640118e+000,3.0023696854e+000,4.0751984578e+000,3.7726392908e+000,4.1098876949e+000,3.9294716425e+000,2.8331015609e+000,4.1023762013e+000,4.9397792638e+000,3.9442862782e+000,4.3924016127e+000,3.0544547840e+000,3.6704003200e+000,
3.8437500000e+000,3.8117387731e+000,3.9138031310e+000,3.0304595841e+000,4.1368291788e+000,3.6507319472e+000,4.0171620368e+000,3.8396597672e+000,2.8257593590e+000,4.0284544992e+000,4.9909902098e+000,3.7554765427e+000,4.4632449048e+000,2.9307772969e+000,3.9123121374e+000,
3.9375000000e+000,3.9496683083e+000,4.0040816553e+000,3.2546344986e+000,4.2433065676e+000,3.6733054136e+000,4.1181149824e+000,3.8363041273e+000,2.8469765245e+000,4.0352848072e+000,5.0796507523e+000,3.8039817264e+000,4.4949586289e+000,3.0248511120e+000,4.1340033962e+000,
4.0312500000e+000,3.9443233150e+000,4.0078911481e+000,3.3055792962e+000,4.2403835393e+000,3.6140010009e+000,4.0755751561e+000,3.8180411205e+000,2.8082998276e+000,3.8718390202e+000,5.0867833194e+000,3.6637837393e+000,4.4775689210e+000,2.9901651772e+000,4.2254693660e+000,
4.1250000000e+000,3.8770484270e+000,3.8549820067e+000,3.2931608253e+000,4.1743548507e+000,3.6866431189e+000,4.0658929214e+000,3.7749346854e+000,2.7126309469e+000,3.9188423617e+000,5.0596667823e+000,3.7577925202e+000,4.4786376401e+000,2.9359422621e+000,4.2852220198e+000,
4.2187500000e+000,3.8583122328e+000,3.9368270933e+000,3.2829825078e+000,4.2062451280e+000,3.6820717168e+000,4.1172679760e+000,3.6904060348e+000,2.6791340044e+000,3.9428320538e+000,5.0104939282e+000,3.7597523617e+000,4.4156638818e+000,2.9521192752e+000,4.3607217730e+000,
4.3125000000e+000,3.8790615519e+000,4.0419545412e+000,3.2908154639e+000,4.2754589003e+000,3.4951085278e+000,4.0406194183e+000,3.6231017545e+000,2.6680476114e+000,3.9477788223e+000,4.9588867567e+000,3.7276332878e+000,4.2939271623e+000,2.8926686564e+000,4.3562584461e+000,
4.4062500000e+000,4.0407524163e+000,4.2878815761e+000,3.3167793877e+000,4.3574565974e+000,3.5488738053e+000,4.3288663604e+000,3.6222050292e+000,2.6729632796e+000,3.8925546142e+000,4.9892287979e+000,3.6823610338e+000,4.3300013176e+000,2.9411640146e+000,4.3708350525e+000,
4.5000000000e+000,4.0592530542e+000,4.3694400388e+000,3.3406293303e+000,4.4087387706e+000,3.5633856200e+000,4.3666977129e+000,3.5580474547e+000,2.6641056233e+000,3.6917478410e+000,5.0702783033e+000,3.6061509084e+000,4.2771130907e+000,2.9437452752e+000,4.4723873828e+000,
4.5937500000e+000,4.1241366054e+000,4.3942152713e+000,3.3405536557e+000,4.3669228900e+000,3.6126952053e+000,4.4416625353e+000,3.5668550043e+000,2.6858242715e+000,3.5679438515e+000,4.9895941388e+000,3.5735095507e+000,4.2350627038e+000,3.0802354403e+000,4.4958638420e+000,
4.6875000000e+000,4.0904322288e+000,4.4091833492e+000,3.3414174009e+000,4.3779488555e+000,3.6581883956e+000,4.4326245922e+000,3.5741151534e+000,2.6790120511e+000,3.5724836581e+000,4.9644714132e+000,3.4767736309e+000,4.1679267867e+000,3.0004144141e+000,4.4181977613e+000,
4.7812500000e+000,4.0479417448e+000,4.3976307178e+000,3.2870769447e+000,4.3738896745e+000,3.6334206204e+000,4.4495335767e+000,3.5976925505e+000,2.7030969886e+000,3.5696750218e+000,4.9452812408e+000,3.4237406090e+000,4.1476073376e+000,2.9539855108e+000,4.3483911858e+000,
4.8750000000e+000,3.9976584851e+000,4.2838143474e+000,3.1796877617e+000,4.1982660448e+000,3.6035645223e+000,4.3599242247e+000,3.4898936108e+000,2.6067673607e+000,3.6905290588e+000,4.8850759898e+000,3.4764222760e+000,4.0104201632e+000,2.9403635807e+000,4.1910976672e+000,
4.9687500000e+000,4.0453027546e+000,4.3522158473e+000,3.0802269534e+000,4.2469494124e+000,3.6879079682e+000,4.3435946679e+000,3.5473245321e+000,2.6155977315e+000,3.7495285249e+000,4.8028834580e+000,3.4842658952e+000,3.9128022026e+000,2.8104515911e+000,4.0087488136e+000,
5.0625000000e+000,4.0518920680e+000,4.4133313715e+000,3.0103871336e+000,4.3282171701e+000,3.5615089200e+000,4.3214600734e+000,3.5299163148e+000,2.5668198701e+000,3.7226339796e+000,4.8052138503e+000,3.3821040163e+000,3.7285493945e+000,2.9810053831e+000,3.8418358722e+000,
5.1562500000e+000,4.0752486888e+000,4.4277506575e+000,3.0250612570e+000,4.3669455329e+000,3.5788628402e+000,4.2730378565e+000,3.6707742843e+000,2.5836612060e+000,3.6994270742e+000,4.7995313233e+000,3.3779080094e+000,3.7021974098e+000,3.0853566901e+000,3.8512210003e+000,
5.2500000000e+000,4.2916558223e+000,4.3530810226e+000,3.0551416807e+000,4.2344215313e+000,3.9087997829e+000,4.1814389880e+000,3.7260506878e+000,2.4675397715e+000,3.8140114357e+000,4.7886286409e+000,3.4048188348e+000,3.6770552654e+000,3.1658827543e+000,3.8346915892e+000,
5.3437500000e+000,4.2850939474e+000,4.3155582844e+000,2.9837280208e+000,4.1806162866e+000,3.9706453076e+000,4.0975279578e+000,3.8027230581e+000,2.3634178707e+000,3.8288587792e+000,4.7420481245e+000,3.4609088211e+000,3.7032222464e+000,3.1314193670e+000,3.8341972727e+000,
5.4375000000e+000,4.2170303810e+000,4.0204089735e+000,2.8743730680e+000,3.9552610936e+000,3.9424510561e+000,3.7175920878e+000,3.7890439833e+000,2.3770180058e+000,3.8621624454e+000,4.6399704128e+000,3.5223276130e+000,3.6851577897e+000,3.1396930852e+000,3.8017635003e+000,
5.5312500000e+000,4.2690296033e+000,3.9681978743e+000,2.9205322981e+000,3.8999075854e+000,4.0804983475e+000,3.6471183879e+000,3.8167356434e+000,2.2247544142e+000,3.9933642899e+000,4.5487179989e+000,3.4928869917e+000,3.6489789209e+000,3.1988408270e+000,3.3453747233e+000,
5.6250000000e+000,4.2279996720e+000,3.8907049208e+000,2.8116820483e+000,3.7950016443e+000,4.0350784963e+000,3.3906654849e+000,3.7004975319e+000,2.1935075455e+000,4.0370465163e+000,4.5333235720e+000,3.4514360333e+000,3.7032732793e+000,2.9935913305e+000,3.3596617512e+000,
5.7187500000e+000,4.2563621577e+000,3.8968018516e+000,2.9308729831e+000,3.8398495710e+000,4.0430258947e+000,3.2988427633e+000,3.7566358811e+000,2.1031720731e+000,3.9710905923e+000,4.4764718974e+000,3.4308605144e+000,3.8137059374e+000,3.0415453506e+000,3.3813468684e+000,
5.8125000000e+000,4.2706842235e+000,3.9749997050e+000,2.9546921107e+000,3.8866583993e+000,4.0565084783e+000,3.4552593889e+000,3.7624746449e+000,2.1431066351e+000,3.9843343975e+000,4.4976216515e+000,3.5001105421e+000,3.8515346763e+000,3.0769425368e+000,3.3661018278e+000,
5.9062500000e+000,4.2379974425e+000,4.0130059620e+000,2.9216794888e+000,3.8430253619e+000,4.0564199885e+000,3.5162643433e+000,3.7870322820e+000,2.1709306586e+000,3.9627189276e+000,4.4612573232e+000,3.4071332789e+000,3.9243729389e+000,3.0590199239e+000,3.4469615595e+000,
6.0000000000e+000,4.3208985265e+000,4.1891885334e+000,3.0309818214e+000,3.9305755527e+000,4.1198328291e+000,3.6765489763e+000,3.8993157226e+000,2.2020249037e+000,3.9272365634e+000,4.4095835721e+000,3.4641605764e+000,4.1893216657e+000,3.1512369436e+000,3.6403520893e+000,
6.0937500000e+000,4.4132371354e+000,4.2041216176e+000,3.0868328433e+000,3.8497611629e+000,4.1577332062e+000,3.6983937684e+000,3.8998781424e+000,2.3231606425e+000,4.0697335932e+000,4.4368585401e+000,3.4382151227e+000,4.5739202479e+000,3.3327580326e+000,3.9364888935e+000,
6.1875000000e+000,4.4839812378e+000,4.2484872879e+000,3.1450855167e+000,3.8811680649e+000,4.2259165547e+000,3.8036620056e+000,3.8797842056e+000,2.3635823150e+000,4.1393934738e+000,4.4971711992e+000,3.5302585805e+000,4.7114040155e+000,3.4305870293e+000,4.0186104372e+000,
6.2812500000e+000,4.2630358430e+000,4.1775877459e+000,3.2851666742e+000,3.9519080678e+000,3.9338625583e+000,3.8160175684e+000,3.8354237048e+000,2.4446229039e+000,4.0438446097e+000,4.4345591479e+000,3.6805823623e+000,4.7010847531e+000,3.3905069516e+000,3.9622081649e+000,
6.3750000000e+000,4.3634905954e+000,4.3329152659e+000,3.4078857540e+000,4.0888799099e+000,4.1364756998e+000,4.0857138996e+000,3.9668246097e+000,2.5788416626e+000,4.1445536666e+000,4.6514369768e+000,3.9194864383e+000,4.7606030530e+000,3.7277157379e+000,4.0667369357e+000,
6.4687500000e+000,4.5598384834e+000,4.4966258788e+000,3.5247197762e+000,4.2260794898e+000,4.3446661720e+000,4.2418330185e+000,4.1716221058e+000,2.7678246640e+000,4.2057246629e+000,4.7315749320e+000,4.1672703191e+000,4.8409252125e+000,4.0125317472e+000,4.2385318373e+000,
6.5625000000e+000,4.5595825032e+000,4.5329287226e+000,3.5213027416e+000,4.2830404027e+000,4.2369240550e+000,4.2766592190e+000,4.3013563014e+000,2.8873097470e+000,4.2689652042e+000,4.8133082767e+000,4.2294501758e+000,5.0193302256e+000,4.0409023612e+000,4.3002435710e+000,
6.6562500000e+000,4.5688612099e+000,4.5133591605e+000,3.5737678953e+000,4.2734727876e+000,4.5593471887e+000,4.3000405442e+000,4.5143444759e+000,2.9373446243e+000,4.4528430143e+000,4.8334559465e+000,4.3111425679e+000,5.0732098174e+000,4.0823857470e+000,4.3442697733e+000,
6.7500000000e+000,4.6567845640e+000,4.5416932375e+000,3.6388540830e+000,4.2823548000e+000,4.6329102578e+000,4.2727481415e+000,4.7972548252e+000,2.9121046572e+000,4.4673757510e+000,4.8716905532e+000,4.2875496553e+000,5.0810884622e+000,4.1297237532e+000,4.3454860276e+000,
6.8437500000e+000,4.7223109085e+000,4.5101567760e+000,3.6907161028e+000,4.2632262717e+000,4.8328008837e+000,4.2595387472e+000,4.8761107475e+000,2.9393028172e+000,4.4277258306e+000,4.8535560811e+000,4.2900937628e+000,5.1229862211e+000,4.1569950757e+000,4.3905736602e+000,
6.9375000000e+000,4.7163055242e+000,4.4382945981e+000,3.7206201558e+000,4.2445477260e+000,4.8216886235e+000,4.2187264300e+000,4.8514362369e+000,3.0862781793e+000,4.4574827280e+000,4.8125565931e+000,4.3085554122e+000,5.0958935398e+000,4.1641456461e+000,4.3897768586e+000,
7.0312500000e+000,4.6978325774e+000,4.3590217680e+000,3.8441973633e+000,4.2018726813e+000,4.8704141995e+000,4.2497629533e+000,4.8977637744e+000,3.0865258864e+000,4.4528773807e+000,4.8859815007e+000,4.2775972482e+000,5.0750044988e+000,4.2331831149e+000,4.4032585052e+000,
7.1250000000e+000,4.6039671955e+000,4.3202871920e+000,3.9330937796e+000,4.2134660452e+000,4.8775840283e+000,4.2492631067e+000,4.9483071007e+000,3.0606373566e+000,4.3780796174e+000,4.9200658060e+000,4.2846685813e+000,5.0099672370e+000,4.1869549327e+000,4.3459139513e+000,
7.2187500000e+000,4.5971357826e+000,4.2912032288e+000,3.9408589246e+000,4.2132062513e+000,4.8988586736e+000,4.2707914601e+000,5.1253629959e+000,3.0267772181e+000,4.3303572317e+000,4.9466113610e+000,4.2942037219e+000,4.9526943096e+000,4.2097411056e+000,4.3156812989e+000,
7.3125000000e+000,4.6046353368e+000,4.2978831963e+000,3.8759062956e+000,4.1489940121e+000,5.0061637779e+000,4.3115239035e+000,5.2606721036e+000,3.0727239929e+000,4.3667948298e+000,4.9317668730e+000,4.0768733821e+000,4.9508591214e+000,4.2056610608e+000,4.3618614120e+000,
7.4062500000e+000,4.5013263878e+000,4.2295755086e+000,3.8522345918e+000,4.1329801557e+000,4.8973769334e+000,4.1851714821e+000,5.3443330352e+000,3.0593970119e+000,4.5183980763e+000,4.9352879833e+000,4.0196326430e+000,4.9600138422e+000,3.9002671998e+000,4.2706158460e+000,
7.5000000000e+000,4.4009161471e+000,4.0856429856e+000,3.8408602261e+000,4.0613959037e+000,4.8800430272e+000,4.1646946171e+000,5.4088951473e+000,2.9654027902e+000,4.5450561164e+000,5.0052988884e+000,4.0213109294e+000,4.9084451786e+000,3.8757066361e+000,4.1537201178e+000,
7.5937500000e+000,4.4722755806e+000,4.1248301591e+000,3.8477870476e+000,4.0900772553e+000,4.8994836688e+000,4.2166573574e+000,5.4248557217e+000,2.9707234717e+000,4.6148886250e+000,4.9985012882e+000,3.9991734475e+000,4.7926086522e+000,3.9032964897e+000,4.1551020454e+000,
7.6875000000e+000,4.5032764481e+000,4.2284982079e+000,3.8037951292e+000,4.1017273918e+000,4.7676270729e+000,4.2827062208e+000,5.2634486461e+000,2.9707484703e+000,4.5545934575e+000,5.0708629125e+000,3.9493120703e+000,4.7590097246e+000,3.8489695889e+000,4.1133325408e+000,
7.7812500000e+000,4.4779926227e+000,4.2838648926e+000,3.8040437439e+000,4.1595085690e+000,4.6597445191e+000,4.3766584530e+000,5.2405742994e+000,3.1325850350e+000,4.5826990607e+000,5.1116189572e+000,4.0635362395e+000,4.8511313909e+000,3.8188570286e+000,4.1411165290e+000,
7.8750000000e+000,4.4266276127e+000,4.2584391707e+000,3.8174546602e+000,4.1148570226e+000,4.5154789226e+000,4.3779360114e+000,5.2106789860e+000,3.1075395470e+000,4.5637934124e+000,5.0771681327e+000,4.0359494968e+000,4.8395575195e+000,3.8013509064e+000,4.0640978816e+000,
7.9687500000e+000,4.5050775926e+000,4.2930341330e+000,3.8134575248e+000,4.1192540897e+000,4.5820737083e+000,4.3629301189e+000,5.2505239607e+000,3.0983628630e+000,4.6525260863e+000,5.0990464534e+000,3.9963051750e+000,4.8159084337e+000,3.7631756060e+000,3.9837105801e+000,
8.0625000000e+000,4.5281596076e+000,4.4083610142e+000,3.7667039108e+000,4.2764712814e+000,4.5331263656e+000,4.4466480712e+000,5.2641542548e+000,3.8777864516e+000,4.6167991057e+000,5.1473679311e+000,4.0466410679e+000,4.7852618686e+000,3.6407397286e+000,3.8029265725e+000,
8.1562500000e+000,4.5020100026e+000,4.3438338528e+000,3.6264502390e+000,4.2595550280e+000,4.5009277535e+000,4.4213084716e+000,5.1862339309e+000,3.9519834666e+000,4.6089301324e+000,5.1575262814e+000,4.1250417642e+000,4.7492657427e+000,3.4589477330e+000,3.6760436203e+000,
8.2500000000e+000,4.6496949027e+000,4.4324675721e+000,3.7603767950e+000,4.2860342418e+000,4.4866474899e+000,4.5097647406e+000,5.0564782921e+000,4.0694988820e+000,4.6656600537e+000,5.1632852363e+000,4.1120689412e+000,4.7743170236e+000,3.3342272561e+000,3.5928356073e+000,
8.3437500000e+000,4.6360447200e+000,4.4955302747e+000,3.6973719293e+000,4.3838654899e+000,4.5043377288e+000,4.5115698943e+000,4.9267482127e+000,4.0678415102e+000,4.5912451080e+000,5.1358472502e+000,4.1875658355e+000,4.8396167133e+000,3.4139172963e+000,3.5684243476e+000,
8.4375000000e+000,4.5456629706e+000,4.4517677883e+000,3.6603600823e+000,4.3084125094e+000,4.5633333038e+000,4.4199622831e+000,4.7370980870e+000,4.0518682964e+000,4.3581098847e+000,4.9948572284e+000,3.9449141708e+000,4.7309566899e+000,3.3370639960e+000,3.5345495896e+000,
8.5312500000e+000,4.4504082571e+000,4.4220210052e+000,3.5763365864e+000,4.9293611507e+000,4.4977651287e+000,4.3163793128e+000,4.6115436248e+000,4.0326492898e+000,4.3934964350e+000,4.9509914941e+000,3.8988823613e+000,4.6919583241e+000,3.2119145413e+000,3.4945810928e+000,
8.6250000000e+000,4.5536480693e+000,4.6051552390e+000,3.6619308063e+000,5.9430906134e+000,4.5411972625e+000,4.3863590133e+000,4.5930989731e+000,4.0503052934e+000,4.1763311284e+000,4.8945988592e+000,3.9025603182e+000,4.6325405059e+000,3.1201237728e+000,3.4300288071e+000,
8.7187500000e+000,4.5686131894e+000,4.6216521744e+000,3.7117731792e+000,6.0158619264e+000,4.4739777174e+000,4.2651871306e+000,4.5794441161e+000,4.0299724632e+000,4.1958092715e+000,4.8411090996e+000,3.9083944996e+000,4.6612496344e+000,3.1683013512e+000,3.4290200981e+000,
8.8125000000e+000,4.6061085682e+000,4.6163830137e+000,3.7000291216e+000,6.0580425060e+000,4.4417778243e+000,4.2927325948e+000,4.5603960094e+000,4.0071178979e+000,4.3128266445e+000,4.8221609783e+000,4.0821259129e+000,4.6197086077e+000,3.0828262784e+000,3.4530903274e+000,
8.9062500000e+000,4.5685528785e+000,4.6206321986e+000,3.6456638124e+000,6.0774520814e+000,4.3999410707e+000,4.2666023964e+000,4.6020491645e+000,3.9710369697e+000,4.3298254161e+000,5.0468025599e+000,4.1250457794e+000,4.6423217467e+000,3.1334358809e+000,3.4587828415e+000,
9.0000000000e+000,4.5520454729e+000,4.6729913360e+000,3.7451620005e+000,6.1102845515e+000,4.3390371288e+000,4.2303428260e+000,4.3559677573e+000,3.8958377578e+000,4.3499663925e+000,5.0146135010e+000,4.1602563130e+000,4.5484176769e+000,3.0449600585e+000,3.4175529908e+000,
9.0937500000e+000,4.5418915395e+000,4.7347473784e+000,3.7678963513e+000,6.1435921400e+000,4.3983893509e+000,4.2959058845e+000,4.4125843921e+000,3.2530760908e+000,4.3735244054e+000,4.9927878094e+000,4.1539122638e+000,4.5311440124e+000,3.0464635030e+000,3.4951443736e+000,
9.1875000000e+000,4.5665885497e+000,4.7785780306e+000,3.7887210860e+000,6.1637119891e+000,4.5039096967e+000,4.3484931566e+000,4.4321424051e+000,3.2357653749e+000,4.4471942792e+000,5.1559472024e+000,4.0871972663e+000,4.6930487431e+000,3.1655744011e+000,3.7439408940e+000,
9.2812500000e+000,4.4633060426e+000,4.7195745278e+000,3.6542873891e+000,6.1650011380e+000,4.4107980135e+000,4.2514349492e+000,4.3518759447e+000,3.1496682612e+000,4.4431053094e+000,5.2099475320e+000,4.0576622979e+000,4.8141521736e+000,3.3788798258e+000,4.0290167044e+000,
9.3750000000e+000,4.6085772612e+000,4.7020304927e+000,3.7217543412e+000,6.1734689492e+000,4.2018219899e+000,4.2807734159e+000,4.3924544933e+000,3.1940882572e+000,4.4495816892e+000,5.3650918843e+000,4.0105924177e+000,4.9732041167e+000,3.3984288349e+000,4.2296974017e+000,
9.4687500000e+000,4.6395524156e+000,4.6643770920e+000,3.7342913005e+000,6.1325521571e+000,4.1709440357e+000,4.2788549909e+000,4.2975467927e+000,3.1447732325e+000,4.3564863490e+000,5.3956401387e+000,4.0230322282e+000,5.0576231748e+000,3.4278186264e+000,4.3483932003e+000,
9.5625000000e+000,4.6451288499e+000,4.5556324818e+000,3.7814400783e+000,5.6708378456e+000,4.1862508708e+000,4.3136884402e+000,4.2642910726e+000,3.0727561177e+000,4.3183075169e+000,5.4322376230e+000,3.9636521336e+000,5.1887956906e+000,3.6407410565e+000,4.5227033613e+000,
9.6562500000e+000,4.5537621577e+000,4.4868685018e+000,3.7172926720e+000,5.0374249470e+000,4.0755787327e+000,4.3147582052e+000,4.2250360666e+000,3.1146600882e+000,4.2939078028e+000,5.5134855999e+000,3.9490063369e+000,5.3085412279e+000,3.7117060123e+000,4.6365408652e+000,
9.7500000000e+000,4.5859805500e+000,4.5534377176e+000,3.6431414650e+000,7.6185381196e+000,4.0090802153e+000,4.4003650189e+000,4.1780803604e+000,3.1894863974e+000,4.2037631433e+000,5.6085554201e+000,3.8418182047e+000,5.3307768862e+000,3.7425623032e+000,4.6773607336e+000,
9.8437500000e+000,5.1162755758e+000,5.0906653442e+000,3.8559393671e+000,8.7767287739e+000,4.5066843987e+000,4.8920211489e+000,4.5504128130e+000,3.5240136052e+000,4.6874078119e+000,6.2486328924e+000,4.5047151012e+000,5.6698171025e+000,4.1998965059e+000,4.8525113462e+000,
9.9375000000e+000,5.6499243813e+000,5.9260433758e+000,4.1287713462e+000,1.0915110689e+001,5.4200742334e+000,5.5643797420e+000,5.2268229906e+000,4.7594249662e+000,5.7464992582e+000,7.1304606321e+000,5.6553638081e+000,6.1279604163e+000,4.9362364076e+000,5.0464332423e+000,
1.0031250000e+001,5.7564355542e+000,6.1443675673e+000,4.0466057982e+000,1.1306804778e+001,5.4621604730e+000,5.6068419488e+000,5.2471573433e+000,5.3814449599e+000,5.7729453015e+000,7.1750454914e+000,5.6877539521e+000,6.2054271138e+000,4.9765958084e+000,5.1160570044e+000,
1.0125000000e+001,5.7852242602e+000,6.4199337374e+000,4.1144879552e+000,1.1768005433e+001,5.4872907474e+000,5.6459874034e+000,5.2815186738e+000,5.9631277700e+000,5.8400552081e+000,7.1868050686e+000,5.7496443677e+000,6.1871991715e+000,5.0170583102e+000,5.0756161205e+000,
1.0218750000e+001,5.8363790431e+000,6.4266308646e+000,4.1404212912e+000,1.1779533303e+001,5.4903284347e+000,5.6596852741e+000,5.2730412193e+000,5.9768882516e+000,5.8270635228e+000,7.1880231981e+000,5.7511859720e+000,6.1542799033e+000,5.0075550659e+000,5.0408258780e+000,
1.0312500000e+001,5.8487282157e+000,6.4256409885e+000,4.1273232868e+000,1.1780520400e+001,5.4836897377e+000,5.6673733132e+000,5.2507062679e+000,5.9823782770e+000,5.8213964557e+000,7.1873075824e+000,5.7460287336e+000,6.1214710768e+000,4.9716145344e+000,4.9825447850e+000,
1.0406250000e+001,5.8295028297e+000,6.4341844631e+000,4.1320663194e+000,1.1780570480e+001,5.4670726059e+000,5.6580946366e+000,5.2358833180e+000,5.9742811927e+000,5.8152604147e+000,7.1609431612e+000,5.7463003226e+000,6.0558054149e+000,4.9571952441e+000,4.8981180323e+000,
1.0500000000e+001,5.8323146648e+000,6.4352212269e+000,4.1326298716e+000,1.1780597359e+001,5.4620922097e+000,5.6457840042e+000,5.2557954204e+000,5.9744038627e+000,5.8292126624e+000,7.1578964191e+000,5.7414294297e+000,6.0476461709e+000,4.9435916672e+000,4.8629038427e+000,
1.0593750000e+001,5.8763618895e+000,6.4535514371e+000,4.2659730550e+000,1.1780613496e+001,5.4785296411e+000,5.6553119639e+000,5.2443109795e+000,5.9750730232e+000,5.8403352058e+000,7.1504937590e+000,5.7336877017e+000,5.9898504156e+000,4.8662941901e+000,4.7370704995e+000,
1.0687500000e+001,5.8750739483e+000,6.4572117736e+000,4.2658582760e+000,1.1772699560e+001,5.5005789574e+000,5.6457966565e+000,5.2288680621e+000,5.9751402089e+000,5.8384899447e+000,7.1414190248e+000,5.7473054825e+000,5.9644599495e+000,4.8708144452e+000,4.6928947699e+000,
1.0781250000e+001,5.8446714997e+000,6.4527444776e+000,4.3084923246e+000,1.1764276803e+001,5.5092095584e+000,5.6270896446e+000,5.2485952502e+000,5.9716138748e+000,5.8293098992e+000,7.1249292014e+000,5.7561703551e+000,5.9394977599e+000,4.8618405769e+000,4.6170460636e+000,
1.0875000000e+001,5.3907917657e+000,6.1075064295e+000,3.9389538292e+000,1.1377732043e+001,4.6513066224e+000,4.9472141531e+000,4.5447203146e+000,5.8040209041e+000,4.5839585170e+000,6.1259877496e+000,4.5579377620e+000,5.0823532198e+000,3.7335440921e+000,4.1069492973e+000,
1.0968750000e+001,5.1484777819e+000,5.8116162680e+000,3.9362464738e+000,1.1159035033e+001,4.4183888294e+000,4.6705249763e+000,4.2142149040e+000,5.6269257977e+000,4.3565152500e+000,5.3560726514e+000,4.2486102446e+000,4.8183307761e+000,3.4080707649e+000,4.0369513687e+000,
1.1062500000e+001,4.9987697712e+000,5.0355345014e+000,3.8554315579e+000,9.3766565867e+000,4.2572684472e+000,4.4272253819e+000,4.0609460322e+000,4.2963238438e+000,4.1199423385e+000,4.9617726883e+000,3.8199949165e+000,4.3008398414e+000,2.9685072457e+000,3.6891035443e+000,
1.1156250000e+001,5.0808135981e+000,4.9220149223e+000,3.8815287812e+000,7.0288192257e+000,4.2924338054e+000,4.3537763644e+000,4.0463190317e+000,3.1723200095e+000,4.0980070156e+000,4.9835986036e+000,3.8673599158e+000,4.3859170941e+000,3.0688778201e+000,3.6591836628e+000,
1.1250000000e+001,4.9666347302e+000,4.9021900735e+000,3.9364212418e+000,5.3748345867e+000,4.2669961613e+000,4.3310289549e+000,4.0811227405e+000,2.7849400604e+000,4.0758089762e+000,4.9446797554e+000,3.9274854165e+000,4.3976076304e+000,3.0467867927e+000,3.5951774338e+000,
1.1343750000e+001,5.0592175463e+000,4.9969950168e+000,4.0174076201e+000,5.1270104409e+000,4.3593264911e+000,4.4599543597e+000,4.1993769751e+000,2.8983430702e+000,4.2138267798e+000,5.1016278251e+000,4.0125275448e+000,4.5300218803e+000,3.0449713224e+000,3.6250887256e+000,
1.1437500000e+001,5.1749505609e+000,5.0477233494e+000,4.0862631948e+000,5.1536798136e+000,4.4891115606e+000,4.5444607872e+000,4.2789508341e+000,3.0649980803e+000,4.2685840852e+000,5.0966302591e+000,4.0580197807e+000,4.5623546834e+000,3.0004875016e+000,3.6255862354e+000,
1.1531250000e+001,5.1558190230e+000,5.0393232920e+000,4.0434721407e+000,5.1625645937e+000,4.4933446369e+000,4.5763317160e+000,4.2316236962e+000,3.1840671584e+000,4.4272683860e+000,5.1346631486e+000,4.1843892016e+000,4.4666779944e+000,2.9560328283e+000,3.6042881345e+000,
1.1625000000e+001,5.1453581028e+000,5.0900089239e+000,4.0143778378e+000,5.2642675944e+000,4.4679659338e+000,4.6722755485e+000,4.2454081798e+000,3.2499400277e+000,4.4677831753e+000,5.2294285108e+000,4.3769054889e+000,4.4969545353e+000,3.0724398845e+000,3.6243449015e+000,
1.1718750000e+001,5.1217070786e+000,5.0556603109e+000,4.0399047129e+000,5.2172375365e+000,4.4967416130e+000,4.6663382845e+000,4.2265156904e+000,3.2230514215e+000,4.5147852735e+000,5.2231910531e+000,4.2987696315e+000,4.4320006738e+000,3.0095529410e+000,3.5497359914e+000,
1.1812500000e+001,5.0892408546e+000,5.0652470665e+000,4.0470501446e+000,5.2768011827e+000,4.4911545070e+000,4.7338172623e+000,4.2323580163e+000,3.2765022052e+000,4.5715468448e+000,5.2512419736e+000,4.3675836266e+000,4.5054768185e+000,3.0323489089e+000,3.6837594603e+000,
1.1906250000e+001,5.0512442944e+000,5.0717322289e+000,4.0543137688e+000,5.3496178880e+000,4.5128626916e+000,4.8750480511e+000,4.2238900952e+000,3.3354381262e+000,4.5770859149e+000,5.4625756274e+000,4.4849139089e+000,4.5655763840e+000,3.1337877452e+000,3.6960215726e+000,
1.2000000000e+001,5.0519023251e+000,5.0502419149e+000,4.0801835255e+000,5.3154021835e+000,4.5529278903e+000,4.9193723196e+000,4.1739705983e+000,3.3515606561e+000,4.5925611125e+000,5.5197216218e+000,4.5469215399e+000,4.5777864748e+000,3.1609104880e+000,3.7010539410e+000,
1.2093750000e+001,5.0348553163e+000,5.0178087642e+000,4.0863850246e+000,5.2545718749e+000,4.5402450218e+000,4.9254207927e+000,4.2656708591e+000,3.3078817714e+000,4.5605344772e+000,5.5584989891e+000,4.6083325219e+000,4.6505663249e+000,3.1859779199e+000,3.8190954220e+000,
1.2187500000e+001,4.9609190362e+000,4.9586400764e+000,4.0550937532e+000,5.2059091372e+000,4.5086921258e+000,4.8926934425e+000,4.2840718654e+000,3.3320646023e+000,4.5752070718e+000,5.5230700336e+000,4.5935675928e+000,4.6287684261e+000,3.0670386335e+000,3.8468426103e+000,
1.2281250000e+001,4.8799768805e+000,4.9348437388e+000,3.9912677108e+000,5.1553448219e+000,4.4875042036e+000,4.8424169071e+000,4.2321637928e+000,3.2720392900e+000,4.4654014664e+000,5.5174108918e+000,4.5105267472e+000,4.6008989313e+000,3.0778575898e+000,3.8380201921e+000,
1.2375000000e+001,4.6726196867e+000,4.8216544456e+000,3.8660340201e+000,5.0196545718e+000,4.2859860435e+000,4.7426201585e+000,4.0812048705e+000,3.1322119439e+000,4.4217735269e+000,5.4215525204e+000,4.4750307141e+000,4.4712770933e+000,3.0704425259e+000,3.7708460269e+000,
1.2468750000e+001,4.7131017994e+000,4.7878362308e+000,3.8642863097e+000,5.0097440884e+000,4.3113164668e+000,4.7278252204e+000,4.1099609745e+000,3.0560623571e+000,4.2759740959e+000,5.4895512970e+000,4.4496681364e+000,4.7262629087e+000,3.2327183494e+000,4.0607412196e+000,
1.2562500000e+001,4.7598774677e+000,4.8070436733e+000,3.8274078398e+000,5.0093652304e+000,4.2907554179e+000,4.7238445873e+000,4.1356638981e+000,2.9323705066e+000,4.2430818057e+000,5.4986392462e+000,4.3568453370e+000,4.7477112803e+000,3.2392907085e+000,4.1473864811e+000,
1.2656250000e+001,4.6454870629e+000,4.6276210830e+000,3.6654781736e+000,4.7438765151e+000,4.2177202928e+000,4.5960163439e+000,4.1817380283e+000,2.7933546175e+000,4.1774965957e+000,5.4633947559e+000,4.2930805549e+000,4.7544476384e+000,3.2040810712e+000,4.1577764986e+000,
1.2750000000e+001,4.6849005550e+000,4.6184072535e+000,3.6454377016e+000,4.6646012063e+000,4.2367079440e+000,4.5827936104e+000,4.1899771982e+000,2.8334353814e+000,4.2155692415e+000,5.5043945076e+000,4.2992684066e+000,4.8220070480e+000,3.2252677322e+000,4.1953582308e+000,
1.2843750000e+001,4.6107286621e+000,4.3817645807e+000,3.5588364128e+000,4.3392088625e+000,4.2066790301e+000,4.2973647435e+000,4.2762686071e+000,2.6122386097e+000,4.2008406427e+000,5.3943133765e+000,4.2430275176e+000,4.6993738326e+000,3.2531406925e+000,4.0936258055e+000,
1.2937500000e+001,4.6685548585e+000,4.4713158504e+000,3.5569750748e+000,4.4687699350e+000,4.0801458611e+000,4.2072984766e+000,4.2292422248e+000,2.5293702956e+000,4.1877280373e+000,5.2929653108e+000,4.1347753869e+000,4.6492084680e+000,3.4094962732e+000,4.0817082296e+000,
1.3031250000e+001,4.6868226901e+000,4.4871728262e+000,3.5816893516e+000,4.6183391733e+000,4.1000373526e+000,4.2281593439e+000,4.2113475360e+000,2.6998722460e+000,4.1607163027e+000,5.2065903875e+000,4.1439725384e+000,4.7194128653e+000,3.4403662776e+000,4.1478525582e+000,
1.3125000000e+001,5.2216805400e+000,5.6569400038e+000,3.7845103409e+000,1.0568448940e+001,4.9531350687e+000,4.9920016655e+000,4.6964243060e+000,4.9079961453e+000,5.1585562893e+000,6.0271672538e+000,5.1628348228e+000,5.2863382775e+000,4.3388903451e+000,4.3949313724e+000,
1.3218750000e+001,5.3051624854e+000,5.8493812889e+000,3.9529108504e+000,1.0943466311e+001,5.0224606506e+000,5.0683480160e+000,4.8139402810e+000,5.1973624092e+000,5.2501116888e+000,6.1256449826e+000,5.3256882888e+000,5.3095309168e+000,4.3884874308e+000,4.4141675874e+000,
1.3312500000e+001,5.2981047316e+000,5.8762381449e+000,3.9465078476e+000,1.0989216306e+001,5.0289151210e+000,5.0987293832e+000,4.8166162485e+000,5.2882025825e+000,5.2776121440e+000,6.1375564935e+000,5.3347470092e+000,5.3417763474e+000,4.4182263343e+000,4.4539024477e+000,
1.3406250000e+001,5.2468890617e+000,5.8556736667e+000,3.8978203779e+000,1.0991260681e+001,5.0251111131e+000,5.0921399935e+000,4.8092229583e+000,5.2964230341e+000,5.2694083302e+000,6.1485986849e+000,5.3276181875e+000,5.3328933841e+000,4.4227176216e+000,4.4359342537e+000,
1.3500000000e+001,5.2085815916e+000,5.8488338019e+000,3.8959871505e+000,1.0991547730e+001,5.0107785600e+000,5.0871102839e+000,4.8324913536e+000,5.2920084490e+000,5.2898816149e+000,6.0928350454e+000,5.3122759793e+000,5.2058013096e+000,4.3697088726e+000,4.1961570527e+000,
1.3593750000e+001,5.1621332341e+000,5.8410879431e+000,3.8279869029e+000,1.0991473061e+001,5.0024244594e+000,5.0767123214e+000,4.8202118405e+000,5.2973386209e+000,5.2979871919e+000,6.0801856970e+000,5.2914379285e+000,5.2081800466e+000,4.3587696164e+000,4.1210987586e+000,
1.3687500000e+001,5.1823443594e+000,5.8538886684e+000,3.8544535526e+000,1.0991490719e+001,5.0547094127e+000,5.1281297147e+000,4.7776366892e+000,5.3050524871e+000,5.2980456375e+000,6.0919721511e+000,5.3024386948e+000,5.2649076798e+000,4.3708761823e+000,4.2268568242e+000,
1.3781250000e+001,5.1938523667e+000,5.8623885247e+000,3.8470606850e+000,1.0991528778e+001,5.0757951095e+000,5.1920939935e+000,4.7761954835e+000,5.3269095655e+000,5.2966753269e+000,6.0897123465e+000,5.3289444254e+000,5.2991658981e+000,4.3845409279e+000,4.3075996446e+000,
1.3875000000e+001,5.2402810064e+000,5.8935356416e+000,3.9688294586e+000,1.0991538670e+001,5.1074892606e+000,5.2200138667e+000,4.7949688713e+000,5.3368228201e+000,5.3318967308e+000,6.0662583937e+000,5.3169851159e+000,5.2999278712e+000,4.4043731316e+000,4.3586875206e+000,
1.3968750000e+001,5.1550875266e+000,5.8712934101e+000,3.8945978350e+000,1.0991278948e+001,5.0833185691e+000,5.1658659301e+000,4.8213364111e+000,5.3298352423e+000,5.3306105078e+000,6.0528668680e+000,5.3179262048e+000,5.2836723859e+000,4.3805260709e+000,4.4066472842e+000,
1.4062500000e+001,5.1515860303e+000,5.8661503784e+000,3.9073453140e+000,1.0989420790e+001,5.0906390272e+000,5.1605513343e+000,4.8598077298e+000,5.3338413181e+000,5.3307465917e+000,6.0608737717e+000,5.3203521756e+000,5.2595936174e+000,4.4138013482e+000,4.3762039335e+000,
1.4156250000e+001,4.8045623389e+000,5.1502613329e+000,3.7537391654e+000,9.6626386192e+000,4.4445731251e+000,4.6426013973e+000,4.5385704201e+000,4.4346588305e+000,4.5175878662e+000,5.4874737566e+000,4.3174782177e+000,4.8464105178e+000,3.5862854466e+000,4.2339877324e+000,
1.4250000000e+001,4.7089136431e+000,4.6760672839e+000,3.6750943039e+000,6.9105071491e+000,4.3621355898e+000,4.5667395746e+000,4.4059033668e+000,3.6593953894e+000,4.4921310388e+000,5.2655891048e+000,3.9454412187e+000,4.8210795921e+000,3.4586033328e+000,4.2488866034e+000,
1.4343750000e+001,4.8069819431e+000,4.6726246588e+000,3.7194597165e+000,5.3253931348e+000,4.4351486496e+000,4.6112495634e+000,4.4415932650e+000,3.4742358273e+000,4.5032004186e+000,5.3047702231e+000,4.0152371755e+000,4.8185110711e+000,3.4264169464e+000,4.2050079938e+000,
1.4437500000e+001,4.8422877140e+000,4.6837860351e+000,3.7544275939e+000,4.6262794191e+000,4.4368357494e+000,4.5967205563e+000,4.3891986491e+000,3.5124701093e+000,4.5185420724e+000,5.2956877964e+000,4.0351206688e+000,4.8667394597e+000,3.5708790278e+000,4.2543289408e+000,
1.4531250000e+001,4.8903704017e+000,4.6884428481e+000,3.7731273531e+000,4.6527743671e+000,4.4302603462e+000,4.5853716846e+000,4.3913012037e+000,3.5210602159e+000,4.4899025586e+000,5.2818159814e+000,4.0565574980e+000,4.8028762296e+000,3.5743498559e+000,4.2292864349e+000,
1.4625000000e+001,4.9316218018e+000,4.7442214995e+000,3.8487114445e+000,4.7754595655e+000,4.5229272053e+000,4.5565376028e+000,4.3626409017e+000,3.5167770072e+000,4.5318315469e+000,5.2293049370e+000,4.0839849847e+000,4.7540683367e+000,3.5985795998e+000,4.2102299932e+000,
1.4718750000e+001,4.9743257608e+000,4.8222471296e+000,3.8466722658e+000,4.8685550742e+000,4.4249169399e+000,4.4692000966e+000,4.3956186272e+000,3.3906533886e+000,4.5571546433e+000,5.2078168366e+000,4.0361539116e+000,4.6018191573e+000,3.5662606907e+000,4.0628646202e+000,
1.4812500000e+001,4.8801931123e+000,4.7848792449e+000,3.7452400886e+000,4.8510313188e+000,4.3899601731e+000,4.2714004570e+000,4.3482946634e+000,3.2550487265e+000,4.5573042103e+000,5.1955683293e+000,3.9372055753e+000,4.6049779538e+000,3.5436079284e+000,4.0208628420e+000,
1.4906250000e+001,4.8335913779e+000,4.7122282499e+000,3.6560099684e+000,4.7842795740e+000,4.3139760132e+000,4.2949164015e+000,4.2967159767e+000,3.2376189597e+000,4.4179734688e+000,5.1596053791e+000,3.9164813756e+000,4.6752410240e+000,3.3194147784e+000,4.0035897292e+000,
1.5000000000e+001,4.8106160469e+000,4.7537644281e+000,3.6252852965e+000,4.8004178436e+000,4.3071542721e+000,4.3575103328e+000,4.3022773068e+000,3.2875499720e+000,4.4085962227e+000,5.1845634809e+000,3.9316950825e+000,4.7095431013e+000,3.3075577578e+000,3.9796107111e+000,
1.5093750000e+001,4.8008288051e+000,4.7312841675e+000,3.6291095458e+000,4.7873195244e+000,4.3142570716e+000,4.3585779929e+000,4.2815561782e+000,3.2099900556e+000,4.3970918312e+000,5.1386333954e+000,3.7728449945e+000,4.6231009041e+000,3.1324304374e+000,3.8413846626e+000,
1.5187500000e+001,4.5525734039e+000,4.5076966982e+000,3.4357462640e+000,4.6023694850e+000,4.2310117395e+000,4.1677797478e+000,4.2555304212e+000,3.0848402805e+000,4.3248281408e+000,4.9522154012e+000,3.7389361619e+000,4.4900078228e+000,3.1161466889e+000,3.7289328053e+000,
1.5281250000e+001,4.4880227155e+000,4.4602752586e+000,3.4276429712e+000,4.5509058773e+000,4.2034112351e+000,4.1406308307e+000,4.3397057009e+000,2.9594069315e+000,4.2913893753e+000,4.9165419409e+000,3.7238863389e+000,4.5086825650e+000,3.0070842030e+000,3.5592865514e+000,
1.5375000000e+001,4.4237831788e+000,4.4211443112e+000,3.3837842453e+000,4.5602835751e+000,4.2369168704e+000,4.1182340119e+000,4.3824215725e+000,2.7932224899e+000,4.3055702880e+000,4.8711456021e+000,3.7945380275e+000,4.5492174926e+000,3.0195863748e+000,3.5849511876e+000,
1.5468750000e+001,4.4693236103e+000,4.4910808060e+000,3.4552505294e+000,4.5160885622e+000,4.3389371501e+000,4.1937998359e+000,4.4154379944e+000,2.8529534805e+000,4.2742801785e+000,4.9106029581e+000,3.7688551162e+000,4.4676999853e+000,2.7317479861e+000,3.4841553916e+000,
1.5562500000e+001,4.4283888997e+000,4.4731179335e+000,3.4381906464e+000,4.4492633710e+000,4.1997742947e+000,4.3314107566e+000,4.4088950959e+000,2.8590330412e+000,4.2064067199e+000,4.9653424303e+000,3.7583245848e+000,4.5484509428e+000,2.7798360749e+000,3.5228208556e+000,
1.5656250000e+001,4.3806991294e+000,4.4621533744e+000,3.3568390341e+000,4.3924561073e+000,4.1693698878e+000,4.4293530663e+000,4.3801247892e+000,2.7932790086e+000,4.2108496769e+000,5.0384562408e+000,3.7237711025e+000,4.5414773069e+000,2.7588587642e+000,3.4792870730e+000,
1.5750000000e+001,4.3418615382e+000,4.3369794241e+000,3.3468299449e+000,4.2607444363e+000,4.2513117531e+000,4.4587949632e+000,4.4024754681e+000,2.8648289728e+000,4.2905706852e+000,5.0595269158e+000,3.7689315798e+000,4.6031212981e+000,2.8001119568e+000,3.6057129470e+000,
1.5843750000e+001,4.3815971336e+000,4.3642929493e+000,3.3493100679e+000,4.3137437789e+000,4.3709479101e+000,4.5466154127e+000,4.4321623863e+000,2.9530062474e+000,4.3712050465e+000,5.1587620868e+000,3.7658475512e+000,4.5419824560e+000,2.8103658735e+000,3.6349419237e+000,
1.5937500000e+001,4.3961190370e+000,4.3279794745e+000,3.3261290817e+000,4.2684078676e+000,4.4142786029e+000,4.4755165898e+000,4.4917340694e+000,2.8245240996e+000,4.3757868300e+000,5.1639517482e+000,3.7313748193e+000,4.4138267101e+000,2.8177150357e+000,3.5300304739e+000,
1.6031250000e+001,4.4433129956e+000,4.4478164438e+000,3.4655501503e+000,4.3117675910e+000,4.3845464746e+000,4.4965445051e+000,4.4925198371e+000,2.7985499890e+000,4.3825153106e+000,5.2448867965e+000,3.7059193304e+000,4.4178720930e+000,2.8288718433e+000,3.6050252436e+000,
1.6125000000e+001,4.7721740267e+000,4.6580156504e+000,3.7223882948e+000,4.4852360598e+000,4.4190007311e+000,4.6393530753e+000,4.4255988571e+000,2.8993242556e+000,4.5209221346e+000,5.3353293423e+000,3.7771179610e+000,4.4341317716e+000,2.7902915724e+000,3.6740386397e+000,
1.6218750000e+001,4.8258209697e+000,4.7209661546e+000,3.8071317597e+000,4.6006618107e+000,4.3948252581e+000,4.6847594128e+000,4.3396086907e+000,2.9137852269e+000,4.4022459706e+000,5.3744555006e+000,3.7037799004e+000,4.3284654243e+000,2.9266634272e+000,3.7461015664e+000,
1.6312500000e+001,4.9176095252e+000,4.7327724910e+000,3.8316273860e+000,4.6273345016e+000,4.3271087585e+000,4.6598370617e+000,4.3223192310e+000,2.9421313578e+000,4.3883190119e+000,5.3447709893e+000,3.7064039642e+000,4.2441715983e+000,3.0517904222e+000,3.7847369330e+000,
1.6406250000e+001,4.9011781102e+000,4.7172291995e+000,3.7952642419e+000,4.5901565715e+000,4.2299820170e+000,4.6903086047e+000,4.2784488763e+000,2.9210813613e+000,4.3863471264e+000,5.3549486990e+000,3.6487454606e+000,4.2292218589e+000,3.0651824560e+000,3.7953447491e+000,
1.6500000000e+001,4.8492442713e+000,4.6918388705e+000,3.7475421791e+000,4.6219786768e+000,4.2512092343e+000,4.6347917743e+000,4.1830196890e+000,2.8429096015e+000,4.4193683428e+000,5.3540258680e+000,3.6940094198e+000,4.3311039364e+000,3.1264184070e+000,3.8807062672e+000,
1.6593750000e+001,4.8588658515e+000,4.7051194602e+000,3.7937524234e+000,4.6358455006e+000,4.2665209700e+000,4.5764331837e+000,4.1851788681e+000,2.9148317925e+000,4.3547308093e+000,5.4319579178e+000,3.6743696816e+000,4.3298701348e+000,3.1433809168e+000,3.9075384257e+000,
1.6687500000e+001,4.8462358005e+000,4.5777215499e+000,3.7617934937e+000,4.5706632729e+000,4.2923176674e+000,4.4479000996e+000,4.1799376546e+000,3.2102568077e+000,4.3201594362e+000,5.4376942668e+000,3.5946034364e+000,4.3363629575e+000,3.1084096830e+000,3.8808321936e+000,
1.6781250000e+001,4.8696285704e+000,4.5513672308e+000,3.7452336215e+000,4.5272025161e+000,4.1993137712e+000,4.5201025070e+000,4.1954216804e+000,3.4480607387e+000,4.2090248513e+000,5.4772673291e+000,3.5494510310e+000,4.3613052431e+000,3.0386145216e+000,3.7969395296e+000,
1.6875000000e+001,4.9257734239e+000,4.5817312881e+000,3.7847040414e+000,4.5125373245e+000,4.1094842870e+000,4.4527500578e+000,4.1709594273e+000,3.4821796768e+000,4.1489778640e+000,5.3823844443e+000,3.5633439964e+000,4.3553076249e+000,2.9376796824e+000,3.8313254228e+000,
1.6968750000e+001,5.0295561572e+000,4.6364202243e+000,3.8678066743e+000,4.5864363405e+000,4.1475355104e+000,4.4837159597e+000,4.2469378780e+000,3.5384803647e+000,4.2453691542e+000,5.4023736787e+000,3.5613442362e+000,4.3458559276e+000,3.0103283916e+000,3.8211048113e+000,
1.7062500000e+001,5.1455979903e+000,4.7353734184e+000,3.8901157330e+000,4.6616555490e+000,4.3239137172e+000,4.4374819320e+000,4.2147181515e+000,3.5646850724e+000,4.3494251457e+000,5.3561186497e+000,3.5550285621e+000,4.3654563204e+000,3.0754745475e+000,3.7504918854e+000,
1.7156250000e+001,5.3225778763e+000,5.0037005701e+000,3.9461484498e+000,4.9301581681e+000,4.5497207129e+000,4.4450274040e+000,4.2964907492e+000,3.5170264575e+000,4.2144549771e+000,5.2933628872e+000,3.4735275377e+000,4.2882694650e+000,3.1020460684e+000,3.6433487543e+000,
1.7250000000e+001,5.3625504400e+000,5.1326049396e+000,3.9745867326e+000,5.0362490986e+000,4.5650594917e+000,4.5054572251e+000,4.1986753525e+000,3.4786311476e+000,4.2022499543e+000,5.2634370139e+000,3.4753166574e+000,4.2233616833e+000,2.9965358879e+000,3.5218331196e+000,
1.7343750000e+001,5.4239953487e+000,5.2381086222e+000,4.1030538196e+000,5.1743470091e+000,4.5728283337e+000,4.5120684459e+000,4.2234160164e+000,3.4570084157e+000,4.2051607421e+000,5.2007704739e+000,3.3770315142e+000,4.3172769572e+000,2.9234869484e+000,3.6000268291e+000,
1.7437500000e+001,5.5383952622e+000,5.3054854724e+000,4.2626773881e+000,5.3063484729e+000,4.6562430095e+000,4.6490725205e+000,4.2743670216e+000,3.4915342159e+000,4.2332314090e+000,5.3361651986e+000,3.3747114855e+000,4.4875745890e+000,3.1014313965e+000,3.8201208516e+000,
1.7531250000e+001,5.5572677092e+000,5.3142868517e+000,4.2880139208e+000,5.3016763087e+000,4.5918986449e+000,4.6484026633e+000,4.3814998065e+000,3.5562173666e+000,4.2018208955e+000,5.3883606796e+000,3.2655227539e+000,4.3857812557e+000,3.0621000897e+000,3.7554688510e+000,
1.7625000000e+001,5.5965679730e+000,5.3606023303e+000,4.3369399621e+000,5.3369379402e+000,4.6266385215e+000,4.7148916381e+000,4.3937361723e+000,3.5989915889e+000,4.2284011616e+000,5.2935831826e+000,3.3580167459e+000,4.4258518633e+000,3.1527638053e+000,3.7976101209e+000,
1.7718750000e+001,5.5896721193e+000,5.3907003455e+000,4.3953074906e+000,5.3551510382e+000,4.6313611604e+000,4.7747085813e+000,4.4323738425e+000,3.3558431690e+000,4.2279217818e+000,5.2897703797e+000,3.3888861844e+000,4.4374754712e+000,3.1778387369e+000,3.7521529198e+000,
1.7812500000e+001,5.6185194344e+000,5.4470866985e+000,4.4457747777e+000,5.3901600677e+000,4.6924611542e+000,4.8546168853e+000,4.4760636191e+000,3.4133650441e+000,4.2536381157e+000,5.4331307527e+000,3.4068768921e+000,4.4963894582e+000,3.2573253218e+000,3.7762073428e+000,
1.7906250000e+001,5.6057541990e+000,5.4433987055e+000,4.4744120795e+000,5.3744620986e+000,4.7057758945e+000,4.9324423025e+000,4.3914353412e+000,3.4154312882e+000,4.2337504775e+000,5.5029098498e+000,3.4087349453e+000,4.6714344512e+000,3.2647878438e+000,3.7875171280e+000,
1.8000000000e+001,5.6941117086e+000,5.5374329344e+000,4.5913134403e+000,5.4749063388e+000,4.8140304503e+000,5.0653680869e+000,4.4097772899e+000,3.4591508999e+000,4.1446765853e+000,5.6323021064e+000,3.5479814947e+000,4.8436194788e+000,3.2160008393e+000,3.9077179664e+000,
1.8093750000e+001,5.5165529580e+000,5.3627483397e+000,4.4906002998e+000,5.3515085200e+000,4.6729081397e+000,5.0183826812e+000,4.3509097826e+000,3.3938790121e+000,4.0219752843e+000,5.6219571938e+000,3.6054874257e+000,4.8163277157e+000,3.1456290599e+000,3.8823781520e+000,
1.8187500000e+001,5.3829333460e+000,5.1994506954e+000,4.3829278860e+000,5.1791616287e+000,4.5756486188e+000,4.9363623671e+000,4.3522290675e+000,3.3822303799e+000,4.0624938420e+000,5.5568177657e+000,3.5696192863e+000,4.8029017118e+000,3.0732325327e+000,3.9010033674e+000,
1.8281250000e+001,5.3099485371e+000,5.1259245709e+000,4.3518638060e+000,5.1067652762e+000,4.5385906744e+000,4.9595300352e+000,4.3175868753e+000,3.4665115458e+000,4.1567101615e+000,5.5784567268e+000,3.5907286768e+000,4.7901859050e+000,3.0345834968e+000,3.8944691867e+000,
1.8375000000e+001,5.2560073004e+000,5.0788986384e+000,4.3283852403e+000,5.0030127516e+000,4.5472888740e+000,4.9961708022e+000,4.3014975234e+000,3.4737786837e+000,4.1209997607e+000,5.5812704808e+000,3.6124714582e+000,4.6809631256e+000,3.0092354900e+000,3.8238627060e+000,
1.8468750000e+001,5.3891424613e+000,5.0180652474e+000,4.1890270835e+000,4.8889478439e+000,4.4769681687e+000,5.0692544068e+000,4.3334265444e+000,4.9675838671e+000,4.1206001492e+000,5.4290873628e+000,3.5758576269e+000,4.5518978489e+000,2.7846613161e+000,3.5463487712e+000,
1.8562500000e+001,5.5974446964e+000,5.0067689912e+000,4.2229168113e+000,4.9063307398e+000,4.6161651341e+000,5.1038658335e+000,4.2834574194e+000,5.2986468786e+000,4.2562010785e+000,5.4335654572e+000,3.5809667189e+000,4.5524090922e+000,2.9042450711e+000,3.6054883220e+000,
1.8656250000e+001,5.5990406564e+000,4.9387519814e+000,4.1303688143e+000,4.8255322220e+000,4.5998408797e+000,5.0640618109e+000,4.2655403398e+000,5.3228766931e+000,4.1940642805e+000,5.4192540500e+000,3.6343351315e+000,4.5316062651e+000,2.8392805293e+000,3.5184690216e+000,
1.8750000000e+001,5.5609363080e+000,4.8667622367e+000,4.0184746692e+000,4.7768042192e+000,4.5506510040e+000,5.0325297941e+000,4.1416154312e+000,5.3127284587e+000,4.1076677369e+000,5.3253291590e+000,3.6199643225e+000,4.4849497908e+000,2.8024712463e+000,3.5649726382e+000,
1.8843750000e+001,5.5276270936e+000,4.7423541408e+000,3.9238865478e+000,4.6816864685e+000,4.4671139259e+000,4.8784945116e+000,4.1074586544e+000,5.3028133593e+000,4.0840132138e+000,5.1582554504e+000,3.6650484476e+000,4.3061382103e+000,2.7940828473e+000,3.6436348430e+000,
1.8937500000e+001,5.3776926183e+000,4.4580074239e+000,3.6133952586e+000,4.3936443112e+000,4.2865079532e+000,4.7106351638e+000,4.0578943152e+000,5.2844983748e+000,4.1669365975e+000,4.9183250835e+000,3.6431271111e+000,4.0964551698e+000,2.8084962420e+000,3.6252114522e+000,
1.9031250000e+001,5.3368551287e+000,4.3090515376e+000,3.5250792707e+000,4.2876980090e+000,4.2273664371e+000,4.6164522893e+000,4.0479901452e+000,5.3427042734e+000,4.2653601671e+000,4.8174996755e+000,3.6095236367e+000,4.1518984933e+000,2.8995990677e+000,3.7076686574e+000,
1.9125000000e+001,5.3381038935e+000,4.3592939294e+000,3.4811615344e+000,4.2739742632e+000,4.1444141685e+000,4.6134875904e+000,4.0821957615e+000,5.3630663841e+000,4.2691153189e+000,4.7856952736e+000,3.6164726043e+000,4.1611994690e+000,2.9954740849e+000,3.7639799504e+000,
1.9218750000e+001,5.2984746234e+000,4.2375584993e+000,3.4258530777e+000,4.1216872694e+000,4.1266537137e+000,4.5428544058e+000,4.0969536220e+000,5.3849857645e+000,4.2628295153e+000,4.8065936019e+000,3.6417187024e+000,4.2740162882e+000,3.1129270236e+000,3.7283137313e+000,
1.9312500000e+001,5.2542844903e+000,4.0743280970e+000,3.3066494899e+000,4.0027726784e+000,4.1325560425e+000,4.4331144315e+000,4.1683150799e+000,5.3770568009e+000,4.2858684743e+000,4.9397500358e+000,3.7724017037e+000,4.3551974163e+000,3.1878137790e+000,3.7657653957e+000,
1.9406250000e+001,5.2352542689e+000,3.9788038117e+000,3.2370402903e+000,3.9274660476e+000,4.0434656950e+000,4.3328750444e+000,4.1733658850e+000,5.3738761468e+000,4.2370007328e+000,4.9483718390e+000,3.8518732663e+000,4.3581322494e+000,3.2711589188e+000,3.7281430575e+000,
1.9500000000e+001,4.7648865038e+000,3.8494300750e+000,3.1386667038e+000,3.7922357724e+000,3.8537436883e+000,3.8353684201e+000,4.0668512586e+000,4.3323668846e+000,4.2701286479e+000,5.0197637846e+000,3.8181384915e+000,4.3400759542e+000,3.2845842122e+000,3.7170879221e+000,
1.9593750000e+001,4.3908922086e+000,3.7589782567e+000,3.1714125312e+000,3.7172032559e+000,3.8513485809e+000,3.7586753978e+000,4.1238653398e+000,3.5487603648e+000,4.2942631115e+000,5.0237268613e+000,3.7888361537e+000,4.3403497845e+000,3.2456213252e+000,3.7524994320e+000,
1.9687500000e+001,4.4356368562e+000,3.8825971825e+000,3.2371309102e+000,3.8979072002e+000,3.6943803411e+000,3.6596487231e+000,4.0988010312e+000,3.5320978339e+000,4.3119128313e+000,4.9133746487e+000,3.7192843160e+000,4.2190277155e+000,3.2393864795e+000,3.7305521244e+000,
1.9781250000e+001,4.5309980531e+000,4.0731444477e+000,3.2513895032e+000,4.0551469298e+000,3.6189781148e+000,3.7684828086e+000,4.1922774745e+000,3.5857128863e+000,4.3147196998e+000,4.9426267919e+000,3.7105878260e+000,4.2659778458e+000,3.2522890869e+000,3.7439342109e+000,
1.9875000000e+001,4.7056390831e+000,4.4618289477e+000,3.3131584136e+000,4.1579921297e+000,3.9595367066e+000,4.2586565284e+000,4.2659984407e+000,3.6742967325e+000,4.4893746580e+000,5.0574820717e+000,3.6881837516e+000,4.1691467439e+000,3.1765724403e+000,3.4931451976e+000,
1.9968750000e+001,4.7284345484e+000,4.4955809628e+000,3.3084317765e+000,4.1693914404e+000,4.0474156699e+000,4.2542679034e+000,4.3377705756e+000,3.6315426956e+000,4.5428652544e+000,5.0971675792e+000,3.7512206608e+000,4.1596627226e+000,3.2491627177e+000,3.4154680830e+000,
2.0062500000e+001,4.8204455314e+000,4.5984055811e+000,3.3071675160e+000,4.1564916285e+000,4.0527827523e+000,4.3190556194e+000,4.3698290493e+000,3.1373541321e+000,4.5572272191e+000,5.1579785366e+000,3.7334426413e+000,4.0870404962e+000,3.2114601817e+000,3.3284397531e+000,
2.0156250000e+001,4.8382765878e+000,4.6054153693e+000,3.2953111912e+000,4.1335853305e+000,4.1477338518e+000,4.3315875431e+000,4.3755572455e+000,3.2136683625e+000,4.5997217103e+000,5.1511845462e+000,3.6395706843e+000,4.0131362828e+000,3.1608204048e+000,3.3557657080e+000,
2.0250000000e+001,4.8099999023e+000,4.6285997182e+000,3.2863217524e+000,4.1403165540e+000,4.1556977039e+000,4.3607635425e+000,4.4697834423e+000,3.0150716842e+000,4.5279617855e+000,5.1442718776e+000,3.6035646896e+000,4.0109307023e+000,3.2321472837e+000,3.3743234352e+000,
2.0343750000e+001,4.8249081368e+000,4.6238113178e+000,3.2060681210e+000,4.0881274301e+000,4.1533061406e+000,4.3665582139e+000,4.4334976106e+000,2.9298297670e+000,4.5098322203e+000,5.0510032624e+000,3.5004417619e+000,3.9403668195e+000,3.3545358684e+000,3.3210913983e+000,
2.0437500000e+001,4.8777408420e+000,4.6402743111e+000,3.1392940313e+000,4.1441624803e+000,4.1726397494e+000,4.3535934028e+000,4.4474250148e+000,3.0356996962e+000,4.4765764551e+000,5.0608170777e+000,3.4535253873e+000,3.9175432489e+000,3.2766953661e+000,3.3590031353e+000,
2.0531250000e+001,4.8614839914e+000,4.6463610700e+000,3.1572447792e+000,4.1626606999e+000,4.1651393733e+000,4.3513284876e+000,4.4960772057e+000,3.1122031326e+000,4.3995753071e+000,4.9853475779e+000,3.5646446508e+000,3.8992872272e+000,3.2676139069e+000,3.3711523561e+000,
2.0625000000e+001,4.8648751848e+000,4.6820026002e+000,3.0753104525e+000,4.1436236740e+000,4.2805870665e+000,4.3270360758e+000,4.5742692100e+000,3.1111036846e+000,4.3422595744e+000,5.0365465297e+000,3.5870017794e+000,3.9812194249e+000,3.2038906491e+000,3.2306847738e+000,
2.0718750000e+001,4.7961838349e+000,4.6344512464e+000,3.0568934463e+000,4.0218837952e+000,4.2729392046e+000,4.3400322082e+000,4.5372705261e+000,3.1463361688e+000,4.3557261756e+000,5.0149507746e+000,3.6006210437e+000,3.9856919117e+000,3.2385477528e+000,3.1404214477e+000,
2.0812500000e+001,4.7603537652e+000,4.4847854860e+000,3.0400613650e+000,3.9375109873e+000,4.2723608276e+000,4.2246760916e+000,4.4506230620e+000,3.0516732918e+000,4.3421504445e+000,4.9555358976e+000,3.5718001869e+000,3.9586156849e+000,3.2473727563e+000,3.0223076666e+000,
2.0906250000e+001,4.6283001427e+000,4.2420310163e+000,3.0716419082e+000,3.8580882444e+000,4.1004677004e+000,3.9197984110e+000,4.4346484919e+000,2.8838322332e+000,4.1346389353e+000,4.8805964181e+000,3.4587393964e+000,3.9116461054e+000,3.1908228630e+000,3.0059630112e+000,
2.1000000000e+001,4.5468550612e+000,4.1871810485e+000,3.0362982729e+000,3.9276787314e+000,4.0824551072e+000,4.0607551800e+000,4.4087948476e+000,2.8538790520e+000,3.9952844441e+000,4.8277264573e+000,3.6052430956e+000,3.9930794354e+000,3.2370769112e+000,3.0695958385e+000,
2.1093750000e+001,4.3978246397e+000,4.1208975330e+000,3.0880634498e+000,3.9987084712e+000,3.9737133190e+000,4.0359776767e+000,4.4236653215e+000,2.7316183298e+000,3.8631948152e+000,4.6636096798e+000,3.5724273540e+000,3.9347143232e+000,3.2286739448e+000,2.9477400696e+000,
2.1187500000e+001,4.4552134941e+000,4.1688791062e+000,3.1801394469e+000,4.0409446238e+000,3.9094182323e+000,4.1158371574e+000,4.2942231468e+000,2.6234250476e+000,3.9208729481e+000,4.6275621362e+000,3.6812760384e+000,4.0194411553e+000,3.2352005299e+000,2.9697708568e+000,
2.1281250000e+001,4.5750132649e+000,4.3682873900e+000,3.4745844600e+000,4.2610498720e+000,4.1439623924e+000,4.2987898014e+000,4.2845170907e+000,2.8354853767e+000,3.9270053408e+000,4.7385713936e+000,3.6199311044e+000,4.2357584482e+000,3.0499801363e+000,3.0752392818e+000,
2.1375000000e+001,4.5938435264e+000,4.3886489157e+000,3.4698182057e+000,4.2906155031e+000,4.1627621610e+000,4.3050131390e+000,4.2248656497e+000,2.8381088678e+000,3.9170448199e+000,4.7849595284e+000,3.6286346531e+000,4.2701227904e+000,3.0000428959e+000,3.1189980297e+000,
2.1468750000e+001,4.5443270098e+000,4.3926745851e+000,3.4654917772e+000,4.2508250181e+000,4.1577626097e+000,4.3252842294e+000,4.2421875684e+000,2.6575456432e+000,3.8813882748e+000,4.7302251784e+000,3.6487293773e+000,4.3130308702e+000,3.0187441315e+000,3.2408867429e+000,
2.1562500000e+001,4.5257288077e+000,4.4241276813e+000,3.4653806459e+000,4.3001419304e+000,4.1791692934e+000,4.4297141945e+000,4.1751315372e+000,2.5072658846e+000,3.8200378294e+000,4.7578223156e+000,3.6985337375e+000,4.3830842529e+000,3.0283740343e+000,3.3025266852e+000,
2.1656250000e+001,4.4355713062e+000,4.3326025932e+000,3.4645448657e+000,4.2438222439e+000,4.0215478901e+000,4.3829614450e+000,4.1725349700e+000,2.5116141649e+000,3.9113273059e+000,4.6980626303e+000,3.7565561361e+000,4.3927503939e+000,3.0414433663e+000,3.3994219752e+000,
2.1750000000e+001,4.3836530552e+000,4.2822627297e+000,3.4396625147e+000,4.1900547673e+000,4.0635168731e+000,4.3765741730e+000,4.2647775495e+000,2.3046689233e+000,3.8789958033e+000,4.8393991699e+000,3.7550776464e+000,4.4002082955e+000,2.9781436356e+000,3.3583734289e+000,
2.1843750000e+001,4.3217188302e+000,4.2773808068e+000,3.4308637781e+000,4.1418685206e+000,4.0851285297e+000,4.3537715621e+000,4.2627726612e+000,2.2710348541e+000,3.8601895022e+000,4.8303102251e+000,3.7718133318e+000,4.3685634453e+000,3.0605023396e+000,3.4314465221e+000,
2.1937500000e+001,4.2664565340e+000,4.2353907831e+000,3.4922879712e+000,4.0963610379e+000,4.1313938560e+000,4.2286493706e+000,4.2457248680e+000,2.2193862290e+000,3.8504524960e+000,4.8300746344e+000,3.6371827976e+000,4.2827973113e+000,2.9262984447e+000,3.3881599757e+000,
2.2031250000e+001,4.2186667030e+000,4.1612614818e+000,3.4738041164e+000,4.1650777081e+000,4.0938934947e+000,4.2143037842e+000,4.1600796055e+000,2.3392406393e+000,3.8948607070e+000,4.9492118294e+000,3.6275100096e+000,4.2759863979e+000,2.9855278648e+000,3.4055452435e+000,
2.2125000000e+001,4.2061522246e+000,4.1705347013e+000,3.5122571887e+000,4.2904924432e+000,4.1086669642e+000,4.2367308931e+000,4.1329293969e+000,2.2802813928e+000,3.8382946159e+000,5.0238174555e+000,3.6725580254e+000,4.4470069548e+000,3.1801342791e+000,3.6125191830e+000,
2.2218750000e+001,4.1360121010e+000,4.1336257999e+000,3.4329051407e+000,4.2188140981e+000,4.0416767582e+000,4.1957132663e+000,4.1223801707e+000,2.2423462593e+000,3.8358138656e+000,5.0222665291e+000,3.9355333740e+000,4.4992638339e+000,3.1434795719e+000,3.6046798672e+000,
2.2312500000e+001,3.8629078747e+000,3.8785354447e+000,3.2138429551e+000,4.0730168981e+000,3.7555187342e+000,3.9703474279e+000,4.1410195390e+000,1.9574684251e+000,3.8685372489e+000,4.9657243729e+000,3.9324077702e+000,4.2480015924e+000,3.1780632074e+000,3.5572823792e+000,
2.2406250000e+001,3.7305239816e+000,3.9051544316e+000,3.2479659940e+000,4.0984271894e+000,3.6845896482e+000,4.0027744702e+000,4.1842425691e+000,2.0270953494e+000,3.8301284493e+000,5.0237461847e+000,3.9204373397e+000,4.2888526543e+000,3.1118258071e+000,3.5158055198e+000,
2.2500000000e+001,3.7871182004e+000,3.8690759359e+000,3.2847342261e+000,4.0921743111e+000,3.5827805182e+000,3.9437633860e+000,4.1342122805e+000,2.0817497161e+000,3.8431050562e+000,5.0748278544e+000,3.8962815456e+000,4.2604656564e+000,3.2115494204e+000,3.4181565482e+000,
2.2593750000e+001,3.9299252692e+000,3.9622428688e+000,3.3932176443e+000,4.1191118039e+000,3.6210814499e+000,3.9484801980e+000,4.0518813487e+000,2.2359208648e+000,3.9511506683e+000,5.1573530805e+000,3.8312565407e+000,4.2411742794e+000,3.2652397798e+000,3.3511418322e+000,
2.2687500000e+001,4.2048066059e+000,4.0308677026e+000,3.5056403957e+000,4.1738265457e+000,3.5822617024e+000,3.9880922552e+000,4.0486150452e+000,2.5097567337e+000,3.9406265420e+000,5.1717654480e+000,3.7362864395e+000,4.2210753023e+000,3.2840877609e+000,3.3571676402e+000,
2.2781250000e+001,4.4703888512e+000,4.3232251220e+000,3.7027734208e+000,4.4773429304e+000,3.7944440102e+000,4.1866623568e+000,3.9929118922e+000,2.7366465275e+000,4.0509415317e+000,5.1935368572e+000,3.7448740220e+000,4.2395365031e+000,3.2919497531e+000,3.4255712489e+000,
2.2875000000e+001,4.6461325807e+000,4.4171847122e+000,3.7770408339e+000,4.5838881632e+000,3.6949762984e+000,4.2972190780e+000,4.0626848469e+000,2.8905892312e+000,4.0800583382e+000,5.2015765729e+000,3.7339923438e+000,4.2998261106e+000,3.3054483169e+000,3.3916309740e+000,
2.2968750000e+001,4.7358109374e+000,4.5223916203e+000,3.7857340438e+000,4.6888690195e+000,3.7390705997e+000,4.3830882929e+000,4.2274942222e+000,2.9041588115e+000,4.0679494908e+000,5.2840188444e+000,3.8836750669e+000,4.4736723929e+000,3.3129087625e+000,3.5238167982e+000,
2.3062500000e+001,4.7997720787e+000,4.6022746365e+000,3.7989264136e+000,4.7112655942e+000,3.8814159894e+000,4.4101236518e+000,4.2850925497e+000,2.9634417849e+000,4.1744066265e+000,5.3020907224e+000,3.9434581424e+000,4.4934143689e+000,3.2004541746e+000,3.5095179219e+000,
2.3156250000e+001,4.9476186323e+000,4.8046082420e+000,3.9063597636e+000,4.8473714694e+000,4.1308619719e+000,4.5717511754e+000,4.3413127723e+000,3.1082481751e+000,4.2467908657e+000,5.3821912390e+000,3.6992359087e+000,4.4844176780e+000,3.0398297828e+000,3.3639423015e+000,
2.3250000000e+001,5.2686542347e+000,5.0692320866e+000,4.2005831877e+000,5.1126916617e+000,4.4722886801e+000,4.8411673433e+000,4.4713281459e+000,3.3047496802e+000,4.2074041985e+000,5.6167476613e+000,3.6613633387e+000,4.5681172236e+000,3.0075178505e+000,3.4679225590e+000,
2.3343750000e+001,5.4231547213e+000,5.2022178483e+000,4.3183312250e+000,5.2623840568e+000,4.6492722420e+000,4.9533597122e+000,4.5125806152e+000,3.3951679624e+000,4.2977874175e+000,5.6998491372e+000,3.8143558780e+000,4.6831294358e+000,3.1077390825e+000,3.5962390180e+000,
2.3437500000e+001,5.4508760448e+000,5.2209891652e+000,4.3294401309e+000,5.2870320332e+000,4.7355220918e+000,4.9734659487e+000,4.5076100803e+000,3.3749516385e+000,4.3206365294e+000,5.6712134615e+000,3.7174146798e+000,4.6706153602e+000,3.1132528529e+000,3.6026802505e+000,
2.3531250000e+001,5.4945134603e+000,5.2924501718e+000,4.3607561303e+000,5.3650609132e+000,4.8363111082e+000,4.9836335523e+000,4.5881684646e+000,3.3945512694e+000,4.4082160960e+000,5.6855303340e+000,3.8078839504e+000,4.6910565191e+000,2.9824958293e+000,3.6383906241e+000,
2.3625000000e+001,5.5557470042e+000,5.3816729232e+000,4.4017717309e+000,5.4805995516e+000,4.8827441991e+000,5.0486583087e+000,4.6100588226e+000,3.3592361491e+000,4.3938409876e+000,5.6323009052e+000,3.9202524199e+000,4.7621256311e+000,2.9726758307e+000,3.6804934546e+000,
2.3718750000e+001,5.4643337446e+000,5.3114931991e+000,4.3105636290e+000,5.4287515450e+000,4.8711400069e+000,4.9751007394e+000,4.5708518787e+000,3.2389505656e+000,4.2848797600e+000,5.6533124100e+000,3.9915341610e+000,4.8208197524e+000,3.0104009215e+000,3.7529077616e+000,
2.3812500000e+001,5.4097803591e+000,5.2647802145e+000,4.2481847361e+000,5.3659029827e+000,4.8559240041e+000,4.9286520680e+000,4.5367921432e+000,3.1683829430e+000,4.2370321880e+000,5.6548233835e+000,4.0147175359e+000,4.8560888287e+000,2.9273495733e+000,3.7746407448e+000,
2.3906250000e+001,5.3638217137e+000,5.2166386630e+000,4.2839263295e+000,5.3237164269e+000,4.8275348223e+000,4.9030766055e+000,4.5904300438e+000,3.1029571027e+000,4.1920722227e+000,5.6419822779e+000,4.0190524455e+000,4.8111396961e+000,2.9719097006e+000,3.7643398819e+000,
2.4000000000e+001,5.3291670267e+000,5.1313040850e+000,4.2692904510e+000,5.2375716429e+000,4.7655447677e+000,4.8131302211e+000,4.5033589098e+000,3.0328963713e+000,4.1516895250e+000,5.5278900894e+000,3.8672410605e+000,4.6335939703e+000,2.9098054853e+000,3.6155239777e+000,
2.4093750000e+001,5.2254996203e+000,5.0315785449e+000,4.2062484841e+000,5.1222081166e+000,4.6859497237e+000,4.7271165876e+000,4.4687768832e+000,2.9343973270e+000,4.1038956294e+000,5.4411289312e+000,3.8961105468e+000,4.5555278422e+000,2.9913180284e+000,3.5296349160e+000,
2.4187500000e+001,5.1746466617e+000,4.9283251761e+000,4.1073545870e+000,5.0182241531e+000,4.6164743537e+000,4.5838296205e+000,4.4759585780e+000,2.7805856199e+000,3.9985132152e+000,5.4005793211e+000,3.8850263431e+000,4.5260021891e+000,3.0719780847e+000,3.5757812155e+000,
2.4281250000e+001,4.7543003342e+000,4.5935056952e+000,3.7933690656e+000,4.6775007662e+000,4.3518775285e+000,4.2431398936e+000,4.3122243346e+000,2.4972019437e+000,4.0320888990e+000,4.9825049886e+000,3.8350652721e+000,4.2656756167e+000,3.0457340324e+000,3.3677954807e+000,
2.4375000000e+001,4.5941004403e+000,4.4316857940e+000,3.6312112308e+000,4.4800393627e+000,4.1287988298e+000,4.0019354698e+000,4.1988073019e+000,2.3658364244e+000,3.9444905182e+000,4.7738907406e+000,3.7370202876e+000,4.1222439420e+000,3.0347374816e+000,3.2657477221e+000,
2.4468750000e+001,4.5423004321e+000,4.3422107973e+000,3.5777490944e+000,4.3695317399e+000,3.9557526308e+000,3.9404914862e+000,4.1509006301e+000,2.3445844912e+000,3.9249311360e+000,4.7090920121e+000,3.8500477945e+000,4.0483696187e+000,2.9997345295e+000,3.2291505366e+000,
2.4562500000e+001,4.3092990378e+000,4.1243933722e+000,3.4680509425e+000,4.0455439506e+000,3.7302357239e+000,3.8087666664e+000,4.1330812487e+000,2.2614535225e+000,3.8249333399e+000,4.6359152151e+000,3.7004969475e+000,3.9685493584e+000,3.0656388257e+000,3.1952545375e+000,
2.4656250000e+001,4.0269171482e+000,3.7503360947e+000,3.2514459035e+000,3.5885089099e+000,3.5124542649e+000,3.4201600583e+000,4.1291521316e+000,2.2419562509e+000,3.8248118560e+000,4.5159885358e+000,3.7208320292e+000,3.6751357047e+000,3.0135557382e+000,3.0919762497e+000,
2.4750000000e+001,3.9562171236e+000,3.7351274776e+000,3.2000313848e+000,3.6106325417e+000,3.4141059030e+000,3.2815428337e+000,4.2235059844e+000,2.2464619469e+000,3.8583703312e+000,4.1911541578e+000,3.6709293923e+000,3.3873076882e+000,3.0813322835e+000,2.8955330684e+000,
2.4843750000e+001,4.1053750880e+000,3.7957503352e+000,3.2443396867e+000,3.7436870579e+000,3.5889092512e+000,3.4350424051e+000,4.2339162924e+000,2.2235776820e+000,3.8631811387e+000,4.2306717692e+000,3.7340433774e+000,3.4706765855e+000,3.1712156304e+000,2.9538166290e+000,
2.4937500000e+001,4.1264669228e+000,3.8303777701e+000,3.0454396873e+000,3.8065457108e+000,3.7127402054e+000,3.5369282410e+000,4.2243426061e+000,2.3586843368e+000,4.0040729260e+000,4.4082750808e+000,3.8282363727e+000,3.5437799163e+000,3.2362942161e+000,3.0036762895e+000,
2.5031250000e+001,4.0561589859e+000,3.7798565581e+000,2.9592820120e+000,3.7525057091e+000,3.7378789139e+000,3.6530762554e+000,4.2360463799e+000,2.4665105582e+000,4.1328321477e+000,4.4553193320e+000,3.8714174160e+000,3.7272153732e+000,3.2652915327e+000,3.1008447376e+000,
2.5125000000e+001,4.0841144609e+000,3.7150523703e+000,3.0639765360e+000,3.7403757306e+000,3.8243929700e+000,3.8021758681e+000,4.2130300243e+000,2.4822850341e+000,4.0630460800e+000,4.4773252164e+000,3.8796981288e+000,3.6683620710e+000,3.2564114598e+000,3.1230882091e+000,
2.5218750000e+001,4.0895721547e+000,3.7686793711e+000,3.1133363870e+000,3.8875317931e+000,3.9410907545e+000,3.8626612390e+000,4.1671270876e+000,2.5044355923e+000,4.1094116756e+000,4.4501308222e+000,3.9379051578e+000,3.6223216793e+000,3.1818046126e+000,3.0865245005e+000,
2.5312500000e+001,4.0857269484e+000,3.7462480144e+000,3.1217926688e+000,3.8859754862e+000,3.9948296712e+000,3.8684786707e+000,4.1653827584e+000,2.4338163807e+000,4.1026107826e+000,4.4425321330e+000,3.8746850205e+000,3.6124002613e+000,3.1685991000e+000,3.1537508962e+000,
2.5406250000e+001,4.1487442708e+000,3.8343373400e+000,3.1719448581e+000,3.9398949297e+000,4.0706246921e+000,3.9804722219e+000,4.1599997718e+000,2.5076195796e+000,4.1261808458e+000,4.5993255712e+000,3.8483713260e+000,3.7102419451e+000,3.1714480658e+000,3.2101581590e+000,
2.5500000000e+001,4.3015601568e+000,3.8678702850e+000,3.2134992208e+000,3.9383505491e+000,4.0585600754e+000,4.0132229176e+000,4.2176369188e+000,2.5504752298e+000,4.1185339279e+000,4.6624386915e+000,3.8070783958e+000,3.8577165627e+000,3.1788810856e+000,3.2689416624e+000,
2.5593750000e+001,4.3817944526e+000,3.9115295416e+000,3.3103584763e+000,3.9571352742e+000,4.0733889490e+000,4.0624751775e+000,4.2435600374e+000,2.5689286679e+000,4.1493421278e+000,4.7979986296e+000,3.7943172931e+000,3.8734052275e+000,3.1818520796e+000,3.2492298818e+000,
2.5687500000e+001,4.3736516771e+000,3.8964062504e+000,3.3752475711e+000,3.9296990092e+000,4.0745646221e+000,4.0750344167e+000,4.1472956399e+000,2.5436222123e+000,4.1656488629e+000,4.8204365692e+000,3.7944248700e+000,3.8813294301e+000,3.1522606943e+000,3.1959026124e+000,
2.5781250000e+001,4.2798596868e+000,3.9980692638e+000,3.3702966625e+000,3.9422515777e+000,3.9909207478e+000,4.1638018442e+000,4.1169106349e+000,2.6785958837e+000,4.2534707249e+000,4.9124984846e+000,3.8408529335e+000,4.0117583579e+000,2.9538540816e+000,3.1729216760e+000,
2.5875000000e+001,4.2885221449e+000,4.0482758108e+000,3.4614337887e+000,3.9061079864e+000,3.9811546707e+000,4.1410605200e+000,4.1958994913e+000,2.6703788017e+000,4.3127631655e+000,4.8729802213e+000,3.7796928780e+000,4.0067995722e+000,2.9334021085e+000,3.1854424082e+000,
2.5968750000e+001,4.2338977304e+000,4.0669799481e+000,3.4419595128e+000,3.8469166465e+000,3.8736654695e+000,4.0220249680e+000,4.1011111709e+000,2.6332218554e+000,4.2717328817e+000,4.7659953787e+000,3.7098931994e+000,3.9299947546e+000,2.8742994243e+000,3.1056553872e+000,
2.6062500000e+001,4.2262327768e+000,4.0697995148e+000,3.4036208416e+000,3.8422775410e+000,3.7988179445e+000,3.9682394012e+000,4.1579874814e+000,2.5794655460e+000,4.1783482394e+000,4.7937240771e+000,3.5160055482e+000,3.8653195188e+000,2.7286331354e+000,3.1172187864e+000,
2.6156250000e+001,4.0824399723e+000,3.9599083433e+000,3.2967185508e+000,3.7425153876e+000,3.6589459172e+000,3.6980508578e+000,4.1076184088e+000,2.5343898932e+000,4.1657734689e+000,4.7051076972e+000,3.6490646517e+000,3.9117824949e+000,2.7867578663e+000,3.0645420416e+000,
2.6250000000e+001,4.0340008255e+000,3.9319846967e+000,3.3183638884e+000,3.7381227953e+000,3.5458695983e+000,3.7239264072e+000,4.0999239008e+000,2.5434573055e+000,4.1800080309e+000,4.8078228801e+000,3.8119976711e+000,4.0795086586e+000,2.9107756850e+000,3.1388110695e+000,
2.6343750000e+001,4.5738735687e+000,4.4235536064e+000,3.5376296905e+000,4.3708683360e+000,4.1814329097e+000,4.3709451839e+000,4.4736834705e+000,2.9109024932e+000,4.6699899892e+000,5.1439455467e+000,4.2996797800e+000,4.5853219017e+000,3.3939439583e+000,3.4293915491e+000,
2.6437500000e+001,4.4986258756e+000,4.3811999484e+000,3.5268178237e+000,4.3041628865e+000,4.1466061923e+000,4.3168964686e+000,4.4377424329e+000,2.8455199033e+000,4.6903058505e+000,5.0850955107e+000,4.3115960772e+000,4.5225450389e+000,3.3775189000e+000,3.3424263686e+000,
2.6531250000e+001,4.4832621357e+000,4.4320007095e+000,3.5085749100e+000,4.3592318890e+000,4.1795926355e+000,4.3658412076e+000,4.4458633107e+000,2.8559507604e+000,4.6737071158e+000,5.1148562486e+000,4.2518034603e+000,4.5452370657e+000,3.3448706440e+000,3.3041102937e+000,
2.6625000000e+001,4.5262305136e+000,4.4496180345e+000,3.3925184923e+000,4.3629971390e+000,4.2169459434e+000,4.3795873949e+000,4.4114327791e+000,2.8359589317e+000,4.7145984667e+000,5.0458059023e+000,4.2634767440e+000,4.5747645481e+000,3.3549746407e+000,3.3120067041e+000,
2.6718750000e+001,4.6061676355e+000,4.4645747473e+000,3.3691417606e+000,4.3794293253e+000,4.2528644575e+000,4.3829745213e+000,4.4290326610e+000,2.8081603263e+000,4.7266188433e+000,5.0480511786e+000,4.2455754987e+000,4.4987936542e+000,3.3574948336e+000,3.2580350924e+000,
2.6812500000e+001,4.6141653379e+000,4.4325553972e+000,3.2797072339e+000,4.3592147389e+000,4.2727936361e+000,4.3381976966e+000,4.4469543949e+000,2.7205623518e+000,4.7045643067e+000,5.0469078727e+000,4.2389171195e+000,4.4061958770e+000,3.3752483615e+000,3.2268193784e+000,
2.6906250000e+001,4.6240011207e+000,4.4552988006e+000,3.2153187948e+000,4.4411133453e+000,4.3050884714e+000,4.3709178745e+000,4.3816180642e+000,2.7645413412e+000,4.6796076396e+000,5.0751883811e+000,4.3040856092e+000,4.4706531016e+000,3.3986230868e+000,3.2820395276e+000,
2.7000000000e+001,5.7526520584e+000,5.4306664669e+000,3.6976722826e+000,5.5958570980e+000,5.3380920699e+000,5.5077348764e+000,5.2139985500e+000,3.4075214020e+000,5.6026912001e+000,6.2628617256e+000,5.5577376420e+000,5.7273649370e+000,4.5819462709e+000,4.4258935036e+000,
2.7093750000e+001,5.8964753017e+000,5.5583988871e+000,3.8489056969e+000,5.7062496891e+000,5.4760319166e+000,5.6357074801e+000,5.2835675164e+000,3.5030100702e+000,5.8145350569e+000,6.3803932728e+000,5.7368157128e+000,5.8646447827e+000,4.6958218050e+000,4.5071944590e+000,
2.7187500000e+001,5.9514451116e+000,5.5979884191e+000,3.8864419028e+000,5.7208602936e+000,5.5165786942e+000,5.6524756146e+000,5.3019026679e+000,3.4928139443e+000,5.8182641531e+000,6.3744068242e+000,5.7107116996e+000,5.8582878564e+000,4.6792034342e+000,4.4969708661e+000,
2.7281250000e+001,6.1700560515e+000,5.7961573747e+000,4.0469739520e+000,5.9075482696e+000,5.7724446047e+000,5.8558917215e+000,5.5464018789e+000,3.6284627817e+000,6.0977818138e+000,6.5210537463e+000,6.0251708390e+000,6.0721174618e+000,4.9431056588e+000,4.7846792900e+000,
2.7375000000e+001,6.2017656100e+000,5.7837670590e+000,4.0336460010e+000,5.8999209130e+000,5.7491803288e+000,5.8379078903e+000,5.5513089462e+000,3.5857668699e+000,6.1236964101e+000,6.5110983278e+000,6.0646939540e+000,6.0824894538e+000,4.9358235536e+000,4.8025388410e+000,
2.7468750000e+001,6.2221691525e+000,5.7983893851e+000,4.0403085105e+000,5.9137662830e+000,5.7567543565e+000,5.8422281658e+000,5.5664071560e+000,3.6511328997e+000,6.1215724050e+000,6.5254094815e+000,6.0756111451e+000,6.0878712384e+000,4.9454410620e+000,4.8166716659e+000,
2.7562500000e+001,6.2049922218e+000,5.7926686722e+000,4.0239388046e+000,5.9106448551e+000,5.7477308213e+000,5.8342906233e+000,5.5773773151e+000,3.6438611276e+000,6.1156194565e+000,6.5157071957e+000,6.0803828797e+000,6.0854635019e+000,4.9391026823e+000,4.8415822422e+000,
2.7656250000e+001,6.2094917234e+000,5.7958661541e+000,4.0527661798e+000,5.9126856299e+000,5.7466509522e+000,5.8351197949e+000,5.5719313866e+000,3.6502767341e+000,6.1108991058e+000,6.5370415739e+000,6.0891163417e+000,6.1031584073e+000,4.9607872396e+000,4.8806526653e+000,
2.7750000000e+001,6.2430585524e+000,5.8430337447e+000,4.1645399006e+000,5.9507258108e+000,5.7790893329e+000,5.8801998874e+000,5.5859753776e+000,3.7608129236e+000,6.0986936834e+000,6.5689337631e+000,6.1094096896e+000,6.1228971218e+000,4.9735449068e+000,4.8823579061e+000,
2.7843750000e+001,6.2494489369e+000,5.8367858593e+000,4.2040970952e+000,5.9479464182e+000,5.7820819146e+000,5.8757864506e+000,5.5794365988e+000,3.7614907857e+000,6.1012970108e+000,6.5741648410e+000,6.1108761086e+000,6.1329940027e+000,4.9973829219e+000,4.8997753380e+000,
2.7937500000e+001,6.2446331740e+000,5.8157408616e+000,4.1903670243e+000,5.9283187289e+000,5.7655055980e+000,5.8661978191e+000,5.5655453744e+000,3.7644807747e+000,6.0969100000e+000,6.5629443173e+000,6.0968268124e+000,6.1241056323e+000,4.9873592112e+000,4.9021392076e+000,
2.8031250000e+001,5.6022333028e+000,5.1279995993e+000,3.8547650733e+000,5.1244058225e+000,5.0827704963e+000,5.0753669226e+000,4.9714760425e+000,3.2669068652e+000,5.3924694716e+000,5.6688026262e+000,5.3950449882e+000,5.3008275536e+000,4.1988316454e+000,4.2772918230e+000,
2.8125000000e+001,5.5323912109e+000,5.0976580506e+000,3.8084794462e+000,5.0660313238e+000,5.0505816894e+000,5.0386537622e+000,4.9653199044e+000,3.2859779550e+000,5.3626298185e+000,5.6057566762e+000,5.3482838891e+000,5.2676278943e+000,4.1806442380e+000,4.2798231597e+000,
2.8218750000e+001,5.4533328380e+000,5.0141234044e+000,3.7814063991e+000,5.0367112524e+000,4.9911966888e+000,4.9935468982e+000,4.9432671787e+000,3.2639083846e+000,5.3965931704e+000,5.5969621319e+000,5.3427672493e+000,5.2066698233e+000,4.1675113929e+000,4.2435241833e+000,
2.8312500000e+001,4.5369075670e+000,4.3303422263e+000,3.3959282882e+000,4.2027653634e+000,4.0622326909e+000,4.0599654891e+000,4.1966556373e+000,2.9665919876e+000,4.2394812362e+000,4.9618436596e+000,4.1125927306e+000,4.2858432376e+000,3.1590548895e+000,3.4914825207e+000,
2.8406250000e+001,4.5228938488e+000,4.2626317125e+000,3.3326909556e+000,4.1700562932e+000,4.0288922399e+000,3.9798922769e+000,4.1318333741e+000,2.8910332808e+000,4.0714559125e+000,4.9127103536e+000,3.8745451204e+000,4.2370924438e+000,3.0106288883e+000,3.4431485693e+000,
2.8500000000e+001,4.5276366250e+000,4.2461465602e+000,3.3274939968e+000,4.1501803836e+000,3.9999658290e+000,3.9959098793e+000,4.0716490830e+000,2.7932224436e+000,4.0678791564e+000,4.8333922778e+000,3.9082996621e+000,4.1777202165e+000,3.0152415667e+000,3.4616577741e+000,
2.8593750000e+001,4.5875227123e+000,4.3711300806e+000,3.5003868199e+000,4.3311583601e+000,4.0726137642e+000,4.0862988867e+000,4.0187907590e+000,2.8011344086e+000,4.0364566294e+000,4.8670949400e+000,3.8994674093e+000,4.0997528704e+000,3.0198568376e+000,3.3643486657e+000,
2.8687500000e+001,4.8068233312e+000,4.5596757481e+000,3.7134265303e+000,4.5526780224e+000,4.2089640022e+000,4.2697090171e+000,4.1053862396e+000,2.9189819690e+000,4.0603831340e+000,4.9087311769e+000,3.9319884968e+000,4.1109834586e+000,2.8980461282e+000,3.4180671873e+000,
2.8781250000e+001,4.7863983912e+000,4.6197927093e+000,3.7222952088e+000,4.6976990121e+000,4.1213839074e+000,4.3071001009e+000,4.1621766014e+000,2.7835138059e+000,4.0397125694e+000,4.8891432062e+000,3.7316326112e+000,4.1068115695e+000,2.8495986731e+000,3.4929033093e+000,
2.8875000000e+001,5.0591660366e+000,4.9036028921e+000,3.9547681134e+000,5.0155807187e+000,4.2914007183e+000,4.5494310624e+000,4.2060283188e+000,2.8906833079e+000,4.0655542596e+000,5.0742534776e+000,3.8223507243e+000,4.1707475364e+000,2.7542467011e+000,3.5740901025e+000,
2.8968750000e+001,5.2066796258e+000,4.9993764753e+000,4.1520468321e+000,5.1242040142e+000,4.4849644745e+000,4.6517925540e+000,4.3423533779e+000,2.9519738964e+000,4.0955681771e+000,5.1661229895e+000,3.8239853941e+000,4.3405818068e+000,2.8193097923e+000,3.5816153364e+000,
2.9062500000e+001,5.2821023004e+000,5.0730127472e+000,4.2728084107e+000,5.2171569584e+000,4.5233588022e+000,4.7573757682e+000,4.3609966299e+000,3.0800807938e+000,4.1372467690e+000,5.2544145896e+000,3.8251655702e+000,4.7015556201e+000,2.8061755103e+000,3.7892085874e+000,
2.9156250000e+001,5.2942494037e+000,5.1172027545e+000,4.3441339484e+000,5.2715953714e+000,4.5780398121e+000,4.8338343459e+000,4.3157971385e+000,3.1014601674e+000,4.1712811020e+000,5.3040744102e+000,3.8401689512e+000,4.7710765388e+000,2.8603538675e+000,3.8799413314e+000,
2.9250000000e+001,5.3718457347e+000,5.1819112977e+000,4.4138736731e+000,5.3380625097e+000,4.5537339944e+000,4.8586451461e+000,4.3694967719e+000,3.1486641097e+000,3.9799463349e+000,5.2613621062e+000,3.9101331579e+000,4.7667483057e+000,2.9271183963e+000,3.9018281670e+000,
2.9343750000e+001,5.3364698003e+000,5.1698793337e+000,4.4139111588e+000,5.3254948660e+000,4.5336894772e+000,4.8540755090e+000,4.3770566001e+000,3.1161905914e+000,3.9549746419e+000,5.2699777326e+000,3.9567168921e+000,4.7281346528e+000,2.8930914441e+000,3.8727610127e+000,
2.9437500000e+001,5.3188686399e+000,5.1769734830e+000,4.4297340797e+000,5.3563126157e+000,4.5331562052e+000,4.8648572677e+000,4.3328130328e+000,3.1253885632e+000,3.9187206262e+000,5.3563510966e+000,3.9605123015e+000,4.8022566943e+000,2.9381457171e+000,4.0477495467e+000,
2.9531250000e+001,5.3292986695e+000,5.2198749770e+000,4.4361233588e+000,5.4013244694e+000,4.5618411834e+000,4.8946466611e+000,4.3217624280e+000,3.1351542611e+000,4.1568535305e+000,5.4650030788e+000,4.0810281193e+000,4.9450653243e+000,2.9856820385e+000,4.1441823986e+000,
2.9625000000e+001,5.2609002211e+000,5.1284983166e+000,4.3688326560e+000,5.3397127072e+000,4.4305428414e+000,4.7987461267e+000,4.2239795623e+000,3.0699977056e+000,4.1435246917e+000,5.4388424584e+000,3.9677313152e+000,4.9289471685e+000,3.0013069093e+000,4.1385105454e+000,
2.9718750000e+001,5.4715999281e+000,5.3038520895e+000,4.3678374182e+000,5.4840141670e+000,4.6893186199e+000,5.1205901690e+000,4.5868856726e+000,3.2412875404e+000,4.8768868431e+000,5.7946031165e+000,4.9202443680e+000,5.3374325060e+000,3.6335849506e+000,4.4522230628e+000,
2.9812500000e+001,5.3869913128e+000,5.1325667311e+000,4.2994986959e+000,5.3191466068e+000,4.6290723460e+000,4.9901170335e+000,4.5030106179e+000,3.1410444113e+000,4.8874586081e+000,5.7296739177e+000,4.9294575335e+000,5.3186686679e+000,3.6246706812e+000,4.4017340489e+000,
2.9906250000e+001,5.1683344110e+000,4.9270993151e+000,4.0515393700e+000,5.0956187328e+000,4.5145849857e+000,4.8804108335e+000,4.4573109814e+000,3.0890652202e+000,4.8558863308e+000,5.6174547623e+000,4.9331335154e+000,5.2658061949e+000,3.5998003187e+000,4.3657244481e+000,
3.0000000000e+001,5.0993941191e+000,4.8927960815e+000,3.8908333149e+000,5.0438434519e+000,4.4092460490e+000,4.8246154865e+000,4.3865900022e+000,3.0788595362e+000,4.8392766795e+000,5.5874711170e+000,4.9327018710e+000,5.1610974978e+000,3.6015151156e+000,4.3161407456e+000,
3.0093750000e+001,5.0166213177e+000,4.8074625742e+000,3.7696539782e+000,4.9343723868e+000,4.3533086708e+000,4.7468160400e+000,4.3727914918e+000,2.9408595515e+000,4.8510200781e+000,5.5561682502e+000,4.9175378405e+000,4.9592316698e+000,3.5922911182e+000,4.1872035405e+000,
3.0187500000e+001,4.9972640604e+000,4.7177967838e+000,3.5940017373e+000,4.8695748990e+000,4.2659582284e+000,4.6691918330e+000,4.3843028764e+000,2.8847765502e+000,4.8654424493e+000,5.5170236756e+000,4.9077689997e+000,4.9355561592e+000,3.5704019799e+000,4.1533271555e+000,
3.0281250000e+001,4.9192194989e+000,4.6710408064e+000,3.5097402585e+000,4.8149364526e+000,4.2480189971e+000,4.6842064576e+000,4.4018726508e+000,2.8297730421e+000,4.8610610941e+000,5.5311570446e+000,4.8966999561e+000,4.9536556872e+000,3.5796171874e+000,4.1541241715e+000,
3.0375000000e+001,4.9224418328e+000,4.6669036783e+000,3.5298249029e+000,4.8059409331e+000,4.2571478556e+000,4.6725826852e+000,4.3800813373e+000,2.8364646447e+000,4.8540404988e+000,5.5190508581e+000,4.8585231654e+000,4.9545021878e+000,3.5718136238e+000,4.1394605088e+000,
3.0468750000e+001,4.8559672318e+000,4.6029845808e+000,3.4530764785e+000,4.7127764845e+000,4.2295016578e+000,4.6411060986e+000,4.4254942457e+000,2.8524382061e+000,4.8427569705e+000,5.4805693333e+000,4.8507302292e+000,4.9836132110e+000,3.5482572441e+000,4.0074491562e+000,
3.0562500000e+001,4.8459232578e+000,4.4926331815e+000,3.4128540918e+000,4.5868143859e+000,4.1588726469e+000,4.5685581805e+000,4.4357707529e+000,2.8510322794e+000,4.7891148234e+000,5.3465902016e+000,4.8341291084e+000,4.8667844999e+000,3.5528414925e+000,3.9160098992e+000,
3.0656250000e+001,4.5095965574e+000,3.9888120121e+000,3.2455408559e+000,4.0964323296e+000,3.7370905600e+000,3.9750838128e+000,4.2205760325e+000,2.5770654335e+000,4.4005183847e+000,4.8697403861e+000,4.2105671999e+000,4.3292937783e+000,2.7198944150e+000,3.4678361912e+000,
3.0750000000e+001,4.0856332120e+000,3.7942479523e+000,3.1493204167e+000,3.8054029187e+000,3.6463520104e+000,3.7358836615e+000,4.0901309952e+000,2.4895115379e+000,3.9585252581e+000,4.7204423955e+000,3.6138057105e+000,4.0624334873e+000,2.5352691255e+000,3.2777661603e+000,
3.0843750000e+001,3.9587876107e+000,3.7013834808e+000,3.1077519525e+000,3.7968093969e+000,3.4176257034e+000,3.6638519402e+000,4.0241481788e+000,2.4371665909e+000,3.9079251875e+000,4.6866197275e+000,3.4906949044e+000,4.1064261732e+000,2.7321376620e+000,3.3089649821e+000,
3.0937500000e+001,4.2026627263e+000,3.7650492120e+000,3.2493063015e+000,3.9721414287e+000,3.5260183976e+000,3.5613360634e+000,4.0337090064e+000,2.3996586601e+000,4.0085188216e+000,4.8178859431e+000,3.4985029066e+000,4.5502789317e+000,2.7622631013e+000,3.7214790260e+000,
3.1031250000e+001,4.2371123577e+000,3.6960246164e+000,3.2453414263e+000,3.9496699333e+000,3.7190461758e+000,3.5711825153e+000,4.0340190623e+000,2.3645972657e+000,4.0018845653e+000,4.8385736577e+000,3.9316183194e+000,4.5830547178e+000,2.8194233354e+000,3.7384098314e+000,
3.1125000000e+001,4.2857110727e+000,3.7259630519e+000,3.2504682444e+000,3.9593433995e+000,3.7625167134e+000,3.5522029785e+000,4.0869298701e+000,2.3774319704e+000,3.8503577678e+000,4.8536728956e+000,4.1112632038e+000,4.5893238392e+000,2.9240253199e+000,3.7375005467e+000,
3.1218750000e+001,4.3095686513e+000,3.5770218910e+000,3.2075560784e+000,3.7452577848e+000,3.7767849664e+000,3.4474811332e+000,4.0668255224e+000,2.3514134270e+000,3.9445679189e+000,4.8435170466e+000,4.2056168854e+000,4.6181088185e+000,2.9717616400e+000,3.7539392806e+000,
3.1312500000e+001,4.2926673211e+000,3.4664239075e+000,3.0727495240e+000,3.6352368780e+000,3.7599194011e+000,3.4198906765e+000,3.9745577021e+000,2.3906322124e+000,3.9846547931e+000,4.7909670773e+000,4.1695182445e+000,4.6085198046e+000,2.8995799906e+000,3.7461222170e+000,
3.1406250000e+001,4.2909049266e+000,3.7003284271e+000,3.1891375214e+000,3.6857210514e+000,3.7949425173e+000,3.6212372475e+000,4.0215868045e+000,2.4355161413e+000,3.9556665103e+000,4.7498582545e+000,4.1916815773e+000,4.6045492058e+000,2.9292549411e+000,3.7200924821e+000,
3.1500000000e+001,4.2881273466e+000,3.7629240200e+000,3.2071159416e+000,3.7135906433e+000,3.8786821494e+000,3.6082396834e+000,3.9742355496e+000,2.4374296233e+000,3.9340957883e+000,4.6678566280e+000,4.1649304547e+000,4.4429437651e+000,2.8173630710e+000,3.6431085508e+000,
3.1593750000e+001,4.2138557081e+000,3.7711288940e+000,3.0744729807e+000,3.6947067035e+000,3.8507568377e+000,3.6114244944e+000,4.0490713182e+000,2.4124233627e+000,3.8894741602e+000,4.6593583353e+000,4.1477522712e+000,4.5651898933e+000,2.8024717786e+000,3.6851975089e+000,
3.1687500000e+001,4.3836329051e+000,3.8547035528e+000,3.1474578610e+000,3.7736164607e+000,3.9833960044e+000,3.7613303241e+000,4.0029736292e+000,2.4808241674e+000,3.9539513972e+000,4.6170909851e+000,4.1615917387e+000,4.5445256194e+000,2.9069832276e+000,3.6333625531e+000,
3.1781250000e+001,4.5006042428e+000,3.8979383914e+000,3.1783857950e+000,3.8427928235e+000,4.0048130342e+000,3.8504254063e+000,3.9743332223e+000,2.5392584743e+000,3.9023404075e+000,4.6005031422e+000,4.1257631116e+000,4.5032150197e+000,2.8599511894e+000,3.5191705501e+000,
3.1875000000e+001,4.5219063543e+000,3.8766232440e+000,3.1103480148e+000,3.7558107332e+000,3.9515873596e+000,3.8972576194e+000,3.9995836884e+000,2.4698095686e+000,3.8063081776e+000,4.6046283542e+000,4.1047049791e+000,4.1743172157e+000,2.6736554987e+000,3.0576040687e+000,
3.1968750000e+001,4.4068402031e+000,3.8989826422e+000,3.0585825370e+000,3.6472330738e+000,3.8933353297e+000,3.9724030600e+000,4.0224626524e+000,2.4166291668e+000,3.7703407063e+000,4.3937192571e+000,4.0944951348e+000,3.9707469435e+000,2.6259612099e+000,2.7701585437e+000,
3.2062500000e+001,4.4130116377e+000,3.9303186085e+000,2.9220437326e+000,3.6343016784e+000,3.7694463455e+000,3.9341647780e+000,4.0085704414e+000,2.4868300145e+000,3.8593810315e+000,4.4295692909e+000,3.6824630801e+000,3.9502495665e+000,2.5378178904e+000,2.7872029638e+000,
3.2156250000e+001,4.3487687808e+000,3.9382162213e+000,2.9082735840e+000,3.6599345177e+000,3.7773309726e+000,3.9219716051e+000,3.9594626289e+000,2.4199982719e+000,3.8339129233e+000,4.3925468009e+000,3.3938827124e+000,3.9310752118e+000,2.3487694396e+000,2.7141688349e+000,
3.2250000000e+001,4.3070531176e+000,3.8887567246e+000,2.9468476351e+000,3.6271302611e+000,3.7773533276e+000,3.8972421984e+000,3.9661415267e+000,2.4085446694e+000,3.7077530844e+000,4.4021344084e+000,3.2090261135e+000,3.8684025357e+000,2.3635086717e+000,2.6395706211e+000,
3.2343750000e+001,4.2991649153e+000,3.9037165409e+000,2.9210039564e+000,3.6781644785e+000,3.8079755716e+000,3.9786501103e+000,4.0455687655e+000,2.4237517318e+000,3.7667865028e+000,4.7114507166e+000,3.2068788423e+000,3.9595352309e+000,2.3924730363e+000,2.6965208842e+000,
3.2437500000e+001,4.2999796863e+000,3.7806832076e+000,2.7295057930e+000,3.6791139023e+000,3.8012551110e+000,3.8449045849e+000,3.9990401320e+000,2.3617418991e+000,3.7595711734e+000,4.8420714917e+000,3.2477515992e+000,3.9977448313e+000,2.6035195422e+000,2.7769605191e+000,
3.2531250000e+001,4.4294625931e+000,3.8276794868e+000,2.9421195445e+000,3.7279619796e+000,3.7856657575e+000,3.8967978915e+000,4.0538792500e+000,2.4013975108e+000,3.6811840273e+000,4.8406824965e+000,3.3033554762e+000,3.8260928721e+000,2.6875315276e+000,2.8080525867e+000,
3.2625000000e+001,4.4353929300e+000,3.8599537962e+000,3.0629076249e+000,3.8169802430e+000,3.7972528023e+000,3.9287947033e+000,3.9897225943e+000,2.3919645030e+000,3.7603125551e+000,4.9001662523e+000,3.2233403639e+000,3.6875504888e+000,2.7955616015e+000,2.8173128752e+000,
3.2718750000e+001,4.2871964702e+000,3.7912520865e+000,3.0159060519e+000,3.8260269688e+000,3.8142503157e+000,3.8411175251e+000,3.9856571705e+000,2.3502381180e+000,3.7164850638e+000,4.8842117682e+000,3.2875172369e+000,3.7260507737e+000,2.7883454119e+000,2.9613338806e+000,
3.2812500000e+001,4.1829136329e+000,3.6757030634e+000,3.0317626692e+000,3.7246643353e+000,3.6827102359e+000,3.7019744657e+000,4.0258051418e+000,2.1930017999e+000,3.7715699306e+000,4.7696487710e+000,3.5026461133e+000,3.7161217561e+000,2.8251393096e+000,3.1111931577e+000,
3.2906250000e+001,4.2759176851e+000,3.7704881536e+000,3.1545509839e+000,3.8699445332e+000,3.7433340273e+000,3.5930983931e+000,4.1838995913e+000,2.2323382694e+000,3.7055170863e+000,4.7496561073e+000,3.5797617609e+000,3.7281904941e+000,2.8179755571e+000,3.2550312730e+000,
3.3000000000e+001,4.3158182451e+000,3.8061996909e+000,3.2365573008e+000,4.1001926723e+000,3.7627449858e+000,3.5716726977e+000,4.1325916305e+000,2.2317691385e+000,3.7125592030e+000,4.7904607715e+000,3.5106215255e+000,3.8709581165e+000,2.8511618085e+000,3.4894103071e+000,
3.3093750000e+001,4.3938089048e+000,3.7772809017e+000,3.2667280302e+000,4.0896236809e+000,3.7902799874e+000,3.5731784637e+000,4.1536565509e+000,2.2558756857e+000,3.7584240435e+000,4.7467391771e+000,3.5042969873e+000,3.8982821669e+000,2.8780611366e+000,3.6969353947e+000,
3.3187500000e+001,4.5006100793e+000,3.8894192702e+000,3.4153407074e+000,4.2557560989e+000,3.8842477639e+000,3.6630231591e+000,4.1779495944e+000,2.3053451242e+000,3.7675430138e+000,4.8423976685e+000,3.5565440500e+000,3.9553869104e+000,2.8912751842e+000,3.8769995486e+000,
3.3281250000e+001,4.6418758052e+000,4.0133697826e+000,3.4851203229e+000,4.3607283056e+000,3.8425322626e+000,3.7570449419e+000,4.1542633940e+000,2.2992146365e+000,3.8402422945e+000,4.8599826109e+000,3.5883350551e+000,4.1275256266e+000,3.0213940436e+000,4.0887074521e+000,
3.3375000000e+001,4.6810988613e+000,4.0090297593e+000,3.5132107259e+000,4.3326480836e+000,3.7852777544e+000,3.6854121917e+000,4.0479303282e+000,2.2509274440e+000,3.8168888452e+000,4.6970550865e+000,3.5603952174e+000,4.1520407067e+000,3.0161809295e+000,4.1411211082e+000,
3.3468750000e+001,4.6235222581e+000,4.0124982857e+000,3.5282157975e+000,4.3016302699e+000,3.7705038286e+000,3.6241548861e+000,4.0861368045e+000,2.2707671815e+000,3.8916321756e+000,4.6015640401e+000,3.5533800023e+000,4.1650213113e+000,2.8924081989e+000,4.1221014493e+000,
3.3562500000e+001,4.5598804061e+000,3.9196532998e+000,3.4377965793e+000,4.2360603563e+000,3.7449805088e+000,3.5903702557e+000,4.0093499486e+000,2.2391963169e+000,3.9030630199e+000,4.6083913527e+000,3.5437390924e+000,4.2113401054e+000,2.8960241902e+000,4.1697504305e+000,
3.3656250000e+001,4.7590237682e+000,4.0674993193e+000,3.5145653450e+000,4.3061788913e+000,3.7938302133e+000,3.7574021505e+000,4.1837448682e+000,2.4381391438e+000,3.8429582617e+000,4.6086612538e+000,3.5877617797e+000,4.3755859132e+000,2.8491368388e+000,4.2567735832e+000,
3.3750000000e+001,4.9550670557e+000,4.3905493026e+000,3.6519760464e+000,4.4738763451e+000,3.9335445526e+000,3.8808103676e+000,4.2557908375e+000,2.4638349541e+000,3.9284730139e+000,4.5991059427e+000,3.6061004526e+000,4.4051252986e+000,2.8942310262e+000,4.2787764153e+000,
3.3843750000e+001,5.0331270027e+000,4.5719013864e+000,3.8180295287e+000,4.6794232518e+000,3.9300345385e+000,4.0137026466e+000,4.2880445923e+000,2.5668445660e+000,3.8763050095e+000,4.7764905779e+000,3.5109551447e+000,4.5596461009e+000,2.9074147884e+000,4.4247754142e+000,
3.3937500000e+001,5.0910276421e+000,4.6227248497e+000,3.8616259563e+000,4.7255355383e+000,3.9937298497e+000,4.1027243968e+000,4.1638652085e+000,2.7019742374e+000,3.8941704849e+000,4.8319776740e+000,3.7582600865e+000,4.6914844362e+000,3.0087960584e+000,4.5966779421e+000,
3.4031250000e+001,5.0370584498e+000,4.6270591514e+000,3.8627906101e+000,4.6295396038e+000,4.0534736213e+000,4.0924575771e+000,4.1894441424e+000,2.6688063711e+000,3.9224614224e+000,4.9138785602e+000,3.8720148907e+000,4.8297169552e+000,3.0237189929e+000,4.6290308130e+000,
3.4125000000e+001,5.0391953463e+000,4.6736261179e+000,3.9305346057e+000,4.6775765146e+000,4.1018675526e+000,4.1572472788e+000,4.2219501291e+000,2.7008736901e+000,3.7910350914e+000,5.0540495883e+000,3.9950798999e+000,5.0905599112e+000,3.2983103006e+000,4.7297318916e+000,
3.4218750000e+001,5.1247514756e+000,4.7414643609e+000,3.9843981001e+000,4.6911284724e+000,4.1585951911e+000,4.2533734170e+000,4.2689327387e+000,2.7685812109e+000,3.7389887669e+000,5.1067691170e+000,4.0679993994e+000,5.2648878399e+000,3.3496819762e+000,4.7104439695e+000,
3.4312500000e+001,5.1770052691e+000,4.8091974535e+000,4.0645694955e+000,4.7722763586e+000,4.2704242335e+000,4.3309733289e+000,4.2863990464e+000,2.7939097820e+000,3.7281492297e+000,5.1542549404e+000,4.1172436270e+000,5.3311181951e+000,3.3521844254e+000,4.7605979406e+000,
3.4406250000e+001,5.2019019819e+000,4.8624743037e+000,4.1744605799e+000,4.8650202910e+000,4.2936902207e+000,4.3948341494e+000,4.3255491105e+000,2.8650661392e+000,3.8599561777e+000,5.2319654488e+000,4.2114945533e+000,5.3607348852e+000,3.3696633607e+000,4.7704067970e+000,
3.4500000000e+001,5.3053565420e+000,4.9269390320e+000,4.2718948636e+000,4.9368946875e+000,4.4017279372e+000,4.4891951616e+000,4.2789201431e+000,2.8893020424e+000,3.8692193489e+000,5.2638958305e+000,4.1997157040e+000,5.3696016313e+000,3.3872187933e+000,4.7704055673e+000,
3.4593750000e+001,5.3424294570e+000,5.0798464047e+000,4.3660799554e+000,5.0802968721e+000,4.4608748039e+000,4.5903153814e+000,4.3374907218e+000,2.9125763981e+000,3.9475247048e+000,5.3268272530e+000,4.1931639490e+000,5.3514247451e+000,3.3747816266e+000,4.7393819275e+000,
3.4687500000e+001,5.4522571925e+000,5.3368334796e+000,4.5531532977e+000,5.3132071842e+000,4.6330897566e+000,4.7721525526e+000,4.4739348145e+000,3.0522959350e+000,3.9627432908e+000,5.5267835208e+000,4.1801502283e+000,5.4528106355e+000,3.3753438293e+000,4.8039488771e+000,
3.4781250000e+001,5.4082926602e+000,5.3593720304e+000,4.5678891378e+000,5.3621279160e+000,4.5448613903e+000,4.7588168676e+000,4.4077625656e+000,3.0248056940e+000,3.9016316756e+000,5.6334803323e+000,4.1742045834e+000,5.5061591719e+000,3.3744125692e+000,4.8480391563e+000,
3.4875000000e+001,5.3457541033e+000,5.3213542656e+000,4.5213243335e+000,5.2996322599e+000,4.5089656348e+000,4.7607616398e+000,4.3437824506e+000,2.9582171316e+000,3.9522449815e+000,5.5962660084e+000,4.0876470555e+000,5.4341798218e+000,3.3790905906e+000,4.7439821809e+000,
3.4968750000e+001,5.4022134410e+000,5.3713930000e+000,4.5774498782e+000,5.3664999716e+000,4.5400069592e+000,4.7748576255e+000,4.3880060264e+000,2.9743643052e+000,3.9459906045e+000,5.5998548025e+000,3.8985521370e+000,5.3830174830e+000,3.4624507055e+000,4.6700665987e+000,
3.5062500000e+001,5.4839675026e+000,5.4164434428e+000,4.6027770733e+000,5.4198888033e+000,4.5649562191e+000,4.8387662130e+000,4.5810615003e+000,2.9864963011e+000,3.9671721497e+000,5.6047524445e+000,3.9187739994e+000,5.2941582282e+000,3.5425418673e+000,4.6150443792e+000,
3.5156250000e+001,5.4646769099e+000,5.4039306094e+000,4.5970860085e+000,5.4280872682e+000,4.5389946920e+000,4.7873768976e+000,4.5247219632e+000,3.0709931877e+000,4.0228527295e+000,5.4912484667e+000,3.7117556531e+000,4.9457065587e+000,3.3157696210e+000,4.4060338716e+000,
3.5250000000e+001,5.4531735606e+000,5.4209466414e+000,4.6231590913e+000,5.4315718172e+000,4.5129981018e+000,4.8168725849e+000,4.5104469800e+000,3.0989228713e+000,4.0080138686e+000,5.5579529660e+000,3.6746036657e+000,4.9143596248e+000,3.3006528735e+000,4.3749206552e+000,
3.5343750000e+001,5.4393899780e+000,5.4642180877e+000,4.6525556802e+000,5.4337619224e+000,4.5711437407e+000,4.8364255956e+000,4.5929316032e+000,3.0726697607e+000,3.8799720070e+000,5.5203279881e+000,3.5734088656e+000,4.7679228961e+000,3.2015509291e+000,4.2999655500e+000,
3.5437500000e+001,5.4568138849e+000,5.4957165358e+000,4.6194430182e+000,5.4723566238e+000,4.5959709057e+000,4.8804671368e+000,4.6223269222e+000,3.0734883347e+000,3.8309373278e+000,5.5394999840e+000,3.4662584792e+000,4.7474319520e+000,3.1550025009e+000,4.3460882628e+000,
3.5531250000e+001,5.4789134512e+000,5.4830405724e+000,4.5908344664e+000,5.4572600677e+000,4.5412015835e+000,4.8511948962e+000,4.6921953672e+000,3.1426805408e+000,3.8197666085e+000,5.5204609021e+000,3.5052451312e+000,4.7258438867e+000,3.1443148014e+000,4.3440360296e+000,
3.5625000000e+001,5.5571465013e+000,5.4101885369e+000,4.5843434030e+000,5.4183198278e+000,4.5177397165e+000,4.8229451825e+000,4.7102381607e+000,3.1029407560e+000,3.9295774319e+000,5.4607716817e+000,3.5630155396e+000,4.8374931944e+000,3.2588991862e+000,4.4581030082e+000,
3.5718750000e+001,5.4878265852e+000,5.2485048688e+000,4.4639511045e+000,5.2828640907e+000,4.3765017388e+000,4.7351380069e+000,4.6166240514e+000,3.0877379989e+000,3.9573132501e+000,5.3367643716e+000,3.7086293461e+000,4.7256737629e+000,3.2498824353e+000,4.3962607150e+000,
3.5812500000e+001,5.4984806078e+000,5.2139148792e+000,4.4713452509e+000,5.2419663260e+000,4.4724262806e+000,4.8035645631e+000,4.6985649843e+000,3.1502814908e+000,4.0689699124e+000,5.3508191007e+000,3.7271739912e+000,4.6997990843e+000,3.2656951958e+000,4.3467925553e+000,
3.5906250000e+001,5.5903297908e+000,5.3372581449e+000,4.5661464638e+000,5.3886766893e+000,4.6109643327e+000,4.9902761413e+000,4.7101017892e+000,3.3059980118e+000,4.1198668775e+000,5.4766695935e+000,3.8915728982e+000,4.8839434606e+000,3.3244721515e+000,4.4233359559e+000,
3.6000000000e+001,5.5699467992e+000,5.3037093597e+000,4.5757123786e+000,5.3635854282e+000,4.5940917873e+000,4.9988700150e+000,4.6746743248e+000,3.3101561438e+000,4.1110457534e+000,5.4938613437e+000,3.9033225996e+000,4.8385247686e+000,3.2035182170e+000,4.3477312693e+000,
3.6093750000e+001,5.6165978755e+000,5.3064634549e+000,4.6003412523e+000,5.3489929986e+000,4.6151626386e+000,4.9509110666e+000,4.6264056013e+000,3.2243937012e+000,4.0713398966e+000,5.4681947279e+000,3.9182700540e+000,4.8214789722e+000,3.0444505726e+000,4.2674276510e+000,
3.6187500000e+001,5.6025082878e+000,5.2770943514e+000,4.5359650075e+000,5.2993519533e+000,4.5844295772e+000,4.9492107526e+000,4.6277764449e+000,3.1907093772e+000,4.0873349973e+000,5.4148772080e+000,3.9765422412e+000,4.8251544307e+000,3.0496241563e+000,4.2067430713e+000,
3.6281250000e+001,5.6376800828e+000,5.3225655965e+000,4.5926093363e+000,5.3436233181e+000,4.6573235085e+000,5.0195885689e+000,4.6668461840e+000,3.2962202508e+000,4.1988305681e+000,5.4474755211e+000,3.9965236620e+000,4.8568917816e+000,3.1118935903e+000,4.2395925066e+000,
3.6375000000e+001,5.5800768189e+000,5.2379392143e+000,4.4948875899e+000,5.2648212845e+000,4.5718980779e+000,4.9522922587e+000,4.6350001272e+000,3.2984220604e+000,4.2596421256e+000,5.3823030499e+000,4.0514536474e+000,4.7930249771e+000,3.1115602716e+000,4.1383537190e+000,
3.6468750000e+001,5.6139594933e+000,5.2939971511e+000,4.5469632668e+000,5.2547408200e+000,4.5455374514e+000,4.9696605928e+000,4.6348490198e+000,3.3113973363e+000,4.3141697272e+000,5.4327589720e+000,4.1253965501e+000,4.8358104729e+000,3.1195987141e+000,4.1465728956e+000,
3.6562500000e+001,5.6126376807e+000,5.3070523266e+000,4.6205857913e+000,5.3301115460e+000,4.6112594683e+000,5.0087820488e+000,4.5915373652e+000,3.3415330437e+000,4.2948920393e+000,5.5337186178e+000,4.0812206223e+000,4.8402579455e+000,3.0814435437e+000,4.0771019814e+000,
3.6656250000e+001,5.6191766166e+000,5.4226752698e+000,4.6944570935e+000,5.4004979766e+000,4.6895324010e+000,5.0264157083e+000,4.5916138099e+000,3.3341756077e+000,4.2251453660e+000,5.5381281617e+000,4.2141588928e+000,4.7597572415e+000,3.0652504384e+000,3.9222194819e+000,
3.6750000000e+001,5.6390209328e+000,5.4581618159e+000,4.6775102791e+000,5.3908411977e+000,4.7107222507e+000,5.0508843884e+000,4.5945523334e+000,3.2967436724e+000,4.2672140153e+000,5.5713954838e+000,4.1338384245e+000,4.7104799180e+000,3.0309967759e+000,3.8531811411e+000,
3.6843750000e+001,5.5728989161e+000,5.3867040910e+000,4.6303414053e+000,5.2935939000e+000,4.5598364671e+000,4.9399181988e+000,4.4573212551e+000,3.2030051299e+000,4.2299444388e+000,5.4350896906e+000,4.0537569526e+000,4.4917712274e+000,2.8173161303e+000,3.6896406879e+000,
3.6937500000e+001,5.5064428408e+000,5.3501291734e+000,4.5887697129e+000,5.2210005189e+000,4.4794024916e+000,4.8929889840e+000,4.4492842600e+000,3.1705050907e+000,4.2332594516e+000,5.3502799335e+000,4.0029064732e+000,4.4247172631e+000,2.7814271895e+000,3.6137578840e+000,
3.7031250000e+001,5.3845587099e+000,5.2677532032e+000,4.4711721131e+000,5.1133746915e+000,4.3051100369e+000,4.8241406658e+000,4.3096620127e+000,3.1341460642e+000,4.2082820222e+000,5.2656516055e+000,3.9644511653e+000,4.4481231668e+000,2.9278253975e+000,3.6496858535e+000,
3.7125000000e+001,5.3285561803e+000,5.2611645740e+000,4.4579136007e+000,5.1068136256e+000,4.3070561433e+000,4.8221323356e+000,4.2578591323e+000,3.1345388987e+000,4.1850840811e+000,5.2843282329e+000,3.8809224526e+000,4.4496204834e+000,3.0300789532e+000,3.6545291589e+000,
3.7218750000e+001,5.2561170911e+000,5.2154450860e+000,4.4299374780e+000,5.0765052877e+000,4.2728690323e+000,4.7903616160e+000,4.2822281698e+000,3.1214399251e+000,4.2165492881e+000,5.2472925167e+000,3.9393406641e+000,4.4701805610e+000,3.0137619974e+000,3.6629914945e+000,
3.7312500000e+001,5.2101690521e+000,5.1538587530e+000,4.3150253861e+000,4.9968745154e+000,4.2177201527e+000,4.6753446813e+000,4.2112867374e+000,3.0431805230e+000,4.2416810915e+000,5.2150747484e+000,4.0147008630e+000,4.5696097968e+000,3.0152791058e+000,3.8562574758e+000,
3.7406250000e+001,5.1597380570e+000,5.1132145620e+000,4.2784618177e+000,4.9568334513e+000,4.2666593016e+000,4.6768227255e+000,4.2285996753e+000,2.9956609327e+000,4.2653384563e+000,5.2101452570e+000,4.0588642737e+000,4.6642100767e+000,3.1077300355e+000,3.9213513625e+000,
3.7500000000e+001,4.9567049104e+000,4.9723121010e+000,4.1128383208e+000,4.8075030022e+000,4.1450085447e+000,4.5634098551e+000,4.1313292866e+000,2.9221767352e+000,4.2320169169e+000,5.1345687481e+000,4.1724923560e+000,4.8372280018e+000,3.2181968091e+000,4.0762375944e+000,
3.7593750000e+001,4.7590936145e+000,4.8418326566e+000,3.8195908888e+000,4.5371735695e+000,4.0440641694e+000,4.4109576678e+000,3.9166914787e+000,2.7586796088e+000,4.1569653681e+000,4.9567652051e+000,4.2807660277e+000,4.7872327482e+000,3.2057410024e+000,4.1405369567e+000,
3.7687500000e+001,4.1687086145e+000,4.3313643949e+000,3.3170029766e+000,4.0006030475e+000,3.7861146044e+000,4.0624769571e+000,3.9460363289e+000,2.6587661502e+000,4.1455952469e+000,4.8078115738e+000,4.1044810191e+000,4.7088681930e+000,3.1449022661e+000,4.1061882258e+000,
3.7781250000e+001,4.0355496942e+000,4.2166662315e+000,3.3973166200e+000,3.9054664721e+000,3.6928346999e+000,3.9463861755e+000,4.0616309462e+000,2.6904125368e+000,4.0761680365e+000,4.7932066812e+000,4.1097543762e+000,4.7969276386e+000,3.2627904120e+000,4.1537354119e+000,
3.7875000000e+001,3.8775516496e+000,4.0701263422e+000,3.2037568248e+000,3.7846660414e+000,3.7876012636e+000,3.8284795483e+000,4.1286762732e+000,2.6165539464e+000,3.9749917680e+000,4.8031013630e+000,4.1572243955e+000,4.8370721521e+000,3.2663525576e+000,4.1512702530e+000,
3.7968750000e+001,3.9005391115e+000,3.9926704946e+000,3.2291811045e+000,3.7462184968e+000,3.8385644248e+000,3.7777869094e+000,4.1768940835e+000,2.6191359524e+000,3.9982038416e+000,4.9169123845e+000,4.1609203112e+000,4.9252347948e+000,3.2826162252e+000,4.1268939236e+000,
3.8062500000e+001,4.0705233011e+000,4.1588494503e+000,3.4395763652e+000,3.9486616795e+000,3.8895939867e+000,3.7365757209e+000,4.2254341729e+000,2.6279099847e+000,4.0457922338e+000,4.8910035307e+000,4.1974130152e+000,4.8770933031e+000,3.1584528090e+000,4.0790845394e+000,
3.8156250000e+001,4.1205160170e+000,4.1941033141e+000,3.5182313957e+000,4.0451266800e+000,3.9158824199e+000,3.7865744412e+000,4.2370832148e+000,2.7114533977e+000,4.0337803354e+000,4.8686058528e+000,4.1674934982e+000,4.8681099203e+000,3.0967975945e+000,4.0958778819e+000,
3.8250000000e+001,4.1098961149e+000,4.1597253100e+000,3.5011705076e+000,4.0432390818e+000,3.9360549445e+000,3.8245570658e+000,4.2147236200e+000,2.5978474154e+000,3.9302938878e+000,5.0001863440e+000,4.1202152893e+000,4.8498303870e+000,3.1273471892e+000,4.0899621868e+000,
3.8343750000e+001,4.0950633597e+000,4.1536349005e+000,3.4873854431e+000,4.0222196943e+000,3.9492765805e+000,3.7929073195e+000,4.2153899722e+000,2.4961106090e+000,3.8546135875e+000,5.0023275785e+000,3.9836425287e+000,4.7223016936e+000,3.1455002406e+000,3.9758536185e+000,
3.8437500000e+001,3.9955481089e+000,4.0876457055e+000,3.4071928959e+000,4.0409777940e+000,3.8657789891e+000,3.7222566039e+000,4.1516708530e+000,2.4773133238e+000,3.7146189027e+000,5.0154249774e+000,3.8357519893e+000,4.6760999205e+000,3.0026511870e+000,4.0076932089e+000,
3.8531250000e+001,4.0485059255e+000,4.2221097532e+000,3.4480421805e+000,4.1951571846e+000,3.8826194957e+000,3.8535476732e+000,4.1849462990e+000,2.5841658471e+000,3.6022695335e+000,5.2025874416e+000,3.5085869469e+000,4.7631909259e+000,2.9122811625e+000,4.1799317027e+000,
3.8625000000e+001,4.1186786986e+000,4.3032378292e+000,3.4595582309e+000,4.2819411350e+000,3.8785582387e+000,3.9295563443e+000,4.2189271009e+000,2.6142458503e+000,3.6185729324e+000,5.2669110897e+000,3.4169450523e+000,4.9128575055e+000,2.9494333057e+000,4.4768069781e+000,
3.8718750000e+001,4.1890101537e+000,4.3487909586e+000,3.4545740257e+000,4.3683057790e+000,3.9194259436e+000,3.9930278894e+000,4.1161666093e+000,2.6605271902e+000,3.5390995334e+000,5.3183977682e+000,3.4623703134e+000,5.0776099087e+000,3.1246302723e+000,4.7626204016e+000,
3.8812500000e+001,4.1484931753e+000,4.3251654280e+000,3.3078123573e+000,4.3437477632e+000,3.8803977327e+000,3.9904299973e+000,4.0729540636e+000,2.6323517865e+000,3.6605963159e+000,5.3955610881e+000,3.3338739663e+000,5.1355647134e+000,3.0661200779e+000,4.8492850028e+000,
3.8906250000e+001,4.0985090800e+000,4.3054764945e+000,3.2274857195e+000,4.3388840147e+000,3.7387353870e+000,3.9102623389e+000,3.9759651085e+000,2.6776050584e+000,3.6038595404e+000,5.3188214533e+000,3.4326071434e+000,5.0615195221e+000,3.1143044330e+000,4.8959928518e+000,
3.9000000000e+001,4.0312070760e+000,4.2417409843e+000,3.1007482990e+000,4.2667601610e+000,3.7102923111e+000,3.8714279661e+000,3.9402004560e+000,2.6505124202e+000,3.6012930111e+000,5.3273033706e+000,3.5386256936e+000,5.0201627462e+000,3.1537432334e+000,4.9418403209e+000,
3.9093750000e+001,4.0323179536e+000,4.1613026126e+000,2.9470021094e+000,4.1531529147e+000,3.6938676707e+000,3.7735331054e+000,3.8861267318e+000,2.5476676892e+000,3.6563208415e+000,5.3165993325e+000,3.4925638431e+000,5.0336126714e+000,3.2200847675e+000,4.9609256753e+000,
3.9187500000e+001,4.0849302765e+000,4.1293329864e+000,2.9106454787e+000,4.1345997897e+000,3.6870820764e+000,3.7322207686e+000,3.9454650686e+000,2.6062163158e+000,3.6924161267e+000,5.2543152636e+000,3.6723216012e+000,5.0261266856e+000,3.4189169122e+000,4.9804761076e+000,
3.9281250000e+001,4.0885011326e+000,4.1299159781e+000,2.9220408493e+000,4.1471366508e+000,3.6504537077e+000,3.6706154104e+000,3.9214706694e+000,2.6525739232e+000,3.6524729257e+000,5.1626385977e+000,3.7128328562e+000,5.0038814980e+000,3.4778001737e+000,4.9764272503e+000,
3.9375000000e+001,4.1628546889e+000,4.2342220652e+000,2.9898456757e+000,4.2548037870e+000,3.5040258449e+000,3.7604186045e+000,3.9781830451e+000,2.7116867838e+000,3.6953601401e+000,5.1783653416e+000,3.6712694285e+000,5.0264281032e+000,3.4633726053e+000,4.9867739504e+000,
3.9468750000e+001,4.2623549675e+000,4.2489725703e+000,2.9841468564e+000,4.1720623366e+000,3.5043693668e+000,3.7751896779e+000,3.9348634456e+000,2.6458994146e+000,3.7492574025e+000,5.0802137882e+000,3.7937975103e+000,4.9230872137e+000,3.4497194202e+000,4.9114865203e+000,
3.9562500000e+001,4.1367632928e+000,4.0414395568e+000,2.8272319391e+000,3.9993320583e+000,3.3809585084e+000,3.5505495635e+000,3.9830863858e+000,2.4564877371e+000,3.8499992467e+000,4.8361889447e+000,3.8169524536e+000,4.6732736079e+000,3.4538083423e+000,4.7319130787e+000,
3.9656250000e+001,4.1610917508e+000,3.9664760963e+000,2.9278683016e+000,3.8851445884e+000,3.4780144368e+000,3.5347021247e+000,3.9804623179e+000,2.3712187759e+000,3.9541812403e+000,4.7794959607e+000,3.7649810910e+000,4.4170756576e+000,3.3186464773e+000,4.4288426524e+000,
3.9750000000e+001,4.1142039020e+000,3.8860573965e+000,2.9372465938e+000,3.7577830949e+000,3.4932989154e+000,3.4604593576e+000,3.9420517702e+000,2.3798714254e+000,3.8251854486e+000,4.4588536244e+000,3.7674425774e+000,3.9362264787e+000,3.2383412249e+000,3.9067151740e+000,
3.9843750000e+001,4.1714003082e+000,3.9274685764e+000,3.0038373019e+000,3.8005439723e+000,3.6785598982e+000,3.6079368029e+000,4.0418764631e+000,2.5045518156e+000,3.9296594768e+000,4.4646564237e+000,3.8811209782e+000,3.7197480239e+000,3.3216071254e+000,3.7281199980e+000,
3.9937500000e+001,4.1578945226e+000,3.8067411688e+000,2.9436167812e+000,3.7060213082e+000,3.6034797179e+000,3.5400767588e+000,4.1128346218e+000,2.4201931798e+000,4.0088916224e+000,4.5023241878e+000,3.7796839315e+000,3.7892954255e+000,3.3075223431e+000,3.7233629168e+000,
4.0031250000e+001,4.1216619815e+000,3.8167686848e+000,2.7960397498e+000,3.6229963484e+000,3.5930798300e+000,3.5483739917e+000,4.1271957508e+000,2.4344909136e+000,3.9207839364e+000,4.3805664233e+000,3.7797507944e+000,3.8774770255e+000,3.2287416298e+000,3.5858061662e+000,
4.0125000000e+001,4.1181848529e+000,3.8425442011e+000,2.8880732215e+000,3.6460007564e+000,3.6190797195e+000,3.6274129829e+000,4.1727511168e+000,2.4945031986e+000,3.9841321140e+000,4.4763026423e+000,3.7755404959e+000,4.1778747537e+000,3.1262725565e+000,3.8694926318e+000,
4.0218750000e+001,4.1576361695e+000,3.9007313680e+000,2.8936034477e+000,3.6288348601e+000,3.6826798739e+000,3.7010155172e+000,4.1715904988e+000,2.5042014175e+000,3.9664583248e+000,4.5752944459e+000,3.6531934322e+000,4.3779853367e+000,2.9104258754e+000,3.9397555850e+000,
4.0312500000e+001,4.1202154656e+000,3.9938571910e+000,2.8219533796e+000,3.5081416394e+000,3.7216942639e+000,3.6873702617e+000,4.1957897425e+000,2.4068540896e+000,4.0213156288e+000,4.5928131609e+000,3.6732130133e+000,4.3405995280e+000,2.8358862206e+000,3.7884745102e+000,
4.0406250000e+001,4.0225390621e+000,3.8096997637e+000,2.7837859659e+000,3.3741507736e+000,3.6883493042e+000,3.6445603539e+000,4.1810421923e+000,2.4624462276e+000,3.9481933024e+000,4.6939352826e+000,3.6579401461e+000,4.3854001538e+000,2.8767753947e+000,3.8312683219e+000,
4.0500000000e+001,3.9850482874e+000,3.8178563013e+000,2.9703431611e+000,3.4986195494e+000,3.7728913999e+000,3.6434560203e+000,4.1785259375e+000,2.5241950537e+000,3.9668813957e+000,4.7837955122e+000,3.6307237786e+000,4.4317824309e+000,2.9593851857e+000,3.8521090521e+000,
4.0593750000e+001,3.9875247777e+000,3.8762167203e+000,2.9787842564e+000,3.6075239795e+000,3.7602619616e+000,3.7355639258e+000,4.1399073827e+000,2.5825962649e+000,3.9200704958e+000,4.7445966018e+000,3.5983579463e+000,4.4520163874e+000,3.0342526135e+000,3.9336242501e+000,
4.0687500000e+001,3.8820463723e+000,3.8757757061e+000,2.8282783464e+000,3.6234100708e+000,3.7450875773e+000,3.7326020415e+000,4.1670743165e+000,2.5883779939e+000,3.9859054744e+000,4.7372866847e+000,3.5814635803e+000,4.4899639518e+000,3.1097655679e+000,3.9649799140e+000,
4.0781250000e+001,3.8793322562e+000,4.0704187707e+000,2.8406082310e+000,3.7612170330e+000,3.7491238131e+000,3.8792551930e+000,4.1775835814e+000,2.4192022714e+000,3.9866080485e+000,4.7809151671e+000,3.5496430988e+000,4.4967611048e+000,3.2212532242e+000,4.0068544670e+000,
4.0875000000e+001,3.9091070724e+000,4.0916680282e+000,2.8927850522e+000,3.8148842666e+000,3.6855412116e+000,3.8521118076e+000,4.1198602553e+000,2.3852224507e+000,3.9261822270e+000,4.7123490408e+000,3.4621999335e+000,4.5982766646e+000,3.2732833516e+000,4.1710315061e+000,
4.0968750000e+001,3.9302364371e+000,4.1935689649e+000,2.9111593073e+000,3.8864846953e+000,3.8003979212e+000,3.9219642904e+000,4.0552239128e+000,2.2968861231e+000,3.9704679185e+000,4.6970261738e+000,3.5034507191e+000,4.5564753154e+000,3.2709587281e+000,4.0185379689e+000,
4.1062500000e+001,3.8756171607e+000,4.2688382583e+000,2.9882491295e+000,3.9905943429e+000,3.8451674339e+000,4.0451736967e+000,3.9777497980e+000,2.4437287855e+000,3.9646861608e+000,4.8545829560e+000,3.4825907204e+000,4.5921743099e+000,3.3067926486e+000,3.9820340372e+000,
4.1156250000e+001,3.9595530276e+000,4.2284618344e+000,3.0154366257e+000,3.9865303201e+000,3.8321978950e+000,4.0065414672e+000,4.0150332649e+000,2.3773913891e+000,4.1130416495e+000,4.7620887622e+000,3.5218075076e+000,4.4457846977e+000,3.3431878188e+000,3.8388219521e+000,
