Time (s),AF3,AF4,F3,F4,F7,F8,FC5,FC6,T7,T8,P7,P8,O1,O2,Sampling Rate
0.0000000000e+000,3.7774251092e+000,4.1044766035e+000,3.6586997269e+000,3.8184067017e+000,3.5122999240e+000,3.8365470800e+000,3.4045814291e+000,2.9189815243e+000,3.8554169262e+000,3.6616842477e+000,3.1250789041e+000,3.7118661044e+000,2.9467796330e+000,3.2432744338e+000,1
9.3750000000e-002,3.8435038769e+000,4.0979328682e+000,3.6648845845e+000,3.7496177679e+000,3.5013496015e+000,3.8576239736e+000,3.3872957910e+000,2.8964922812e+000,3.8456046723e+000,3.6815003098e+000,3.1455800606e+000,3.7054997883e+000,2.8355189564e+000,3.2216547509e+000,
1.8750000000e-001,4.2107026702e+000,4.2278200788e+000,3.9819403959e+000,3.8778411700e+000,3.7410512588e+000,4.0452431871e+000,3.6708921158e+000,2.9915295295e+000,3.9650370295e+000,3.7892091878e+000,3.2147314739e+000,3.7319128713e+000,2.7506117139e+000,3.2919083108e+000,
2.8125000000e-001,4.2059049072e+000,4.2092242537e+000,4.0009117189e+000,3.8308835629e+000,3.7227690214e+000,4.0105961694e+000,3.6391507998e+000,2.9619676959e+000,3.9577160149e+000,3.8212558275e+000,3.1676819060e+000,3.7166408698e+000,2.5429749581e+000,3.2149692648e+000,
3.7500000000e-001,4.1152670133e+000,4.1268234872e+000,3.9590304093e+000,3.8741070595e+000,3.5915037809e+000,3.9352408895e+000,3.5337841505e+000,2.7341424785e+000,4.2029572637e+000,3.7315226007e+000,3.0057049099e+000,3.6348795856e+000,2.3758524294e+000,3.1582130238e+000,
4.6875000000e-001,4.1194736211e+000,4.1559131173e+000,4.0317818191e+000,3.9986102872e+000,3.5836021160e+000,3.9485008383e+000,3.5682295496e+000,2.7851129071e+000,4.1983990141e+000,3.7443981565e+000,2.9754981798e+000,3.5840378224e+000,2.3792373643e+000,3.1498751122e+000,
5.6250000000e-001,4.0958705582e+000,4.0678516788e+000,4.0122967685e+000,3.9780746048e+000,3.5962319254e+000,3.8502137803e+000,3.5863635281e+000,2.7297664491e+000,4.1749070900e+000,3.6847936279e+000,2.8913592577e+000,3.4812600220e+000,2.3072026928e+000,3.1172332739e+000,
6.5625000000e-001,4.1224734126e+000,4.0953845250e+000,4.0014126360e+000,4.0245113129e+000,3.6412612560e+000,3.8169683820e+000,3.6086768068e+000,2.7960903144e+000,4.2822431299e+000,3.6430725771e+000,2.7756262980e+000,3.4751186594e+000,2.3047042391e+000,3.2352449145e+000,
7.5000000000e-001,4.1655201742e+000,4.1367473815e+000,4.0554882501e+000,4.1062319279e+000,3.7498859522e+000,3.8708585659e+000,3.7368577483e+000,2.8983171703e+000,4.2847344969e+000,3.6855555657e+000,2.7506895096e+000,3.4337034535e+000,2.3214578824e+000,3.3082721576e+000,
8.4375000000e-001,4.0510793132e+000,4.0563182419e+000,3.9331253795e+000,4.0851949753e+000,3.6109258457e+000,3.7979742316e+000,3.6063070781e+000,2.8711558028e+000,4.2155239969e+000,3.6726433629e+000,2.7569484773e+000,3.3912105036e+000,2.3664010998e+000,3.2831721915e+000,
9.3750000000e-001,4.0274813198e+000,3.9274365760e+000,3.8861145991e+000,3.9690968609e+000,3.6060962615e+000,3.7646300722e+000,3.6065010601e+000,2.8925205683e+000,4.3627753536e+000,3.7295725976e+000,2.9176394464e+000,3.3922026616e+000,2.4444572356e+000,3.3803038455e+000,
1.0312500000e+000,4.0191243629e+000,3.8972389903e+000,3.8305286138e+000,3.9617937046e+000,3.5246633328e+000,3.6692025409e+000,3.5676549164e+000,2.7798202856e+000,4.3771585762e+000,3.5919600918e+000,2.9498800196e+000,3.3050480166e+000,2.4575304527e+000,3.3320845736e+000,
1.1250000000e+000,3.7849149569e+000,3.8538910610e+000,3.6448090736e+000,3.9365450329e+000,3.1901861027e+000,3.5600866978e+000,3.3509321272e+000,2.7943981672e+000,4.3925607772e+000,3.5524048992e+000,2.9426074790e+000,3.3169639330e+000,2.4412487063e+000,3.3407611024e+000,
1.2187500000e+000,3.5090457102e+000,3.8269543712e+000,3.4189651199e+000,4.0006132301e+000,3.0969661828e+000,3.4607875460e+000,3.1965339163e+000,2.7774582504e+000,4.3421439809e+000,3.3797788321e+000,2.9637967090e+000,3.2558712666e+000,2.6059467156e+000,3.3278080452e+000,
1.3125000000e+000,3.7133074347e+000,3.9343719658e+000,3.5731926995e+000,4.0924031284e+000,3.2888878015e+000,3.5533503467e+000,3.4781152644e+000,2.7868252594e+000,4.3680015714e+000,3.4173085771e+000,3.0853186281e+000,3.3700973906e+000,2.6537493778e+000,3.4517309371e+000,
1.4062500000e+000,3.7051171026e+000,3.8175532228e+000,3.4661677643e+000,3.9161349835e+000,3.2519621083e+000,3.4665876372e+000,3.4033673646e+000,2.7055337165e+000,4.3036945356e+000,3.3820514417e+000,3.1262962229e+000,3.3303152809e+000,2.6851336570e+000,3.4598293950e+000,
1.5000000000e+000,3.8089915077e+000,3.9074519861e+000,3.4637473892e+000,3.9400293357e+000,3.3473576004e+000,3.5915327049e+000,3.4813000907e+000,2.7189521883e+000,4.4018872302e+000,3.4929820166e+000,3.1175847101e+000,3.4219090960e+000,2.7761263126e+000,3.6545934308e+000,
1.5937500000e+000,3.8603587890e+000,3.9279633875e+000,3.5933814769e+000,3.9789889231e+000,3.4490439667e+000,3.6285382125e+000,3.5632366932e+000,2.7431231327e+000,4.3483068914e+000,3.6129823222e+000,3.1587560810e+000,3.5557457067e+000,2.8946295724e+000,3.7565479871e+000,
1.6875000000e+000,3.9095170125e+000,3.8671312572e+000,3.6181131564e+000,3.9665704028e+000,3.4877140004e+000,3.6165443017e+000,3.5298587095e+000,2.7963120173e+000,4.3826118342e+000,3.6069009181e+000,3.1082728367e+000,3.7325965977e+000,2.9810786455e+000,3.8369115711e+000,
1.7812500000e+000,3.9141050047e+000,3.8387552169e+000,3.5871775355e+000,3.9458559314e+000,3.4104242623e+000,3.5772205335e+000,3.5109969516e+000,2.7930998588e+000,4.3781628793e+000,3.7210585165e+000,3.1700822506e+000,3.8577343209e+000,2.9753909824e+000,3.8961029830e+000,
1.8750000000e+000,4.0061106881e+000,3.8958848757e+000,3.6740816140e+000,4.0143374755e+000,3.5039608174e+000,3.6793814816e+000,3.5768868683e+000,2.8794875259e+000,4.4042218845e+000,3.8038853076e+000,3.2417146533e+000,3.9406684031e+000,3.0510465853e+000,3.9566468066e+000,
1.9687500000e+000,4.1626268011e+000,4.2065876669e+000,3.7553182109e+000,4.2346343608e+000,3.5728060283e+000,3.8848900290e+000,3.5840431588e+000,2.9407730705e+000,4.3129456001e+000,3.7133858892e+000,3.2326845275e+000,3.9892628384e+000,3.0791887256e+000,3.9057929967e+000,
2.0625000000e+000,4.1977618649e+000,4.1923102245e+000,3.7900411474e+000,4.2739715082e+000,3.6450168132e+000,4.0483153212e+000,3.6467152053e+000,3.0281348790e+000,4.3620631806e+000,3.8508038437e+000,3.2047777193e+000,4.0823401585e+000,3.1195357124e+000,3.9488945047e+000,
2.1562500000e+000,4.2213094577e+000,4.2129195389e+000,3.9432147431e+000,4.2717141885e+000,3.7138071588e+000,4.0399010398e+000,3.6607124427e+000,2.9885022271e+000,4.4309117683e+000,3.9145801303e+000,3.2339220224e+000,4.1157582036e+000,3.0590157511e+000,4.0319326830e+000,
2.2500000000e+000,4.2341030965e+000,4.1656454616e+000,3.9307240403e+000,4.2537532788e+000,3.7724414009e+000,4.0240054679e+000,3.6401709501e+000,3.2211143409e+000,4.5686948152e+000,3.9866924178e+000,3.3959745943e+000,4.1297364557e+000,3.0310722277e+000,4.0149830892e+000,
2.3437500000e+000,4.3881197523e+000,4.3449301816e+000,3.8736425158e+000,4.3640315881e+000,3.9048191063e+000,4.3176491203e+000,3.6040729578e+000,3.5480900456e+000,4.6312205552e+000,4.1965543081e+000,3.4057082044e+000,4.2656278272e+000,3.1754171452e+000,3.9832048168e+000,
2.4375000000e+000,4.5055461697e+000,4.5601596763e+000,4.1198401189e+000,4.6633033513e+000,3.9934788658e+000,4.3558128233e+000,3.6883289388e+000,3.6592612263e+000,4.7527970355e+000,4.2641496979e+000,3.4253733167e+000,4.3087783955e+000,3.3411381794e+000,4.0039622222e+000,
2.5312500000e+000,4.4776721765e+000,4.5400580426e+000,4.1351323631e+000,4.7331746541e+000,4.0038033177e+000,4.3587212948e+000,3.7286410150e+000,3.6931393527e+000,4.8593169109e+000,4.3223654236e+000,3.4748056729e+000,4.3961098303e+000,3.2773006037e+000,4.0536310003e+000,
2.6250000000e+000,4.5271392937e+000,4.7405844105e+000,4.3166174465e+000,5.0334849173e+000,4.0447368256e+000,4.5054630633e+000,3.7962917305e+000,3.7861617590e+000,4.8530813660e+000,4.4158364726e+000,3.5114632342e+000,4.4686056377e+000,3.3729885840e+000,4.0770721196e+000,
2.7187500000e+000,4.4818280448e+000,4.7455243424e+000,4.2623180011e+000,4.9856927903e+000,4.0544839167e+000,4.6107983019e+000,3.7606912961e+000,3.7441120032e+000,4.9028634446e+000,4.5435599202e+000,3.5696833540e+000,4.5056824617e+000,3.3480991163e+000,4.0455544450e+000,
2.8125000000e+000,4.5422624177e+000,4.8196351119e+000,4.3363802708e+000,5.0687574841e+000,4.0012282937e+000,4.5869363804e+000,3.6755877791e+000,3.7627924271e+000,4.9016112707e+000,4.5700596013e+000,3.5550953883e+000,4.5585276136e+000,3.4279528366e+000,4.0750602128e+000,
2.9062500000e+000,4.5260569853e+000,4.8161102874e+000,4.3188414864e+000,5.0439149510e+000,4.0167875196e+000,4.5924470558e+000,3.7108677755e+000,3.7548615672e+000,4.9247519766e+000,4.6684401252e+000,3.5199671440e+000,4.7326566364e+000,3.4579891583e+000,4.1618950882e+000,
3.0000000000e+000,4.4530200296e+000,4.7363399094e+000,4.4005741152e+000,5.0302451782e+000,4.0487941346e+000,4.4788022704e+000,3.7696966045e+000,3.7217645301e+000,4.9781814146e+000,4.6534436712e+000,3.5531522285e+000,4.7007979182e+000,3.4469660391e+000,4.1569446300e+000,
3.0937500000e+000,4.6189423752e+000,4.8984502096e+000,4.4741666467e+000,5.1360150076e+000,4.0740728195e+000,4.5414928403e+000,3.7492493599e+000,3.7983044147e+000,5.0374629741e+000,4.6527930114e+000,3.5934666621e+000,4.7086962963e+000,3.4918689591e+000,4.1593004892e+000,
3.1875000000e+000,4.6918150443e+000,4.9516737207e+000,4.4689974664e+000,5.2004622736e+000,4.1421279542e+000,4.5652024120e+000,3.7928487922e+000,3.8186608994e+000,5.0963447875e+000,4.6349526018e+000,3.5956040402e+000,4.7261233360e+000,3.4750697741e+000,4.1061370756e+000,
3.2812500000e+000,4.7254687280e+000,5.0053495026e+000,4.5550045230e+000,5.2480749915e+000,4.1019859475e+000,4.5129970703e+000,3.7951004565e+000,3.7134183704e+000,5.0180328301e+000,4.6216050981e+000,3.4500003169e+000,4.7282542449e+000,3.4348923548e+000,4.1373467540e+000,
3.3750000000e+000,4.6409006720e+000,4.9930947711e+000,4.5595554895e+000,5.2831972398e+000,3.9548308850e+000,4.3341103025e+000,3.7724882374e+000,3.5500565850e+000,4.9730576349e+000,4.4973273360e+000,3.3955528244e+000,4.6510215140e+000,3.1612962194e+000,3.9707714172e+000,
3.4687500000e+000,4.5840874144e+000,4.9690176205e+000,4.4238387262e+000,5.1990409022e+000,3.9972869724e+000,4.3844573637e+000,3.8114679779e+000,3.4838550610e+000,4.9123162677e+000,4.4590715835e+000,3.4292249268e+000,4.5799221780e+000,3.1084850568e+000,3.9334246644e+000,
3.5625000000e+000,4.5226049441e+000,4.8834490217e+000,4.3093301412e+000,5.0672661140e+000,3.9452932781e+000,4.3264590037e+000,3.6900782920e+000,3.4078343677e+000,4.7949941419e+000,4.4234150467e+000,3.4525876756e+000,4.5671874797e+000,3.1719622257e+000,3.8957377902e+000,
3.6562500000e+000,4.5157213378e+000,4.7866851495e+000,4.1833059719e+000,4.9743817993e+000,3.9023012854e+000,4.1602253644e+000,3.6287890272e+000,3.3827345113e+000,4.8021383311e+000,4.2923553341e+000,3.4750141686e+000,4.4918762738e+000,3.0429777081e+000,3.8871067118e+000,
3.7500000000e+000,4.5129360935e+000,4.8048503409e+000,4.1763025575e+000,4.9578690731e+000,3.8952564912e+000,4.0887051558e+000,3.6312098156e+000,3.3580765707e+000,4.7684225937e+000,4.0313963899e+000,3.4099682612e+000,4.3254776187e+000,3.0018004073e+000,3.8135169235e+000,
3.8437500000e+000,4.3982524877e+000,4.7131856199e+000,4.1179295790e+000,4.9137089824e+000,3.8954940486e+000,4.0868768541e+000,3.6478004455e+000,3.3074555069e+000,4.7672384796e+000,3.9296109717e+000,3.4811580335e+000,4.1765401270e+000,2.9426422306e+000,3.7294179916e+000,
3.9375000000e+000,4.3853877579e+000,4.6917101718e+000,4.0587961863e+000,4.8619618221e+000,3.8905042266e+000,4.0505086766e+000,3.6455008688e+000,3.2863563593e+000,4.6436110938e+000,3.6688354187e+000,3.4265173813e+000,3.9145079791e+000,2.7960247550e+000,3.5579072034e+000,
4.0312500000e+000,4.1480675513e+000,4.5616902808e+000,3.7414520453e+000,4.7365345243e+000,3.7221148824e+000,3.8820114354e+000,3.4224125087e+000,3.1616182116e+000,4.6097527202e+000,3.6146541276e+000,3.3604546730e+000,3.9076761370e+000,2.6860489130e+000,3.5233146858e+000,
4.1250000000e+000,4.0031790139e+000,4.4272984090e+000,3.6807930707e+000,4.6127405419e+000,3.6051829335e+000,3.8137193058e+000,3.4075170210e+000,3.0789431871e+000,4.5181362741e+000,3.6507854184e+000,3.2426753735e+000,3.8662726368e+000,2.5792585312e+000,3.5886923169e+000,
4.2187500000e+000,3.8221682103e+000,4.2747585046e+000,3.4774536641e+000,4.4909781443e+000,3.5576161356e+000,3.7777773839e+000,3.2877626628e+000,3.0427641452e+000,4.2995381232e+000,3.6838536562e+000,3.1972555905e+000,3.9422479910e+000,2.5363191521e+000,3.7234141610e+000,
4.3125000000e+000,3.6970123733e+000,4.2367288875e+000,3.2985699189e+000,4.4257218132e+000,3.4977040690e+000,3.8191904726e+000,3.2299202314e+000,3.1187299594e+000,4.2693982298e+000,3.7375717919e+000,3.1962751685e+000,3.8961913594e+000,2.4794136081e+000,3.7453142164e+000,
4.4062500000e+000,3.5841847838e+000,3.9464338630e+000,3.1727139284e+000,4.1428591438e+000,3.4117740878e+000,3.7142880724e+000,3.0627241113e+000,2.9979270423e+000,4.3417013290e+000,3.6183969139e+000,3.1435227607e+000,3.8348039922e+000,2.4992330069e+000,3.7956103388e+000,
4.5000000000e+000,3.4796399535e+000,3.7296735771e+000,3.0495471043e+000,3.9378206506e+000,3.3694940554e+000,3.5554871050e+000,3.0631162159e+000,2.8918374734e+000,4.3180913763e+000,3.4997183767e+000,2.9602985607e+000,3.7641794789e+000,2.3910663251e+000,3.7255593653e+000,
4.5937500000e+000,3.4197105044e+000,3.6836190332e+000,3.0039576568e+000,3.7733190018e+000,3.1683601605e+000,3.5248617586e+000,2.8110973710e+000,2.7443081191e+000,4.3112337869e+000,3.2910490335e+000,3.0362458815e+000,3.6209124294e+000,2.4938525438e+000,3.6574715518e+000,
4.6875000000e+000,3.4164138000e+000,3.7697836307e+000,3.0491125973e+000,3.7998167789e+000,3.1899046747e+000,3.5286310351e+000,3.0862747527e+000,2.7074841501e+000,4.3851335006e+000,3.2439611892e+000,3.0086310135e+000,3.6512449268e+000,2.6130902073e+000,3.7352075839e+000,
4.7812500000e+000,3.4793143933e+000,3.6515971875e+000,3.1246948309e+000,3.8234987500e+000,3.2336750996e+000,3.5704755435e+000,3.1973105529e+000,2.8360206229e+000,4.3672258427e+000,3.3178075618e+000,3.0966116596e+000,3.6764645697e+000,2.5870115321e+000,3.7626060529e+000,
4.8750000000e+000,3.6597125490e+000,3.7468635221e+000,3.0888687065e+000,3.8103407733e+000,3.3961592573e+000,3.6437105191e+000,3.2127010039e+000,2.8469406158e+000,4.2982252539e+000,3.3847294838e+000,2.9184320458e+000,3.7027196033e+000,2.5965024905e+000,3.8511711838e+000,
4.9687500000e+000,3.6388426519e+000,3.8432923356e+000,3.0211832502e+000,3.8967829871e+000,3.4004191847e+000,3.7191820308e+000,3.1898265237e+000,2.8283833606e+000,4.3425366504e+000,3.3479479747e+000,2.9973101914e+000,3.6907183574e+000,2.6087846688e+000,3.8811295146e+000,
5.0625000000e+000,3.5856875400e+000,3.8226814732e+000,2.9963821838e+000,3.9092170674e+000,3.4109259870e+000,3.7148693264e+000,3.2922155407e+000,2.7603908707e+000,4.2724640583e+000,3.2575003715e+000,3.0521513968e+000,3.7564828206e+000,2.6546640063e+000,3.9375334010e+000,
5.1562500000e+000,3.5913239814e+000,3.8171318150e+000,3.0141581764e+000,3.8811633292e+000,3.4116560758e+000,3.7387116506e+000,3.2633464460e+000,2.7804218174e+000,4.3838243870e+000,3.1931585696e+000,3.1405821792e+000,3.7755989645e+000,2.6948067641e+000,3.8849610920e+000,
5.2500000000e+000,3.4932578205e+000,3.8017178733e+000,3.0143314920e+000,3.7922920134e+000,3.4676578379e+000,3.7176967961e+000,3.3627609436e+000,2.5092432253e+000,4.3661924732e+000,2.9338158127e+000,3.1320270481e+000,3.5108414759e+000,2.7041677828e+000,3.7288942809e+000,
5.3437500000e+000,3.6230168196e+000,3.9511714680e+000,3.1702463413e+000,4.0052187853e+000,3.5966408607e+000,3.7756648964e+000,3.5080435778e+000,2.5265749181e+000,4.3651135340e+000,3.0020674691e+000,3.1758108761e+000,3.5900677725e+000,2.7233097614e+000,3.8423683756e+000,
5.4375000000e+000,3.8366698727e+000,4.0538658119e+000,3.3476097110e+000,4.0767789736e+000,3.7351998081e+000,3.7997179797e+000,3.6052748639e+000,2.5938098158e+000,4.3051110302e+000,3.1665184514e+000,3.1494641999e+000,3.6392515310e+000,2.6654487626e+000,3.8489485692e+000,
5.5312500000e+000,3.9348482688e+000,4.1271243255e+000,3.4573451907e+000,4.0567537401e+000,3.8235783523e+000,3.9033395286e+000,3.6237195080e+000,2.6428709221e+000,4.4302239696e+000,3.1669308233e+000,3.1119937504e+000,3.6758343607e+000,2.6499603554e+000,3.8275574666e+000,
5.6250000000e+000,4.0648231708e+000,4.0689391663e+000,3.4970086822e+000,4.0444009616e+000,3.8495796193e+000,3.8685561039e+000,3.7152510693e+000,2.6688881096e+000,4.4564355259e+000,3.2240372771e+000,3.1392381396e+000,3.7097682027e+000,2.6485343378e+000,3.8327585159e+000,
5.7187500000e+000,4.1741527793e+000,4.2272877501e+000,3.6330114748e+000,4.2356472003e+000,3.9042837072e+000,3.9178012687e+000,3.7056398074e+000,2.7646233342e+000,4.4715828064e+000,3.3271936461e+000,3.2077623194e+000,3.7453227843e+000,2.5634434869e+000,3.8142885057e+000,
5.8125000000e+000,4.1707853445e+000,4.2676793562e+000,3.6813831151e+000,4.2686949509e+000,3.8975491315e+000,3.9175624457e+000,3.7909605667e+000,2.7886716056e+000,4.5431651652e+000,3.2538321102e+000,3.3021480039e+000,3.6790995556e+000,2.6922817800e+000,3.7651172136e+000,
5.9062500000e+000,4.1236381839e+000,4.3133191278e+000,3.6803521125e+000,4.3300713887e+000,3.8896967396e+000,4.0461804795e+000,3.8124170044e+000,2.9674376838e+000,4.6868349857e+000,3.6110600949e+000,3.4022779477e+000,3.9546110216e+000,2.8323118366e+000,3.9074963667e+000,
6.0000000000e+000,4.4261620892e+000,4.5789589581e+000,4.0470094216e+000,4.5704464372e+000,4.0654511867e+000,4.4010914042e+000,3.9109778139e+000,3.3780387623e+000,4.7203174027e+000,4.1981350007e+000,3.5413289980e+000,4.3712241070e+000,2.9369140224e+000,4.1367631732e+000,
6.0937500000e+000,4.5234586905e+000,4.6709819528e+000,4.1254389820e+000,4.5981717473e+000,4.1227556446e+000,4.6017188179e+000,3.9506085250e+000,3.5640664633e+000,4.7523443869e+000,4.4491713379e+000,3.5810031418e+000,4.5281440263e+000,2.9913782518e+000,4.2154641298e+000,
6.1875000000e+000,4.5685549645e+000,4.7597001319e+000,4.2002862360e+000,4.6678494561e+000,4.0891115885e+000,4.7128158902e+000,3.9033558326e+000,3.6032315198e+000,4.7199264149e+000,4.4997469355e+000,3.5532154814e+000,4.5369981845e+000,2.9260659828e+000,4.1841344233e+000,
6.2812500000e+000,4.6259475713e+000,4.8068448995e+000,4.2742807518e+000,4.7505395354e+000,4.0562739957e+000,4.7799300233e+000,3.9137008736e+000,3.6796602798e+000,4.7099846423e+000,4.5419967379e+000,3.5867644391e+000,4.5824551375e+000,3.0332569072e+000,4.2212192639e+000,
6.3750000000e+000,4.5599630882e+000,4.8082486913e+000,4.2538004139e+000,4.7631140513e+000,3.9176838945e+000,4.7802926490e+000,3.8398467220e+000,3.7157428713e+000,4.7498860053e+000,4.5172747686e+000,3.5972030303e+000,4.5668787885e+000,3.0685562489e+000,4.1302036767e+000,
6.4687500000e+000,4.5933489550e+000,4.8570290474e+000,4.2777170374e+000,4.7816349985e+000,3.9072620669e+000,4.7634065862e+000,3.7944298741e+000,3.7317153906e+000,4.7866369056e+000,4.4996084112e+000,3.6723094560e+000,4.6019800792e+000,3.0902082784e+000,4.1159558574e+000,
6.5625000000e+000,4.5601237677e+000,4.8331623712e+000,4.2699797395e+000,4.8029325052e+000,3.8299515323e+000,4.7591414367e+000,3.7429497951e+000,3.7224438233e+000,4.7316689832e+000,4.5450789669e+000,3.7128816290e+000,4.6951818812e+000,3.0486059971e+000,4.1932658744e+000,
6.6562500000e+000,4.5204759385e+000,4.8536388775e+000,4.2389315695e+000,4.8320589765e+000,3.7581604026e+000,4.7806420511e+000,3.6022305184e+000,3.7438880304e+000,4.6796641281e+000,4.6125258871e+000,3.6739496576e+000,4.7473509790e+000,3.0394928352e+000,4.2235872512e+000,
6.7500000000e+000,4.4788905277e+000,4.8097256501e+000,4.1896225292e+000,4.7521380108e+000,3.7808309001e+000,4.7605666997e+000,3.6538827241e+000,3.7032968445e+000,4.6619616832e+000,4.5849191665e+000,3.5262515663e+000,4.7458972773e+000,2.9610533580e+000,4.1916571904e+000,
6.8437500000e+000,4.4915728309e+000,4.8559826757e+000,4.1895222834e+000,4.7851374583e+000,3.7878036836e+000,4.7510554460e+000,3.5577377812e+000,3.6830607407e+000,4.6950580744e+000,4.5368394930e+000,3.5337547843e+000,4.7168045454e+000,2.8531739135e+000,4.1015295891e+000,
6.9375000000e+000,4.5207585165e+000,4.7948216327e+000,4.1945138623e+000,4.7556944464e+000,3.8430365900e+000,4.6484789923e+000,3.6462034838e+000,3.5674678328e+000,4.6792288749e+000,4.3324784363e+000,3.4607472921e+000,4.6023747021e+000,2.8279969304e+000,4.1101906301e+000,
7.0312500000e+000,4.2963359688e+000,4.6423466986e+000,4.0033008321e+000,4.6108358739e+000,3.6388380766e+000,4.4146072999e+000,3.5261772123e+000,3.3091764276e+000,4.6342584061e+000,3.9226503027e+000,3.3211842164e+000,4.2654060906e+000,2.6949633126e+000,3.8179608164e+000,
7.1250000000e+000,4.1700491079e+000,4.5092034519e+000,3.8940003598e+000,4.5201155702e+000,3.5613871754e+000,4.1308598911e+000,3.4484547095e+000,3.1228830927e+000,4.6168183094e+000,3.6292106605e+000,3.3329175744e+000,4.0886100786e+000,2.6280770765e+000,3.7399980959e+000,
7.2187500000e+000,4.0749211466e+000,4.4075973676e+000,3.7477281145e+000,4.4244317153e+000,3.5741625652e+000,3.8883484324e+000,3.4541065207e+000,3.0461050788e+000,4.6183905761e+000,3.4666862993e+000,3.2349461909e+000,4.0101509678e+000,2.5777800754e+000,3.6632999189e+000,
7.3125000000e+000,4.1187576542e+000,4.3644344818e+000,3.7375479269e+000,4.3714447590e+000,3.6701425989e+000,3.8229976690e+000,3.5327838337e+000,2.9957624167e+000,4.7365359353e+000,3.5102218250e+000,3.3399232376e+000,4.2864289260e+000,2.5783749021e+000,3.6490495819e+000,
7.4062500000e+000,4.1502796859e+000,4.3211297740e+000,3.7145205561e+000,4.2949802336e+000,3.7530608630e+000,3.8375180814e+000,3.5520642323e+000,2.9869962349e+000,4.7682065062e+000,3.5117573877e+000,3.3242228513e+000,4.3068399165e+000,2.5512281575e+000,3.6635482303e+000,
7.5000000000e+000,4.0542621091e+000,4.2579356469e+000,3.5945220018e+000,4.2097262430e+000,3.7190157466e+000,3.7837698033e+000,3.5854356430e+000,3.0674543253e+000,4.8152387814e+000,3.5455862080e+000,3.3013629592e+000,4.2138157466e+000,2.5048102194e+000,3.7086194256e+000,
7.5937500000e+000,4.0753746394e+000,4.2664012117e+000,3.6026106019e+000,4.1874199074e+000,3.7065339409e+000,3.7643012524e+000,3.5523836648e+000,3.0735489183e+000,4.8655780204e+000,3.4620149973e+000,3.2021142041e+000,4.1631466388e+000,2.3674943977e+000,3.6377782614e+000,
7.6875000000e+000,4.0507232653e+000,4.2562745942e+000,3.5824056147e+000,4.0724885885e+000,3.6371499320e+000,3.6661126607e+000,3.4742197288e+000,3.0428285334e+000,4.9415533956e+000,3.3199697334e+000,3.3417881706e+000,4.0722240384e+000,2.4282454541e+000,3.6380894721e+000,
7.7812500000e+000,4.0296222910e+000,4.1728522740e+000,3.5514667921e+000,3.9295192104e+000,3.5922347709e+000,3.6497718930e+000,3.4721511204e+000,3.0025610414e+000,4.9587429320e+000,3.3060136125e+000,3.3141862098e+000,4.0465913385e+000,2.5362724280e+000,3.6350163626e+000,
7.8750000000e+000,4.0115517256e+000,4.0673599206e+000,3.4708891482e+000,3.7466123072e+000,3.5259726672e+000,3.5888933742e+000,3.5046969664e+000,2.9777979850e+000,4.9876767067e+000,3.3396994213e+000,3.3725904561e+000,4.0029593162e+000,2.6121030127e+000,3.6141814831e+000,
7.9687500000e+000,3.9891818378e+000,4.0581494660e+000,3.4305780735e+000,3.7571745622e+000,3.5544143599e+000,3.6816325278e+000,3.5277229886e+000,3.0328513827e+000,4.8909332059e+000,3.4824584155e+000,3.4590580101e+000,4.1655565677e+000,2.6910218514e+000,3.8713291811e+000,
8.0625000000e+000,3.8875993936e+000,3.9303742538e+000,3.2424787437e+000,3.6612949779e+000,3.4661717022e+000,3.5608686315e+000,3.4265034630e+000,3.0009258581e+000,4.8685439587e+000,3.4548100835e+000,3.5327848407e+000,4.1902333852e+000,2.6961242102e+000,3.9003498255e+000,
8.1562500000e+000,3.9419429501e+000,3.9657707112e+000,3.3398793396e+000,3.7006956856e+000,3.5683763300e+000,3.5843266048e+000,3.4754991429e+000,2.9765939613e+000,4.8893246451e+000,3.4584703243e+000,3.5310252518e+000,4.2608426686e+000,2.8341154381e+000,3.9576466117e+000,
8.2500000000e+000,1.0518109928e+001,3.8583370723e+000,3.7677172715e+000,3.5999403797e+000,3.6327943877e+000,3.6156064813e+000,4.3512001055e+000,2.9120015598e+000,4.9137285525e+000,3.5207562688e+000,3.4795195665e+000,4.2598596507e+000,3.3297280650e+000,3.9396330117e+000,
8.3437500000e+000,1.1366740099e+001,4.0124213349e+000,4.8922609906e+000,3.6712171963e+000,3.6484570044e+000,3.8443893829e+000,5.2673460827e+000,2.9984846613e+000,4.8805480780e+000,3.7669757238e+000,3.7625427099e+000,4.0939682182e+000,4.4191846234e+000,4.1673813474e+000,
8.4375000000e+000,1.1389318416e+001,4.1423442120e+000,5.0146689348e+000,3.8453407803e+000,3.9605832453e+000,4.1021970080e+000,5.3800662313e+000,3.1643882176e+000,4.9655662534e+000,4.0254268289e+000,4.1339799418e+000,4.2991124273e+000,4.6146885899e+000,4.4065390989e+000,
8.5312500000e+000,1.1390531757e+001,4.1143088348e+000,5.0393761331e+000,3.9055471052e+000,3.9465725317e+000,4.0876088107e+000,5.3846181395e+000,3.1105330473e+000,4.8951824817e+000,4.0200622445e+000,4.1160045673e+000,4.2765426424e+000,4.6142194451e+000,4.3590215448e+000,
8.6250000000e+000,1.1390465840e+001,4.1002921533e+000,5.0339697863e+000,3.8896465698e+000,3.9378116620e+000,4.0753451874e+000,5.3817273055e+000,3.0565930423e+000,4.8594393520e+000,3.9636346813e+000,4.1025226082e+000,4.1986726939e+000,4.6208832381e+000,4.3526727336e+000,
8.7187500000e+000,1.1390455494e+001,4.1072835554e+000,5.0349786045e+000,3.9011447979e+000,3.9477185593e+000,4.0971953198e+000,5.3855316184e+000,3.0901318790e+000,4.7977844002e+000,3.9700972951e+000,4.0813454652e+000,4.2171073936e+000,4.6140294537e+000,4.3593830779e+000,
8.8125000000e+000,1.1390383043e+001,4.0587892652e+000,5.0372847744e+000,3.9298573619e+000,3.9659869914e+000,4.1054739923e+000,5.3775620177e+000,3.1051622281e+000,4.7823767210e+000,3.9884661864e+000,4.0442829836e+000,4.2095645429e+000,4.5934961637e+000,4.3472869412e+000,
8.9062500000e+000,1.1390366649e+001,4.0610571682e+000,5.0303754487e+000,3.9143703467e+000,3.9148605805e+000,4.0995601558e+000,5.3692153351e+000,3.0621521882e+000,4.7337031859e+000,3.9378603443e+000,4.0098456976e+000,4.2108071193e+000,4.5963470922e+000,4.3344523163e+000,
9.0000000000e+000,1.1390416405e+001,4.0726244176e+000,5.0557397204e+000,3.9713533660e+000,3.9144263058e+000,4.0341924919e+000,5.3691242884e+000,3.0740099137e+000,4.8369818523e+000,3.8552670028e+000,3.9651060366e+000,4.0594423049e+000,4.5768224409e+000,4.1976463916e+000,
9.0937500000e+000,1.1390449541e+001,4.0971695114e+000,5.0552443248e+000,3.9684089719e+000,3.8843641402e+000,4.1213478786e+000,5.3683852414e+000,3.1694973433e+000,4.7737246871e+000,3.8894610083e+000,3.9409361995e+000,4.0766037652e+000,4.5693087203e+000,4.1944038321e+000,
9.1875000000e+000,1.1390413613e+001,4.1235614731e+000,5.0430888727e+000,4.0009540773e+000,3.8343354749e+000,4.1287537435e+000,5.3713461135e+000,3.4159373079e+000,4.8429521691e+000,3.8636874305e+000,4.0078149652e+000,4.0504476702e+000,4.5618629587e+000,4.1816930271e+000,
9.2812500000e+000,9.6516711796e+000,4.1436648434e+000,4.4309441560e+000,3.9818508636e+000,3.7622528975e+000,4.0559148993e+000,4.6183258552e+000,3.3731731401e+000,4.8415218386e+000,3.7510995400e+000,4.0067954688e+000,3.9981122922e+000,3.9551525221e+000,4.1545509670e+000,
9.3750000000e+000,7.1209381418e+000,3.8500626204e+000,3.5802593241e+000,3.7541716573e+000,3.5424555904e+000,3.7508655150e+000,3.5074122579e+000,3.2147826023e+000,4.6873416098e+000,3.2663706985e+000,3.5244197657e+000,3.6187241251e+000,2.7800202632e+000,3.6742141029e+000,
9.4687500000e+000,3.8806272855e+000,3.7739600891e+000,3.3730332565e+000,3.6307262770e+000,3.2848609583e+000,3.6893417761e+000,3.2634676189e+000,3.0390369803e+000,4.7819798785e+000,3.0436324949e+000,3.3036083527e+000,3.4410125355e+000,2.5605075742e+000,3.5148064666e+000,
9.5625000000e+000,3.6453257547e+000,3.9268513695e+000,3.4700317580e+000,3.8321319156e+000,3.2563637915e+000,3.8577803469e+000,3.2474953479e+000,3.1601726326e+000,4.7486393571e+000,3.1901868367e+000,3.2981056821e+000,3.4523257793e+000,2.6271140799e+000,3.4945461536e+000,
9.6562500000e+000,3.9485540629e+000,4.0890725208e+000,3.6856497742e+000,4.0470999760e+000,3.2870978842e+000,3.9000190034e+000,3.2526641848e+000,3.1580342272e+000,4.7834390450e+000,3.2872647654e+000,3.2925061690e+000,3.5236487661e+000,2.6481485672e+000,3.5148370945e+000,
9.7500000000e+000,4.0710195968e+000,4.1689567546e+000,3.6907664692e+000,4.1365401710e+000,3.2364710803e+000,3.9141971346e+000,3.2899331651e+000,3.2979427588e+000,4.7826982830e+000,3.2799126729e+000,3.3783741818e+000,3.5891133112e+000,2.7942520513e+000,3.6830565931e+000,
9.8437500000e+000,4.1637882512e+000,4.1365302213e+000,3.6534532651e+000,4.0949276271e+000,3.2872083337e+000,3.8813652135e+000,3.3176286791e+000,3.2491451145e+000,4.7343184864e+000,3.2620579474e+000,3.4476489009e+000,3.6303825329e+000,2.7323916063e+000,3.7117655132e+000,
9.9375000000e+000,4.0777179038e+000,4.1112482671e+000,3.5025300665e+000,4.1200146313e+000,3.2605556816e+000,3.9031978300e+000,3.2912180656e+000,3.2836063984e+000,4.6500450022e+000,3.2859082724e+000,3.4667506461e+000,3.5831207190e+000,2.7451600569e+000,3.6715025467e+000,
1.0031250000e+001,4.1163885653e+000,4.1907661291e+000,3.6106791686e+000,4.1471224378e+000,3.3560668971e+000,3.9371544689e+000,3.2686115975e+000,3.3273749526e+000,4.7127941292e+000,3.3244413986e+000,3.4129413801e+000,3.6388909279e+000,2.8338072410e+000,3.7405397886e+000,
1.0125000000e+001,4.1844480976e+000,4.3048024116e+000,3.6912972790e+000,4.3022375961e+000,3.4111763483e+000,4.0540454175e+000,3.3034112702e+000,3.4172769254e+000,4.7286387259e+000,3.5016347327e+000,3.4671056362e+000,3.7286315426e+000,2.9663004110e+000,3.8971124804e+000,
1.0218750000e+001,4.3021893663e+000,4.3858606162e+000,3.7230812088e+000,4.3762281663e+000,3.5250515555e+000,4.1882697448e+000,3.3043011216e+000,3.3882787987e+000,4.6923164896e+000,3.7049473103e+000,3.4711873968e+000,3.8939030246e+000,2.9233710544e+000,4.0471205293e+000,
1.0312500000e+001,4.2441520943e+000,4.4278171214e+000,3.6723795079e+000,4.3927815163e+000,3.5730912819e+000,4.2774241230e+000,3.2559720958e+000,3.4947041908e+000,4.6137600923e+000,4.0327747151e+000,3.4916595468e+000,4.1170819111e+000,2.8909838619e+000,4.1379873865e+000,
1.0406250000e+001,4.2214768954e+000,4.4492234532e+000,3.7250553670e+000,4.4413586289e+000,3.5879324590e+000,4.2308427516e+000,3.2564880360e+000,3.5229880100e+000,4.7076802513e+000,4.0387145696e+000,3.5430253102e+000,4.1854464288e+000,2.9829207522e+000,4.2159664499e+000,
1.0500000000e+001,4.2403730651e+000,4.4766326643e+000,3.7793411315e+000,4.5118520645e+000,3.7133122070e+000,4.2327445201e+000,3.3047122144e+000,3.5562352876e+000,4.6396930628e+000,4.0716416734e+000,3.5813121370e+000,4.2769493151e+000,3.0030032957e+000,4.2538854040e+000,
1.0593750000e+001,4.2410694176e+000,4.3875840672e+000,3.7474158275e+000,4.4378648475e+000,3.7418944717e+000,4.1812038816e+000,3.3222500075e+000,3.5385406367e+000,4.6897380412e+000,4.0765686022e+000,3.6180871250e+000,4.3827758999e+000,2.9660067011e+000,4.3231013931e+000,
1.0687500000e+001,4.0282036640e+000,4.2093628186e+000,3.4764512386e+000,4.2405430078e+000,3.8296069984e+000,4.1988210373e+000,3.3883192521e+000,3.5429025030e+000,4.7490043771e+000,4.1092058305e+000,3.5855529256e+000,4.3961567810e+000,2.9412251592e+000,4.2999674203e+000,
1.0781250000e+001,3.8822780815e+000,4.1860282950e+000,3.4809402018e+000,4.2162938521e+000,3.8339293292e+000,4.1499771140e+000,3.3109253290e+000,3.4692477773e+000,4.7205843441e+000,4.1029421091e+000,3.5082715258e+000,4.3649148633e+000,2.8826712562e+000,4.2181611009e+000,
1.0875000000e+001,3.9859508034e+000,4.3021014864e+000,3.6459796379e+000,4.3105626075e+000,3.8410766832e+000,4.1472465326e+000,3.3177729003e+000,3.5151688513e+000,4.7199199028e+000,4.0695257574e+000,3.5760020633e+000,4.3606758686e+000,2.8767848812e+000,4.2035223376e+000,
1.0968750000e+001,4.0757755776e+000,4.3485555599e+000,3.6051038255e+000,4.2728518913e+000,3.7857174213e+000,4.1079775721e+000,3.3709564720e+000,3.4822439727e+000,4.6981050315e+000,4.0960425439e+000,3.5346994775e+000,4.3734940015e+000,2.8653614862e+000,4.2128580896e+000,
1.1062500000e+001,4.1472602302e+000,4.3351904480e+000,3.5735560155e+000,4.2604538239e+000,3.7330340526e+000,4.0628595821e+000,3.4415655509e+000,3.3654193944e+000,4.6664764995e+000,4.0769640134e+000,3.5623304877e+000,4.3779889962e+000,2.8147558653e+000,4.1616482646e+000,
1.1156250000e+001,4.0897334103e+000,4.2740815773e+000,3.5566705457e+000,4.1255912048e+000,3.8199798180e+000,3.9378726937e+000,3.4903145666e+000,3.1740822534e+000,4.6274899462e+000,4.0271963223e+000,3.4515809455e+000,4.3280878953e+000,2.6453712517e+000,4.0703937859e+000,
1.1250000000e+001,4.1453519966e+000,4.2712416838e+000,3.5868871481e+000,4.1079069798e+000,3.6879391686e+000,3.7346757315e+000,3.5054146605e+000,3.1078653107e+000,4.6817771510e+000,3.8002248145e+000,3.2580223185e+000,4.1113989234e+000,2.6198330566e+000,3.8696184929e+000,
1.1343750000e+001,4.1780309903e+000,4.2252676194e+000,3.5702859439e+000,4.0599490457e+000,3.6694713930e+000,3.7495883238e+000,3.5286730424e+000,3.0741310549e+000,4.6405912186e+000,3.6991871321e+000,3.1768180194e+000,4.0690303643e+000,2.6685685484e+000,3.9338632090e+000,
1.1437500000e+001,4.1595594758e+000,4.2445975747e+000,3.4373682345e+000,4.0061990345e+000,3.6995705428e+000,3.7738562537e+000,3.5519998655e+000,3.0433301651e+000,4.5678411945e+000,3.6388734558e+000,3.1298750027e+000,3.9399046824e+000,2.5595461505e+000,3.9445729910e+000,
1.1531250000e+001,4.1279877754e+000,4.2440414349e+000,3.3973620130e+000,3.9941144485e+000,3.5698894531e+000,3.6840241383e+000,3.5170769889e+000,2.9939687584e+000,4.6563382606e+000,3.5628060537e+000,3.0729524768e+000,3.7222213172e+000,2.6105007284e+000,3.9192214014e+000,
1.1625000000e+001,4.2504680596e+000,4.3107639961e+000,3.4588551915e+000,4.1014849291e+000,3.4889024740e+000,3.5942611660e+000,3.4594558218e+000,2.8858848306e+000,4.5849488281e+000,3.4640117043e+000,3.0516199603e+000,3.6518624225e+000,2.5894508535e+000,3.8608279519e+000,
1.1718750000e+001,4.2750667669e+000,4.3299107477e+000,3.4917072707e+000,4.0995586714e+000,3.5415682839e+000,3.5896310310e+000,3.5036522731e+000,2.9954548432e+000,4.6228642281e+000,3.4925316217e+000,3.0126138246e+000,3.5938378149e+000,2.5966267113e+000,3.8499025097e+000,
1.1812500000e+001,4.4300814923e+000,4.4835351665e+000,3.6271344391e+000,4.2343693898e+000,3.7392274853e+000,3.8466570716e+000,3.6310371030e+000,3.1049179797e+000,4.7052391820e+000,3.5184845614e+000,2.9855161120e+000,3.5948377481e+000,2.6317599393e+000,3.8918642514e+000,
1.1906250000e+001,4.5008280143e+000,4.4523801255e+000,3.5714849812e+000,4.2240908984e+000,3.7998653397e+000,3.9392654900e+000,3.6836089393e+000,3.1162678590e+000,4.7112120213e+000,3.6960002911e+000,2.7104601646e+000,3.7183427836e+000,2.6028105356e+000,3.9091870909e+000,
1.2000000000e+001,4.3316514654e+000,4.4394827756e+000,3.6083887216e+000,4.1946301115e+000,3.9476900818e+000,3.9712295028e+000,3.7681652985e+000,3.0974235265e+000,4.7868111256e+000,3.7839414168e+000,2.7911091837e+000,3.8215622931e+000,2.5943755636e+000,3.9947212092e+000,
1.2093750000e+001,4.3932358510e+000,4.4170442841e+000,3.6814285759e+000,4.1644871522e+000,4.0717941119e+000,4.0733458469e+000,3.8491681241e+000,3.1519364317e+000,4.7710761470e+000,3.9318864278e+000,2.9106680865e+000,3.9162322903e+000,2.6231696624e+000,3.9956608090e+000,
1.2187500000e+001,4.3004189073e+000,4.3376371136e+000,3.5814107860e+000,4.1702146371e+000,3.9852750506e+000,4.0717425971e+000,3.7982781145e+000,3.2060653448e+000,4.8008209112e+000,3.9493899062e+000,3.1499607507e+000,4.0621855621e+000,2.7224145898e+000,4.0755346324e+000,
1.2281250000e+001,4.2382508890e+000,4.2933630286e+000,3.6012673884e+000,4.1540812030e+000,4.0190527498e+000,4.0199093651e+000,3.7481155356e+000,3.1007905231e+000,4.8785565055e+000,3.9183749712e+000,3.0939917436e+000,4.0250679759e+000,2.7531012487e+000,4.0840616511e+000,
1.2375000000e+001,4.2379404242e+000,4.2996978906e+000,3.6182503233e+000,4.1906938086e+000,4.0505608486e+000,4.1037014239e+000,3.7751313834e+000,3.1935654193e+000,4.9689244399e+000,4.0008579525e+000,3.2439863798e+000,4.1361144383e+000,2.7209561181e+000,4.1329995720e+000,
1.2468750000e+001,4.2544640109e+000,4.2675887106e+000,3.6544921136e+000,4.1879530151e+000,4.0716936796e+000,4.1313266580e+000,3.7455421748e+000,3.2416388998e+000,4.9601123941e+000,4.0875961143e+000,3.2528242018e+000,4.2242136122e+000,2.6865230970e+000,4.0994243534e+000,
1.2562500000e+001,4.2640792832e+000,4.3190419877e+000,3.6526369588e+000,4.2548550468e+000,4.1048650639e+000,4.1835484382e+000,3.7467649778e+000,3.3191520346e+000,4.8729368847e+000,4.1077027621e+000,3.3163501580e+000,4.2607167411e+000,2.6312331237e+000,4.0790411497e+000,
1.2656250000e+001,4.2692976752e+000,4.2439881945e+000,3.5838244089e+000,4.1532879035e+000,4.2084674601e+000,4.2704299411e+000,3.8144121107e+000,3.4383469054e+000,4.8853070881e+000,4.1351128319e+000,3.3606717078e+000,4.2543453036e+000,2.7725552335e+000,4.0515515666e+000,
1.2750000000e+001,4.1472857157e+000,4.1788947412e+000,3.5680409752e+000,4.1515437199e+000,4.1305977741e+000,4.2362435980e+000,3.7574071705e+000,3.3466475426e+000,4.8712136678e+000,4.0963916150e+000,3.3873227139e+000,4.2297629049e+000,2.7363386474e+000,4.0161204019e+000,
1.2843750000e+001,4.0234839159e+000,3.9533720891e+000,3.5202666786e+000,4.0519156364e+000,4.0754774937e+000,4.1481331121e+000,3.6814258563e+000,3.4428476157e+000,4.8073097914e+000,4.1649198986e+000,3.4152266323e+000,4.2495800633e+000,2.6987854296e+000,4.0099697953e+000,
1.2937500000e+001,3.9747451262e+000,3.9711026202e+000,3.4684726918e+000,4.0502641709e+000,3.9940359379e+000,4.1643068904e+000,3.5843481203e+000,3.4434571696e+000,4.8265857321e+000,4.0592913908e+000,3.4228616567e+000,4.1481091968e+000,2.7533273098e+000,3.9386019487e+000,
1.3031250000e+001,4.0897426397e+000,3.9037258785e+000,3.3198506096e+000,4.0333507292e+000,3.8115939587e+000,4.0637051077e+000,3.3690228671e+000,3.3979068735e+000,4.8742668241e+000,3.8806058548e+000,3.4142346494e+000,4.0421248278e+000,2.7668704750e+000,3.8379155175e+000,
1.3125000000e+001,9.4520158038e+000,3.8458664018e+000,3.4667629758e+000,3.9870364787e+000,3.7985503426e+000,4.0335127299e+000,3.6915631884e+000,3.4003358141e+000,4.9159347897e+000,3.8181540702e+000,3.3652302821e+000,3.8779846819e+000,2.8996398670e+000,3.7433544877e+000,
1.3218750000e+001,1.0073592964e+001,4.0514533230e+000,3.8109135396e+000,4.1159275610e+000,3.9045420074e+000,4.1920925737e+000,4.3194796241e+000,3.4848873770e+000,4.9508178269e+000,3.8839490078e+000,3.6668263715e+000,4.1518008911e+000,3.3257021025e+000,3.9590464098e+000,
1.3312500000e+001,1.0216782630e+001,4.1175478029e+000,3.8445316872e+000,4.1594584364e+000,3.8936330600e+000,4.2631099875e+000,4.5432757354e+000,3.5101057711e+000,4.9760759774e+000,3.9216028288e+000,3.9106283293e+000,4.2937101775e+000,3.4087417962e+000,4.0441520219e+000,
1.3406250000e+001,1.0218659412e+001,4.1657704649e+000,3.8240247313e+000,4.1536850037e+000,3.8942775390e+000,4.2586054370e+000,4.5852378669e+000,3.4627401474e+000,4.8679356143e+000,3.8770461600e+000,3.8713982801e+000,4.2637685298e+000,3.4142211907e+000,4.0132045541e+000,
1.3500000000e+001,1.0219481143e+001,4.3115519051e+000,4.0180103346e+000,4.3207786863e+000,4.0555076319e+000,4.3823868073e+000,4.6276167961e+000,3.5045506674e+000,4.8063770347e+000,3.9014023143e+000,3.8657912099e+000,4.2001480291e+000,3.4310863589e+000,3.9866105794e+000,
1.3593750000e+001,1.0219676118e+001,4.2788826091e+000,4.0941996805e+000,4.2395879333e+000,4.0141889663e+000,4.3009301599e+000,4.6317162571e+000,3.4127630703e+000,4.7448599628e+000,3.8724728767e+000,3.8483124377e+000,4.2505271720e+000,3.4360664655e+000,4.0748895002e+000,
1.3687500000e+001,1.0220105406e+001,4.3292547324e+000,4.1460474192e+000,4.3196129813e+000,3.9492193422e+000,4.3514212060e+000,4.6211634314e+000,3.3683007909e+000,4.7485501999e+000,3.9398605871e+000,3.8249406992e+000,4.3564144922e+000,3.3736210808e+000,4.1503961837e+000,
1.3781250000e+001,1.0220739892e+001,4.4422310781e+000,4.2800483350e+000,4.5184205657e+000,4.0189665086e+000,4.4220039654e+000,4.6825088813e+000,3.4778468765e+000,4.8085258451e+000,4.0869832287e+000,3.8582957773e+000,4.5525055851e+000,3.4788752369e+000,4.3874587843e+000,
1.3875000000e+001,1.0221603023e+001,4.4915759147e+000,4.3977462319e+000,4.5720396743e+000,4.1821067507e+000,4.4872409147e+000,4.7430657760e+000,3.4311150512e+000,4.9025747305e+000,4.1524626753e+000,3.8752996245e+000,4.6758786627e+000,3.5562984656e+000,4.5463945599e+000,
1.3968750000e+001,1.0221650729e+001,4.5050238311e+000,4.4617165332e+000,4.6447744495e+000,4.2689575179e+000,4.4783828438e+000,4.7776028414e+000,3.4591547635e+000,4.8530650627e+000,4.1940888098e+000,3.9519813163e+000,4.7324074078e+000,3.5958241800e+000,4.6315333606e+000,
1.4062500000e+001,1.0220472477e+001,4.5256066226e+000,4.4831967210e+000,4.6574187125e+000,4.3521566719e+000,4.4838368476e+000,4.7913883237e+000,3.4841505139e+000,4.7991734569e+000,4.2353252456e+000,4.0141813235e+000,4.8235901723e+000,3.6380528502e+000,4.7339693792e+000,
1.4156250000e+001,9.4612465862e+000,4.6436977973e+000,4.4141530556e+000,4.7001631607e+000,4.5153790202e+000,4.6060244680e+000,4.6615412121e+000,3.5495359785e+000,4.7835784796e+000,4.3322617849e+000,3.9752929296e+000,4.8986473663e+000,3.5106333506e+000,4.8649977830e+000,
1.4250000000e+001,6.6122892011e+000,4.6334447217e+000,4.3502731307e+000,4.6908434650e+000,4.4765138278e+000,4.5603363584e+000,4.2494230646e+000,3.5217867428e+000,4.6475025032e+000,4.2829181580e+000,3.6639898684e+000,4.7690701464e+000,3.3084992157e+000,4.8090288119e+000,
1.4343750000e+001,5.2602413640e+000,4.6943641595e+000,4.3374713076e+000,4.7564074436e+000,4.4996828919e+000,4.5961430060e+000,4.1436022834e+000,3.6175043922e+000,4.6634346788e+000,4.3212626062e+000,3.6054799948e+000,4.7525451688e+000,3.2710262729e+000,4.8358988763e+000,
1.4437500000e+001,5.0764080752e+000,4.5819056782e+000,4.2859954961e+000,4.6675911852e+000,4.4020657261e+000,4.4593041529e+000,3.9954152118e+000,3.5692537259e+000,4.8067826107e+000,4.2794068738e+000,3.5618624526e+000,4.7161180144e+000,3.4069930605e+000,4.8287804877e+000,
1.4531250000e+001,5.0267726162e+000,4.6203404336e+000,4.2705575026e+000,4.7164629443e+000,4.3577200402e+000,4.4343054316e+000,3.9827802853e+000,3.5911539914e+000,4.8597258012e+000,4.2809038859e+000,3.6122591294e+000,4.7360757670e+000,3.5293986291e+000,4.9045688358e+000,
1.4625000000e+001,5.1235095662e+000,4.7194254077e+000,4.3410182530e+000,4.8175097915e+000,4.4167179467e+000,4.5238726433e+000,4.0221369691e+000,3.6430860889e+000,4.8664595498e+000,4.2740178317e+000,3.5931781568e+000,4.7204966351e+000,3.5871733511e+000,4.8839356877e+000,
1.4718750000e+001,4.9574257699e+000,4.7545141949e+000,4.2033418167e+000,4.7857814397e+000,4.3830763882e+000,4.5901697918e+000,3.9050246765e+000,3.6657870885e+000,4.8861105888e+000,4.2765791118e+000,3.6249272706e+000,4.7332698457e+000,3.6673218312e+000,4.9076265156e+000,
1.4812500000e+001,5.0360427758e+000,4.8123744732e+000,4.3366831940e+000,4.8407313812e+000,4.4669811485e+000,4.6093851768e+000,4.0634316802e+000,3.6454398436e+000,4.8611488730e+000,4.2416003480e+000,3.5913336781e+000,4.6703892132e+000,3.7164487402e+000,4.9144355686e+000,
1.4906250000e+001,4.9208809884e+000,4.7600997107e+000,4.1785151781e+000,4.7590408890e+000,4.3481937960e+000,4.6252652804e+000,3.9514350735e+000,3.7024929894e+000,4.7292871631e+000,4.2561663553e+000,3.5737628553e+000,4.6660743920e+000,3.7274706252e+000,4.9550296070e+000,
1.5000000000e+001,4.9947710655e+000,4.7489797678e+000,4.2478893487e+000,4.7686584130e+000,4.3219566446e+000,4.5707255770e+000,3.9355528596e+000,3.6955032006e+000,4.7701931030e+000,4.1880533156e+000,3.4810804706e+000,4.5267775960e+000,3.7179277147e+000,4.8268994308e+000,
1.5093750000e+001,5.0418470044e+000,4.7564027691e+000,4.2824095006e+000,4.8110854160e+000,4.2898621670e+000,4.5653633386e+000,4.0148013983e+000,3.6510900070e+000,4.7407401617e+000,4.1291129830e+000,3.3798280042e+000,4.4711347766e+000,3.7527296025e+000,4.8766914519e+000,
1.5187500000e+001,5.1879484106e+000,4.6635081325e+000,4.2907636002e+000,4.7708998009e+000,4.2931834017e+000,4.4598589400e+000,4.0179705682e+000,3.5895863425e+000,4.7988372074e+000,3.9866238422e+000,3.4751098076e+000,4.3058550152e+000,3.7155144454e+000,4.7566280661e+000,
1.5281250000e+001,5.2155750320e+000,4.7164019394e+000,4.3430094310e+000,4.7873247049e+000,4.4493993802e+000,4.4666333410e+000,4.1833296891e+000,3.5611987131e+000,4.8238852305e+000,4.0276499277e+000,3.5082379372e+000,4.3486811460e+000,3.8144981678e+000,4.7398372558e+000,
1.5375000000e+001,5.1938956559e+000,4.7153859905e+000,4.3690868906e+000,4.7630370658e+000,4.5045482090e+000,4.4325959924e+000,4.2120404875e+000,3.5052254962e+000,4.7782913044e+000,3.9436326637e+000,3.4003814000e+000,4.3441839365e+000,4.0192413398e+000,4.7782039496e+000,
1.5468750000e+001,5.3830457700e+000,4.8969663050e+000,4.4279156444e+000,4.9214050749e+000,4.5786288952e+000,4.6862476861e+000,4.3405819707e+000,3.6283508067e+000,4.6703829170e+000,4.2008814486e+000,3.5962134343e+000,4.5843462180e+000,5.4438955010e+000,4.8569179015e+000,
1.5562500000e+001,6.9181903959e+000,5.0349947064e+000,4.4562315739e+000,5.0110900628e+000,4.6038858197e+000,4.8003398882e+000,4.4184984185e+000,3.7286086538e+000,4.5772194353e+000,4.2818685006e+000,3.6299464628e+000,4.6134182112e+000,5.5545344986e+000,4.8596155752e+000,
1.5656250000e+001,7.0162831944e+000,4.9250892360e+000,4.3682147584e+000,4.9138368047e+000,4.5104372962e+000,4.7055727747e+000,4.3662497914e+000,3.6576950088e+000,4.5939278956e+000,4.4076681172e+000,3.6288591859e+000,4.6779655185e+000,5.5650255482e+000,4.9379776721e+000,
1.5750000000e+001,7.0267965619e+000,4.8394448976e+000,4.2998952159e+000,4.8072276802e+000,4.4388472295e+000,4.5656758987e+000,4.2683632185e+000,3.5615862492e+000,4.5736332401e+000,4.3479701988e+000,3.7166340387e+000,4.5421127907e+000,5.5488586873e+000,4.7918641001e+000,
1.5843750000e+001,7.0132425343e+000,4.8510117996e+000,4.2548386488e+000,4.8231463810e+000,4.4011050645e+000,4.6215418701e+000,4.2159324963e+000,3.5900737868e+000,4.6220416054e+000,4.3555771051e+000,3.6885236109e+000,4.5345754202e+000,5.5298797804e+000,4.7505861933e+000,
1.5937500000e+001,7.0125563959e+000,4.8686079818e+000,4.2315668793e+000,4.8687366303e+000,4.3799065012e+000,4.5631757866e+000,4.2033552218e+000,3.4927419086e+000,4.6307159223e+000,4.2566268140e+000,3.6687504168e+000,4.4484230175e+000,5.5195737256e+000,4.6313863471e+000,
1.6031250000e+001,7.0270557964e+000,4.8573815822e+000,4.1451161538e+000,4.8034223624e+000,4.3684912947e+000,4.5824131327e+000,4.1846003817e+000,3.4718997965e+000,4.6557755284e+000,4.2220469512e+000,3.6527337835e+000,4.4400674839e+000,5.5130820096e+000,4.6143725159e+000,
1.6125000000e+001,7.0183982890e+000,4.7938334541e+000,4.0493853096e+000,4.7550091929e+000,4.1930814120e+000,4.5021670844e+000,4.0062014941e+000,3.4743779666e+000,4.7331643406e+000,4.2833060303e+000,3.6427622578e+000,4.4632130823e+000,5.5050865447e+000,4.5318000117e+000,
1.6218750000e+001,7.0159731203e+000,4.7587769955e+000,3.9003823992e+000,4.7313824393e+000,4.0379088265e+000,4.4712171829e+000,3.8349035619e+000,3.4806689975e+000,4.6725379687e+000,4.2788529982e+000,3.5858143244e+000,4.4352907976e+000,5.4990013232e+000,4.5291323023e+000,
1.6312500000e+001,7.0372136352e+000,4.6831927721e+000,3.9076633070e+000,4.6684310841e+000,3.7891981173e+000,4.4576287561e+000,3.7509126635e+000,3.4129819624e+000,4.5964608108e+000,4.2085191185e+000,3.5539930180e+000,4.3509484199e+000,5.4739301069e+000,4.4372094271e+000,
1.6406250000e+001,7.0724028285e+000,4.6850930902e+000,3.8419723393e+000,4.6688809305e+000,3.7714408401e+000,4.4423738712e+000,3.6788409438e+000,3.3835464393e+000,4.5128486845e+000,4.1929068209e+000,3.6547708770e+000,4.3172463155e+000,4.9943761035e+000,4.4550013295e+000,
1.6500000000e+001,6.6705414095e+000,4.2352467229e+000,3.8052554522e+000,4.1889159131e+000,3.5613106118e+000,3.8527220954e+000,3.3223887087e+000,2.8808514840e+000,4.5282891993e+000,3.7467585758e+000,3.4485273349e+000,3.8384595933e+000,3.2871683387e+000,4.1088759606e+000,
1.6593750000e+001,5.5324349162e+000,4.2558163132e+000,3.8007148522e+000,4.2298743851e+000,3.6753874904e+000,3.9103197361e+000,3.3301019969e+000,2.8938222334e+000,4.6240809655e+000,3.5727145294e+000,3.4277826821e+000,3.6243365927e+000,3.0461034846e+000,3.8769898243e+000,
1.6687500000e+001,5.4912750533e+000,4.3840252266e+000,3.7710152801e+000,4.2984304838e+000,3.8150145092e+000,4.0225559736e+000,3.3260410091e+000,2.9906210645e+000,4.5553934027e+000,3.5148258848e+000,3.4860634255e+000,3.6477567704e+000,2.9201154923e+000,3.8780693869e+000,
1.6781250000e+001,5.5104845722e+000,4.4702002554e+000,3.7469144512e+000,4.3368818267e+000,3.9602786127e+000,4.1176424658e+000,3.3906556214e+000,3.0752785827e+000,4.5341221065e+000,3.4759783065e+000,3.4129459091e+000,3.7225012232e+000,2.9773137736e+000,3.9295234094e+000,
1.6875000000e+001,5.5085804995e+000,4.4512536373e+000,3.7127431341e+000,4.1787111217e+000,3.9703490690e+000,4.0765435424e+000,3.3683730455e+000,3.0053152614e+000,4.5572037170e+000,3.4989346311e+000,3.3796856914e+000,3.6926652446e+000,3.1595667166e+000,3.8762760868e+000,
1.6968750000e+001,5.6375538437e+000,4.3885265501e+000,3.6662145336e+000,4.1507497570e+000,3.9345949846e+000,4.0052599810e+000,3.3462652001e+000,2.9894467694e+000,4.5276499189e+000,3.5366051977e+000,3.4432577543e+000,3.6649859746e+000,3.5790973138e+000,3.8986995937e+000,
1.7062500000e+001,5.5618948428e+000,4.3547397508e+000,3.6668214242e+000,4.1693537846e+000,3.9166321068e+000,3.9864172708e+000,3.3424293706e+000,2.9679658253e+000,4.4787672088e+000,3.5491369617e+000,3.5085384485e+000,3.6707101743e+000,3.6000996515e+000,3.9357489322e+000,
1.7156250000e+001,5.5020783716e+000,4.3329164101e+000,3.6230691950e+000,4.1080747801e+000,3.8710158711e+000,3.9678337268e+000,3.3903270609e+000,2.9143294564e+000,4.3727018213e+000,3.4341583378e+000,3.5374203540e+000,3.7695995492e+000,3.5241793858e+000,4.0422200930e+000,
1.7250000000e+001,5.4299944826e+000,4.3051750067e+000,3.5267191621e+000,4.0672273089e+000,3.8237424304e+000,3.8964406106e+000,3.3650394510e+000,2.9021684998e+000,4.4106737000e+000,3.3375434765e+000,3.5312537809e+000,3.8167526249e+000,3.5342684003e+000,4.1151448799e+000,
1.7343750000e+001,5.2907622323e+000,4.2364325323e+000,3.4746440271e+000,4.0695085993e+000,3.7314404433e+000,3.7920445652e+000,3.1817467437e+000,2.9443142828e+000,4.4575151844e+000,3.3690931138e+000,3.4012998769e+000,3.8193452597e+000,3.5821691549e+000,4.1053051354e+000,
1.7437500000e+001,5.1618841081e+000,4.2627109115e+000,3.4822714580e+000,4.0651161486e+000,3.7271739058e+000,3.8238467961e+000,3.2291322477e+000,3.0228377267e+000,4.4232747710e+000,3.4130699942e+000,3.4079134965e+000,3.8974340939e+000,3.5494759637e+000,4.1093678742e+000,
1.7531250000e+001,5.2944570536e+000,4.0902550249e+000,3.2566987746e+000,3.8931058177e+000,3.6618371809e+000,3.7875240151e+000,3.1848664729e+000,2.9972538228e+000,4.4032485706e+000,3.3814104911e+000,3.4596067550e+000,3.8960632736e+000,3.4817480295e+000,4.1298399920e+000,
1.7625000000e+001,5.3296072729e+000,4.0643403556e+000,3.2813438480e+000,3.8448020389e+000,3.6803078473e+000,3.7478014756e+000,3.3658434904e+000,2.9472705377e+000,4.3571588280e+000,3.3721616861e+000,3.3656608366e+000,3.8347276209e+000,3.4949659196e+000,4.1208293984e+000,
1.7718750000e+001,5.1462745995e+000,3.8648461001e+000,3.2336699469e+000,3.6320385551e+000,3.4348352505e+000,3.6335250702e+000,3.1848832940e+000,2.8252134390e+000,4.2609326350e+000,3.3564499569e+000,3.2961336297e+000,3.7114167029e+000,3.4903323095e+000,3.9946018202e+000,
1.7812500000e+001,5.5885874418e+000,3.7889369714e+000,3.2008882238e+000,3.5498969070e+000,3.1974622035e+000,3.4756834196e+000,3.1746839344e+000,2.7294904289e+000,4.3030352858e+000,3.3067314092e+000,3.3259007305e+000,3.7008250505e+000,3.6216538036e+000,4.0513211064e+000,
1.7906250000e+001,6.5577799189e+000,3.8411462045e+000,3.2828220750e+000,3.5402599369e+000,3.2145812186e+000,3.4608665813e+000,3.1765601745e+000,2.7076298037e+000,4.3085967745e+000,3.2929543505e+000,3.3471076718e+000,3.7301153842e+000,3.4312187800e+000,4.0601669917e+000,
1.8000000000e+001,6.7009722954e+000,3.8970905259e+000,3.2802601493e+000,3.5229337027e+000,3.2774190214e+000,3.6067271217e+000,3.2282231618e+000,2.7730822961e+000,4.3092381868e+000,3.4377780759e+000,3.2905505189e+000,3.8758872617e+000,3.1073120204e+000,4.1429416318e+000,
1.8093750000e+001,6.6922503754e+000,4.0862283864e+000,3.5212514955e+000,3.6577646071e+000,3.3777265556e+000,3.8462555151e+000,3.3150844758e+000,2.9678834732e+000,4.2928017410e+000,3.6064891418e+000,3.2521360883e+000,3.9386481239e+000,3.7638698252e+000,4.2014366964e+000,
1.8187500000e+001,6.6941766318e+000,4.1556928803e+000,3.5592225009e+000,3.6785705465e+000,3.4746991198e+000,3.9012976450e+000,3.3972215140e+000,3.0141226791e+000,4.3099970229e+000,3.6719871887e+000,3.2769518988e+000,3.9143608633e+000,3.9345928715e+000,4.1789080140e+000,
1.8281250000e+001,6.7077077125e+000,4.1684815504e+000,3.5251497316e+000,3.6616001516e+000,3.3859567871e+000,3.9287571249e+000,3.4120696076e+000,3.0078709707e+000,4.2271734672e+000,3.7416409271e+000,3.2887160125e+000,3.9694088676e+000,4.0463692031e+000,4.1782657296e+000,
1.8375000000e+001,6.6999920477e+000,4.2902794108e+000,3.5714515405e+000,3.8980830798e+000,3.4682161047e+000,4.0973912922e+000,3.5250687865e+000,3.1696553143e+000,4.2381282424e+000,3.8973161928e+000,3.2760429719e+000,4.0944009380e+000,4.0214455638e+000,4.3404599193e+000,
1.8468750000e+001,6.8315663996e+000,4.3162165374e+000,3.6076661956e+000,3.9648596264e+000,3.5144139575e+000,4.0818081701e+000,3.6002819573e+000,3.1401367328e+000,4.3041053236e+000,3.9782333088e+000,3.2719270058e+000,4.1532407844e+000,4.0338116948e+000,4.4076276490e+000,
1.8562500000e+001,7.0762574162e+000,4.2984859474e+000,3.5843463669e+000,3.9196025575e+000,3.4974607759e+000,4.0712548276e+000,3.5412379949e+000,3.0815273277e+000,4.3243721497e+000,3.9745469928e+000,3.1845387598e+000,4.1676383517e+000,4.0560440214e+000,4.3813734085e+000,
1.8656250000e+001,7.3268994499e+000,4.2982192671e+000,3.6366153496e+000,3.9482743865e+000,3.5197633655e+000,4.0376519711e+000,3.5348048857e+000,3.1054442012e+000,4.3609246887e+000,3.9453866038e+000,3.2512905990e+000,4.1719726784e+000,4.0471209023e+000,4.3787911406e+000,
1.8750000000e+001,7.3262023776e+000,4.3271630809e+000,3.5480837090e+000,3.9987557815e+000,3.5656862323e+000,3.9493949631e+000,3.5687012695e+000,3.0719662727e+000,4.3868984550e+000,3.8518701461e+000,3.1746746286e+000,4.1352464921e+000,3.9664524522e+000,4.3498076014e+000,
1.8843750000e+001,7.2955900902e+000,4.4302630737e+000,3.5987986212e+000,4.0511838218e+000,3.5980777328e+000,3.9735669728e+000,3.5494981742e+000,3.0830041538e+000,4.3870676469e+000,3.8373293586e+000,3.1936235764e+000,4.1286199326e+000,3.9475109489e+000,4.3573779447e+000,
1.8937500000e+001,6.9443005911e+000,4.4335480604e+000,3.5087753061e+000,4.1023406715e+000,3.6006775673e+000,3.9797165792e+000,3.5508699972e+000,3.1027559889e+000,4.3628657960e+000,3.9054167418e+000,3.1488731391e+000,4.1847658741e+000,3.9874154943e+000,4.4168042722e+000,
1.9031250000e+001,6.8466493503e+000,4.4139734235e+000,3.4679245340e+000,4.1037818342e+000,3.6517621808e+000,3.9254424264e+000,3.4667255584e+000,3.0932779671e+000,4.4318742962e+000,3.8687730597e+000,3.1174000074e+000,4.1407632090e+000,3.9071954163e+000,4.3305420290e+000,
1.9125000000e+001,6.8394460646e+000,4.3767913677e+000,3.2917365141e+000,4.0996454768e+000,3.6031573919e+000,3.8430202432e+000,3.4546123362e+000,3.0104709534e+000,4.5064870182e+000,3.8572014408e+000,3.1907008434e+000,4.0997414482e+000,3.5520186377e+000,4.2354221180e+000,
1.9218750000e+001,7.2744668376e+000,4.4685160520e+000,3.4220669629e+000,4.2138801834e+000,3.6724852669e+000,3.9937555555e+000,3.4455301355e+000,3.1246956711e+000,4.4793754806e+000,3.9813365949e+000,3.1901927923e+000,4.1158505599e+000,3.2366044129e+000,4.2318681973e+000,
1.9312500000e+001,7.2901278989e+000,4.4633343087e+000,3.5406661860e+000,4.2354759196e+000,3.7409680841e+000,3.9526173820e+000,3.5754272283e+000,3.1615632860e+000,4.5566395162e+000,3.9053986541e+000,3.0810075713e+000,4.0598864138e+000,3.1216986822e+000,4.0829828920e+000,
1.9406250000e+001,7.3056138569e+000,4.4332192749e+000,3.5621318378e+000,4.1910873249e+000,3.7520943122e+000,3.8862766676e+000,3.5242701960e+000,3.1282393509e+000,4.5610889637e+000,3.8069675136e+000,3.1442862295e+000,3.8813204627e+000,3.0614337812e+000,3.8033902992e+000,
1.9500000000e+001,7.2238345986e+000,4.4984409226e+000,3.6437888457e+000,4.2494293618e+000,3.8978728625e+000,3.9246219440e+000,3.5560274984e+000,3.1990454921e+000,4.5982942853e+000,3.8588617028e+000,3.3003626304e+000,3.8868599683e+000,3.0431862858e+000,3.8409773368e+000,
1.9593750000e+001,6.8458087301e+000,4.5279386978e+000,3.6551246085e+000,4.3119722540e+000,3.9120387946e+000,4.0111887318e+000,3.5877546782e+000,3.2564616493e+000,4.6174676125e+000,3.9061088253e+000,3.2740471450e+000,3.9260646710e+000,3.0879507321e+000,3.9333818778e+000,
1.9687500000e+001,6.6246611975e+000,4.5320314036e+000,3.6820319352e+000,4.3892500568e+000,3.9589657821e+000,4.1378573789e+000,3.5984639208e+000,3.3231251729e+000,4.5926155313e+000,3.9886113243e+000,3.2927064107e+000,3.9299504104e+000,3.0943551984e+000,3.9316955258e+000,
1.9781250000e+001,6.5057248655e+000,4.3848957035e+000,3.6788387394e+000,4.2781620555e+000,3.9204924934e+000,4.1375743458e+000,3.6093332206e+000,3.3100652904e+000,4.6116575276e+000,4.0155157792e+000,3.2685015941e+000,3.9621279842e+000,3.0954614001e+000,3.9452723669e+000,
1.9875000000e+001,6.4760931011e+000,4.3640105646e+000,3.7197914484e+000,4.3192927373e+000,3.9447840762e+000,4.2741450662e+000,3.6566874728e+000,3.4030438735e+000,4.5894252696e+000,4.0768072081e+000,3.2911004119e+000,4.0424296696e+000,3.1191223461e+000,3.9652998838e+000,
1.9968750000e+001,6.4724457613e+000,4.2864045873e+000,3.7239949249e+000,4.2475688970e+000,3.8853127166e+000,4.2130686643e+000,3.6138679141e+000,3.3670467110e+000,4.5727131584e+000,4.0104074437e+000,3.2941502658e+000,3.9301737126e+000,2.9535076659e+000,3.8206818632e+000,
2.0062500000e+001,6.4708811389e+000,4.2411139625e+000,3.7278854847e+000,4.2275347506e+000,3.7924723528e+000,4.1352371831e+000,3.6034631702e+000,3.2705790567e+000,4.6816081226e+000,3.8634333925e+000,3.2613348602e+000,3.8027673610e+000,2.8499355223e+000,3.8205600667e+000,
2.0156250000e+001,6.0085482518e+000,4.1645215817e+000,3.6276940935e+000,4.1451910709e+000,3.6955728364e+000,4.0027353756e+000,3.5061040029e+000,3.1796806840e+000,4.5805637456e+000,3.7258145796e+000,3.1688295359e+000,3.7237399880e+000,2.7567655966e+000,3.7945182450e+000,
2.0250000000e+001,4.7914847305e+000,4.0226520037e+000,3.4910458653e+000,4.0452653423e+000,3.6680549843e+000,3.9734619781e+000,3.4364647395e+000,3.1122796103e+000,4.6550866315e+000,3.6735132762e+000,3.1719240440e+000,3.5969493880e+000,2.7562968771e+000,3.6880702327e+000,
2.0343750000e+001,4.2585991222e+000,3.9168562118e+000,3.3709243239e+000,3.9494416396e+000,3.7210493767e+000,3.9125813737e+000,3.4227286755e+000,2.9471109057e+000,4.7307935517e+000,3.6975596994e+000,3.1182460610e+000,3.6024556765e+000,2.8155598188e+000,3.7101309724e+000,
2.0437500000e+001,4.1777246475e+000,3.8647909491e+000,3.3239697038e+000,3.9090089379e+000,3.6715312481e+000,3.8922118559e+000,3.3656607834e+000,2.8525957249e+000,4.7124927473e+000,3.6520730105e+000,3.0924332910e+000,3.5893740405e+000,2.8453021189e+000,3.7321268139e+000,
2.0531250000e+001,3.9189552381e+000,3.6676029278e+000,3.1918703771e+000,3.7510720165e+000,3.4465317567e+000,3.8405200411e+000,3.2236392440e+000,2.7899753917e+000,4.7122938279e+000,3.5858693006e+000,3.1015522171e+000,3.5327174208e+000,2.7725063522e+000,3.7096257220e+000,
2.0625000000e+001,3.8405512626e+000,3.6136866733e+000,3.1713716676e+000,3.7705928587e+000,3.3994393637e+000,3.8457374700e+000,3.0988458441e+000,2.8317201573e+000,4.7531105254e+000,3.5831216061e+000,3.0919434048e+000,3.5321138817e+000,2.7071381089e+000,3.6515534359e+000,
2.0718750000e+001,3.8205769626e+000,3.5036968210e+000,3.1116578059e+000,3.6269671652e+000,3.1704942001e+000,3.6899499425e+000,3.0284839537e+000,2.7277782806e+000,4.7438160797e+000,3.4940621741e+000,3.1149352288e+000,3.5126725264e+000,2.6619472792e+000,3.5979843415e+000,
2.0812500000e+001,3.9187674397e+000,3.4352119034e+000,3.0952949349e+000,3.6516424528e+000,3.2750503257e+000,3.7327137805e+000,3.0195087788e+000,2.7041208697e+000,4.8643755496e+000,3.5328296120e+000,3.3266653699e+000,3.6698520117e+000,2.9847491274e+000,3.7069027442e+000,
2.0906250000e+001,3.9195326207e+000,3.3988711690e+000,3.0423046587e+000,3.7023110495e+000,3.3357815753e+000,3.7392029629e+000,3.0043872250e+000,2.6219168390e+000,4.8794099603e+000,3.6550049126e+000,3.4180214970e+000,3.8656763927e+000,3.0308477009e+000,3.9190365507e+000,
2.1000000000e+001,3.9383648442e+000,3.6517896694e+000,3.2157506156e+000,3.7994432563e+000,3.3879346508e+000,3.8049117775e+000,3.0638664696e+000,2.6486890441e+000,4.8509468979e+000,3.6505083732e+000,3.3935601055e+000,3.9162162394e+000,2.9745997450e+000,3.9807469221e+000,
2.1093750000e+001,3.9194633042e+000,3.6958010349e+000,3.2997352555e+000,3.8272482706e+000,3.4020073106e+000,3.8184394752e+000,3.1256166159e+000,2.7852795136e+000,4.8630054581e+000,3.6247111934e+000,3.3788231800e+000,3.8818341709e+000,2.9942052851e+000,3.9577732070e+000,
2.1187500000e+001,3.9492603086e+000,3.7372832733e+000,3.4977073042e+000,3.8976499912e+000,3.4784556216e+000,3.8274230501e+000,3.2769401590e+000,2.8327533833e+000,4.8261410602e+000,3.6344958606e+000,3.3367687325e+000,3.8782029032e+000,3.0056129603e+000,3.9647922820e+000,
2.1281250000e+001,3.9107711074e+000,3.8063943740e+000,3.5102942434e+000,3.9566325405e+000,3.4470912998e+000,3.8143733784e+000,3.2686087017e+000,2.8486370353e+000,4.7871199452e+000,3.5153374236e+000,3.4410068006e+000,3.8548496437e+000,2.9932385785e+000,3.9547429646e+000,
2.1375000000e+001,3.8248827671e+000,3.8521943234e+000,3.5305180528e+000,3.9366578483e+000,3.2207792792e+000,3.7990722352e+000,3.1734091371e+000,2.8543124676e+000,4.7090726998e+000,3.4496758875e+000,3.4441409841e+000,3.7809728503e+000,3.0412152695e+000,3.8766630919e+000,
2.1468750000e+001,3.7073310619e+000,3.8829934907e+000,3.5661452577e+000,3.9645127539e+000,3.2827220414e+000,3.8197540643e+000,3.1947261707e+000,2.8539110809e+000,4.7197619990e+000,3.5345485880e+000,3.4387991571e+000,3.8191420198e+000,3.0564790467e+000,3.8724695655e+000,
2.1562500000e+001,3.6560778416e+000,3.9127158334e+000,3.4658370403e+000,4.0208426302e+000,3.2887747146e+000,3.8775787259e+000,3.2211101774e+000,2.9216752506e+000,4.6116242610e+000,3.4809176715e+000,3.3955789087e+000,3.8114579515e+000,3.0777937982e+000,3.8362970444e+000,
2.1656250000e+001,3.6984232830e+000,3.9331344202e+000,3.4786283985e+000,4.0574711194e+000,3.3861901097e+000,3.8666720178e+000,3.3702465325e+000,2.9215699236e+000,4.6545994301e+000,3.4709181065e+000,3.3649894405e+000,3.8681082085e+000,3.0590440359e+000,3.8861033408e+000,
2.1750000000e+001,3.7779056047e+000,3.9960445221e+000,3.5004688294e+000,4.1204425527e+000,3.3806990614e+000,3.9355895607e+000,3.3592821410e+000,2.9794788530e+000,4.5843316830e+000,3.4482937128e+000,3.2512812477e+000,3.8022803094e+000,2.9504207352e+000,3.8433445867e+000,
2.1843750000e+001,3.6961839081e+000,4.0463700306e+000,3.4960814006e+000,4.0756543738e+000,3.4066986586e+000,3.9210712811e+000,3.4481825508e+000,2.9769997155e+000,4.5038659526e+000,3.4974254792e+000,3.0981759487e+000,3.6929811419e+000,2.6322133963e+000,3.7309658553e+000,
2.1937500000e+001,3.9438844479e+000,4.0145260971e+000,3.5610039192e+000,4.0360317720e+000,3.3837751851e+000,3.7714643415e+000,3.4079580942e+000,2.9811695695e+000,4.5370486734e+000,3.3223563889e+000,2.9854834352e+000,3.3917908308e+000,2.5724388833e+000,3.4737189464e+000,
2.2031250000e+001,3.9878103836e+000,3.9072697433e+000,3.5198070713e+000,3.9894525254e+000,3.4436041722e+000,3.7829149410e+000,3.4676689228e+000,3.0236889933e+000,4.5773462204e+000,3.3274100546e+000,3.0131195991e+000,3.3583526040e+000,2.5772192244e+000,3.3058151888e+000,
2.2125000000e+001,3.9941397405e+000,3.8600041306e+000,3.4503156504e+000,4.0094436761e+000,3.4043031225e+000,3.7889407201e+000,3.4062288182e+000,3.0088207473e+000,4.5699413197e+000,3.3590019399e+000,3.1391890175e+000,3.4403398924e+000,2.4559523699e+000,3.2900144627e+000,
2.2218750000e+001,3.9679143616e+000,3.8784838702e+000,3.3304605177e+000,4.0203907740e+000,3.3507636088e+000,3.8037085520e+000,3.3123349915e+000,2.9799613944e+000,4.5255648094e+000,3.4717415017e+000,3.1711259453e+000,3.5240793812e+000,2.4586818736e+000,3.3047328814e+000,
2.2312500000e+001,4.1198916543e+000,4.0214331690e+000,3.4477129641e+000,4.1107874302e+000,3.5502905251e+000,4.0457726742e+000,3.4226263862e+000,3.2218841033e+000,4.5223905732e+000,3.7204335600e+000,3.0362788631e+000,3.6977793964e+000,2.3933834015e+000,3.5054937022e+000,
2.2406250000e+001,4.4735473449e+000,4.2446227068e+000,3.6162081027e+000,4.2805072399e+000,3.7046910792e+000,4.2763943915e+000,3.4625627617e+000,3.3651058452e+000,4.5539094159e+000,3.9622143272e+000,3.2006272821e+000,3.9779226121e+000,2.2568422243e+000,3.5902660557e+000,
2.2500000000e+001,4.6290170344e+000,4.2486571069e+000,3.6858258435e+000,4.2805831980e+000,3.6959352226e+000,4.2918365731e+000,3.4627924733e+000,3.3988540884e+000,4.5037452996e+000,4.1994937290e+000,3.3274054116e+000,4.2191836571e+000,2.4323316616e+000,3.7288831962e+000,
2.2593750000e+001,4.7941075451e+000,4.3745907216e+000,3.8614973766e+000,4.4040275925e+000,3.7676994368e+000,4.3890470737e+000,3.5427903957e+000,3.5503646232e+000,4.6019212432e+000,4.3815012420e+000,3.3306560668e+000,4.3213281585e+000,2.4409353741e+000,3.8639576233e+000,
2.2687500000e+001,4.8316431681e+000,4.3774813677e+000,3.8870316731e+000,4.3272900444e+000,3.7266798328e+000,4.3218781835e+000,3.4364491102e+000,3.6048800258e+000,4.6068359694e+000,4.4280591237e+000,3.3929699149e+000,4.3452289556e+000,2.4426251927e+000,3.9283821478e+000,
2.2781250000e+001,4.9577885172e+000,4.3456808627e+000,3.8842370604e+000,4.2894889903e+000,3.8055179354e+000,4.3063275881e+000,3.4612632801e+000,3.5791527037e+000,4.5726920594e+000,4.3881111036e+000,3.4278268001e+000,4.3764487243e+000,2.4922643250e+000,3.9325859135e+000,
2.2875000000e+001,4.9550602211e+000,4.3426982370e+000,3.9377419175e+000,4.3316794296e+000,3.8185348279e+000,4.3098409889e+000,3.4765803006e+000,3.5689288793e+000,4.4857527305e+000,4.3814890913e+000,3.5058157133e+000,4.3644748120e+000,2.5395750797e+000,3.9071016945e+000,
2.2968750000e+001,4.8808289918e+000,4.2895963448e+000,3.8993533674e+000,4.2934372639e+000,3.7893483106e+000,4.3118053162e+000,3.4773847211e+000,3.5282934807e+000,4.5283555367e+000,4.3602443188e+000,3.5415793068e+000,4.3848124207e+000,2.7108816322e+000,3.9222558817e+000,
2.3062500000e+001,4.9095707937e+000,4.2964596338e+000,3.8728113203e+000,4.2684862738e+000,3.8199938523e+000,4.3053292346e+000,3.4826442773e+000,3.4936465410e+000,4.5092062906e+000,4.3360977375e+000,3.5386794108e+000,4.3687509227e+000,2.8064329339e+000,3.9501790491e+000,
2.3156250000e+001,4.9510605451e+000,4.3628205017e+000,3.9721515554e+000,4.3724129621e+000,3.8385513076e+000,4.3392763927e+000,3.4989737951e+000,3.5588274328e+000,4.4800572203e+000,4.3651156999e+000,3.5566247200e+000,4.4228406771e+000,2.9613144202e+000,4.2376611561e+000,
2.3250000000e+001,4.9342541837e+000,4.5106552124e+000,4.0219849039e+000,4.5183719554e+000,3.9529760096e+000,4.4384100040e+000,3.6547260717e+000,3.6796961413e+000,4.5163879014e+000,4.4061372857e+000,3.6105747066e+000,4.4738075322e+000,2.9896255565e+000,4.3547789165e+000,
2.3343750000e+001,4.8596905140e+000,4.4494561338e+000,4.0076754195e+000,4.4294897922e+000,3.9253000405e+000,4.2555549048e+000,3.6119339202e+000,3.5784542273e+000,4.5335400305e+000,4.2666092842e+000,3.5725371471e+000,4.4807909108e+000,3.1842379148e+000,4.6662716841e+000,
2.3437500000e+001,4.6254468250e+000,4.3649988238e+000,3.8612742630e+000,4.3934181743e+000,3.8679865230e+000,4.0948460269e+000,3.6247763482e+000,3.5489113574e+000,4.5204323129e+000,4.0959802180e+000,3.3480219541e+000,4.2744246283e+000,3.2664549043e+000,4.7078376456e+000,
2.3531250000e+001,4.6794465701e+000,4.3587369391e+000,3.8006293647e+000,4.3856802056e+000,3.8347193159e+000,4.0272500953e+000,3.6487243920e+000,3.4553454564e+000,4.4403796423e+000,3.8369507359e+000,3.3222490043e+000,4.1423159054e+000,3.2261535173e+000,4.6595353786e+000,
2.3625000000e+001,4.5341568934e+000,4.3168457162e+000,3.7577296619e+000,4.3443898014e+000,3.8477427743e+000,4.0621486571e+000,3.6111341599e+000,3.3150923973e+000,4.4065574922e+000,3.4790779561e+000,3.3170398861e+000,4.0250049154e+000,3.2423005581e+000,4.6270562298e+000,
2.3718750000e+001,4.3730986184e+000,4.3148291794e+000,3.7076234223e+000,4.3229487212e+000,3.8037273215e+000,3.9914387956e+000,3.6249170084e+000,3.2544537094e+000,4.3544537692e+000,3.4491205855e+000,3.4077784124e+000,3.9965560337e+000,3.2256901156e+000,4.6194555351e+000,
2.3812500000e+001,4.1881182768e+000,4.3101999550e+000,3.6938097089e+000,4.3742692198e+000,3.7759488307e+000,4.0063683701e+000,3.6206199891e+000,3.4033120764e+000,4.3814605763e+000,3.4683132891e+000,3.3384353171e+000,3.9559127042e+000,3.1927123035e+000,4.6440606721e+000,
2.3906250000e+001,4.1281096488e+000,4.3194660738e+000,3.6090368744e+000,4.3468211944e+000,3.6745318335e+000,3.9860522041e+000,3.5297032013e+000,3.4178208091e+000,4.3692208839e+000,3.4674203050e+000,3.2821870421e+000,3.9811912803e+000,3.1719985528e+000,4.6383298765e+000,
2.4000000000e+001,4.1232515995e+000,4.3678696918e+000,3.6054303354e+000,4.3936000847e+000,3.7846696324e+000,3.9802849112e+000,3.6102177691e+000,3.4258681486e+000,4.4679941693e+000,3.4536613066e+000,3.2574210272e+000,3.8885292810e+000,3.0386460200e+000,4.5990185125e+000,
2.4093750000e+001,4.0435581845e+000,4.3626851930e+000,3.6843370753e+000,4.3814068384e+000,3.8032048280e+000,3.9614424513e+000,3.6186129512e+000,3.4765422206e+000,4.4840530613e+000,3.5026536402e+000,3.1757098683e+000,3.8944052061e+000,2.9812610491e+000,4.5897157482e+000,
2.4187500000e+001,3.9966548835e+000,4.2839931622e+000,3.5700175198e+000,4.2427729454e+000,3.8050393511e+000,3.8694698741e+000,3.6805516644e+000,3.4089883856e+000,4.4052626996e+000,3.2871125819e+000,3.1099937924e+000,3.8717186144e+000,3.0115001974e+000,4.4452443516e+000,
2.4281250000e+001,4.1584266489e+000,4.2088283894e+000,3.5805405597e+000,4.1846523429e+000,3.8716162103e+000,3.7931864027e+000,3.8018790808e+000,3.2934542865e+000,4.4287221417e+000,3.0740837116e+000,3.1270679795e+000,3.7078916071e+000,2.9562851155e+000,4.1773097694e+000,
2.4375000000e+001,4.3033580015e+000,4.2224675160e+000,3.6742881445e+000,4.1644035583e+000,3.8181179762e+000,3.7746174808e+000,3.7743859515e+000,3.2310675552e+000,4.4099567427e+000,3.0222551962e+000,3.1636865143e+000,3.6632348579e+000,2.4855752341e+000,3.6419292002e+000,
2.4468750000e+001,4.2836083121e+000,4.1507889163e+000,3.6233201212e+000,4.1249454156e+000,3.8951918502e+000,3.7629990067e+000,3.8336950112e+000,3.2453886528e+000,4.5225479984e+000,3.0475101282e+000,3.2929479816e+000,3.7277096932e+000,2.4356008035e+000,3.8050036753e+000,
2.4562500000e+001,4.4702325554e+000,4.0607205045e+000,3.6166969611e+000,4.0962440636e+000,3.8772798029e+000,3.5750349581e+000,3.7817508390e+000,3.1821768801e+000,4.5414534636e+000,3.1279600079e+000,3.3351452195e+000,3.9091053752e+000,2.4007927038e+000,3.9911897386e+000,
2.4656250000e+001,4.7388589198e+000,4.1639320029e+000,3.6159032642e+000,4.2053266948e+000,3.8881501333e+000,3.7933886262e+000,3.7762153164e+000,3.3224887145e+000,4.6836590789e+000,3.3240206140e+000,3.3764543302e+000,4.0063742640e+000,2.3775132926e+000,4.0369449688e+000,
2.4750000000e+001,4.7674497421e+000,4.2144713263e+000,3.5569847747e+000,4.3058731695e+000,3.8708450209e+000,3.9255078575e+000,3.7803834876e+000,3.4135379545e+000,4.7008141176e+000,3.4551685484e+000,3.3354810663e+000,4.1263081484e+000,2.6687595057e+000,4.2552610720e+000,
2.4843750000e+001,4.8593984947e+000,4.4351985279e+000,3.7701177392e+000,4.4719311021e+000,4.0274721907e+000,4.0379511378e+000,3.8896369528e+000,3.3328834423e+000,4.7637055837e+000,3.4613502051e+000,3.4879397458e+000,4.1389522295e+000,2.6968753064e+000,4.2746294223e+000,
2.4937500000e+001,4.9165219346e+000,4.4289789395e+000,3.9411015312e+000,4.4992981286e+000,4.0902449454e+000,4.0043787014e+000,3.9404353907e+000,3.3517772141e+000,4.7520609439e+000,3.6467000378e+000,3.4539825931e+000,4.2368371698e+000,2.7144605489e+000,4.3466295370e+000,
2.5031250000e+001,4.9221537726e+000,4.4098336119e+000,3.9209807145e+000,4.4875406366e+000,4.0182049482e+000,4.0260613010e+000,3.8634231442e+000,3.3033507305e+000,4.7829002249e+000,3.6697196957e+000,3.4546185084e+000,4.3363880207e+000,2.7432070183e+000,4.3506854432e+000,
2.5125000000e+001,4.9049162310e+000,4.3525875891e+000,3.8772511386e+000,4.4586532376e+000,3.9421339220e+000,4.0271401822e+000,3.7359220951e+000,3.1469154501e+000,4.7066510686e+000,3.6586260079e+000,3.4512144218e+000,4.2854517317e+000,2.7673216926e+000,4.3576263588e+000,
2.5218750000e+001,4.8448857948e+000,4.2429863051e+000,3.8087053623e+000,4.3898890601e+000,3.8085670117e+000,4.0182890541e+000,3.5655729577e+000,3.1433293599e+000,4.7292962106e+000,3.7719395859e+000,3.4570447554e+000,4.2402432721e+000,2.5794770014e+000,4.3203856033e+000,
2.5312500000e+001,4.7843748390e+000,4.1583712050e+000,3.8010034348e+000,4.3455076479e+000,3.7288941623e+000,4.0432758690e+000,3.5058051905e+000,3.2252944488e+000,4.6961966696e+000,3.8496844485e+000,3.5875950793e+000,4.2209839074e+000,2.5907273305e+000,4.3534252345e+000,
2.5406250000e+001,4.7951149368e+000,4.1039523476e+000,3.8352307957e+000,4.2927688897e+000,3.6945505617e+000,4.0320039574e+000,3.5796961508e+000,3.2081091507e+000,4.6854023944e+000,3.8848870252e+000,3.6014075315e+000,4.2116347606e+000,2.6471126743e+000,4.3430899480e+000,
2.5500000000e+001,4.8269923808e+000,4.1365350161e+000,3.8264507789e+000,4.2616632064e+000,3.5785557094e+000,4.0294159558e+000,3.4974889790e+000,3.2247777858e+000,4.6016956240e+000,3.8785252226e+000,3.5372020333e+000,4.1379703004e+000,2.5579139824e+000,4.1797452872e+000,
2.5593750000e+001,4.3911626698e+000,4.1366756740e+000,3.7557490939e+000,4.2267373607e+000,3.5440106377e+000,4.0025021412e+000,3.4526477257e+000,3.2060068426e+000,4.6868028638e+000,3.8018582947e+000,3.4606059979e+000,4.0642128994e+000,2.4999069868e+000,4.0970351239e+000,
2.5687500000e+001,4.3026824421e+000,4.0559574302e+000,3.7903156752e+000,4.0885716291e+000,3.5327759464e+000,3.8991277140e+000,3.4884404678e+000,3.0244677402e+000,4.6810530191e+000,3.6555826451e+000,3.5405851732e+000,3.8932560730e+000,2.5086188316e+000,3.9739117649e+000,
2.5781250000e+001,4.5141827639e+000,4.1986489736e+000,3.7862592889e+000,3.9897086027e+000,3.6946281393e+000,3.8929355292e+000,3.4154527656e+000,2.7955886069e+000,4.7792552613e+000,3.6494896775e+000,3.5399057974e+000,3.9359145726e+000,2.4853901608e+000,3.9255404264e+000,
2.5875000000e+001,4.4156365058e+000,4.0305341200e+000,3.6283352075e+000,3.8182136607e+000,3.6064901051e+000,3.7739964019e+000,3.3473657050e+000,2.8087498796e+000,4.6853727048e+000,3.5832010765e+000,3.5085442889e+000,3.9871066100e+000,2.6669275460e+000,3.9792972690e+000,
2.5968750000e+001,4.3383020274e+000,3.9259447138e+000,3.4688003847e+000,3.6449054938e+000,3.5975560476e+000,3.8117716438e+000,3.3392689069e+000,2.8183285102e+000,4.7925274288e+000,3.5328936471e+000,3.5806258498e+000,3.8695777194e+000,2.7800777639e+000,4.0113819438e+000,
2.6062500000e+001,4.3222154621e+000,3.9746615738e+000,3.4562843943e+000,3.6232893496e+000,3.6401115648e+000,3.8401070927e+000,3.4623360281e+000,2.8217586184e+000,4.8102777908e+000,3.5086183151e+000,3.5926845454e+000,3.9196233174e+000,2.7697659359e+000,4.1197363782e+000,
2.6156250000e+001,4.3104236320e+000,3.9775776367e+000,3.4753963585e+000,3.6289945219e+000,3.6415944798e+000,3.8037981090e+000,3.4953582873e+000,2.8319384107e+000,4.8878637069e+000,3.5207919612e+000,3.6654828556e+000,4.0329709375e+000,2.7982322429e+000,4.3065040755e+000,
2.6250000000e+001,4.3193315496e+000,3.9714016000e+000,3.4450420172e+000,3.5943893635e+000,3.6888524743e+000,3.8041938932e+000,3.4301277754e+000,2.8044689326e+000,4.8851913376e+000,3.4255447224e+000,3.6467587919e+000,4.0944922018e+000,2.9141143572e+000,4.3548904663e+000,
2.6343750000e+001,4.2373988043e+000,3.9873832408e+000,3.2776349690e+000,3.6401946573e+000,3.6690224472e+000,3.8186503986e+000,3.3295971215e+000,2.8096459251e+000,4.9041071181e+000,3.3673624864e+000,3.5402460997e+000,4.1189766583e+000,2.9598412751e+000,4.3708452259e+000,
2.6437500000e+001,4.2032572852e+000,3.9736785346e+000,3.1906276410e+000,3.7322347424e+000,3.6942250287e+000,3.7951380696e+000,3.3120622197e+000,2.7930684332e+000,4.9345800280e+000,3.5674861817e+000,3.5991706544e+000,4.3496195231e+000,3.0131392233e+000,4.5610732626e+000,
2.6531250000e+001,4.0954627595e+000,3.9814117647e+000,3.2084880381e+000,3.9035444046e+000,3.7136774607e+000,3.8569400203e+000,3.2751162290e+000,2.8962725088e+000,4.8940156396e+000,3.6497993468e+000,3.6275348607e+000,4.3985413202e+000,3.0925294021e+000,4.6921905282e+000,
2.6625000000e+001,4.1078496559e+000,3.8393236489e+000,3.1971094101e+000,3.9461248816e+000,3.8161800101e+000,3.7752383298e+000,3.4363884889e+000,2.9596279592e+000,4.8657402290e+000,3.7128334938e+000,3.5670252893e+000,4.4363701412e+000,3.1951745368e+000,4.7296296129e+000,
2.6718750000e+001,4.5440795908e+000,3.7364826250e+000,3.1031280054e+000,3.9391821480e+000,3.7772098390e+000,3.7207257747e+000,3.3058886138e+000,2.9317920404e+000,4.7447367720e+000,3.7012415621e+000,3.4843004044e+000,4.4283995187e+000,3.1560163259e+000,4.7491622055e+000,
2.6812500000e+001,4.4624549440e+000,3.3786587557e+000,3.0934470016e+000,3.9325382645e+000,3.6849299633e+000,3.7045218094e+000,3.2984868370e+000,2.9569903360e+000,4.6159366570e+000,3.6872694108e+000,3.3234237965e+000,4.3233480380e+000,2.9950602085e+000,4.6678794666e+000,
2.6906250000e+001,4.5952371557e+000,3.4144028963e+000,3.0388728457e+000,3.9210214422e+000,3.6681818995e+000,3.7315287042e+000,3.3070872481e+000,2.9648351717e+000,4.5446057559e+000,3.5960923312e+000,3.3255371864e+000,4.2470802437e+000,2.9694622099e+000,4.6146822451e+000,
2.7000000000e+001,4.7959927908e+000,3.5388212897e+000,2.9013913081e+000,3.9615768883e+000,3.6543850943e+000,3.8402712406e+000,3.3058645967e+000,3.0915220638e+000,4.6230269660e+000,3.6832010404e+000,3.3130313752e+000,4.1826214658e+000,2.9138090690e+000,4.5829819205e+000,
2.7093750000e+001,4.8086367540e+000,3.5748927577e+000,2.8326754279e+000,4.0097184481e+000,3.6159022877e+000,3.8745781860e+000,3.1237304735e+000,3.2686274560e+000,4.6487915214e+000,3.6698890811e+000,3.2620713233e+000,4.1429403155e+000,2.8968024408e+000,4.4987071918e+000,
2.7187500000e+001,4.8768640761e+000,3.5544369827e+000,2.8043060424e+000,4.0219536669e+000,3.6229823397e+000,3.8196274217e+000,3.1113205228e+000,3.2776733453e+000,4.5390486003e+000,3.6373962857e+000,3.1145799801e+000,4.0521584196e+000,2.8284286928e+000,4.3293652915e+000,
2.7281250000e+001,4.8601906277e+000,3.5282477412e+000,2.7458444028e+000,3.9974548478e+000,3.6511734302e+000,3.8120348466e+000,3.1833430601e+000,3.1940936023e+000,4.6344916686e+000,3.6093748885e+000,3.0139202587e+000,4.0126620874e+000,2.8186264395e+000,4.3080460936e+000,
2.7375000000e+001,4.8542689751e+000,3.5107972515e+000,2.8467984920e+000,3.9822437951e+000,3.6640258380e+000,3.8138534313e+000,3.1944207027e+000,3.2230299047e+000,4.6972426155e+000,3.5492837131e+000,3.1770146827e+000,3.9208599293e+000,2.7830223190e+000,4.2578108100e+000,
2.7468750000e+001,4.8400196352e+000,3.5972812222e+000,2.8619993480e+000,4.0252345491e+000,3.7142121662e+000,3.8151993872e+000,3.2009635807e+000,3.2475644044e+000,4.8024800287e+000,3.4722807682e+000,3.0219008645e+000,3.7412267846e+000,2.8111165418e+000,4.0580056391e+000,
2.7562500000e+001,4.8742896229e+000,3.6802891397e+000,3.0293394601e+000,3.9817757545e+000,3.7856176269e+000,3.8519875603e+000,3.3090762788e+000,3.1734022157e+000,4.8754591653e+000,3.4908559394e+000,3.0752713505e+000,3.5773181533e+000,2.7650480829e+000,3.7708815338e+000,
2.7656250000e+001,4.8512440026e+000,3.9006859187e+000,3.1370124596e+000,4.0408695684e+000,3.6997479035e+000,3.8616875198e+000,3.2790939271e+000,3.1595989090e+000,4.8692258368e+000,3.4974175616e+000,3.1719311366e+000,3.4574572061e+000,2.5597912801e+000,3.5396908261e+000,
2.7750000000e+001,4.4834650326e+000,3.9090827369e+000,3.1384287946e+000,3.9608160177e+000,3.5812804911e+000,3.8567192065e+000,3.2550453203e+000,3.1774910903e+000,4.9492494822e+000,3.4356262660e+000,3.1992856434e+000,3.5112804044e+000,2.5265741431e+000,3.6073794340e+000,
2.7843750000e+001,4.3896432601e+000,3.9042595024e+000,3.1113027424e+000,3.9641155141e+000,3.5694272012e+000,3.8426397545e+000,3.2700072243e+000,3.1397016172e+000,5.0221384839e+000,3.4478807114e+000,3.2106543241e+000,3.5364695586e+000,2.5817138510e+000,3.7299307178e+000,
2.7937500000e+001,4.1191037953e+000,3.8168953737e+000,3.0961373952e+000,3.9369584550e+000,3.5961972036e+000,3.7634044159e+000,3.2895950024e+000,3.0227060524e+000,4.9554014239e+000,3.5238420181e+000,3.1802854393e+000,3.7054553047e+000,2.5585084592e+000,3.7698068150e+000,
2.8031250000e+001,3.9372470517e+000,3.9142918680e+000,3.1697705275e+000,3.9924449040e+000,3.6518340889e+000,3.6869718782e+000,3.3648965378e+000,2.9512168654e+000,4.8925187082e+000,3.5472030619e+000,3.1852147991e+000,3.7851182873e+000,2.6039163212e+000,3.8297107357e+000,
2.8125000000e+001,3.9114102544e+000,3.9757564240e+000,3.1826085711e+000,3.9898957065e+000,3.6880979170e+000,3.6786553968e+000,3.4470867247e+000,2.7700559572e+000,4.9234234325e+000,3.5249789547e+000,3.3174421415e+000,3.7823224460e+000,2.6270984459e+000,3.8159566040e+000,
2.8218750000e+001,3.7719463493e+000,4.0128908938e+000,3.2925882330e+000,4.0190903147e+000,3.7013289423e+000,3.7762352565e+000,3.4708128121e+000,2.7917361580e+000,4.8499891798e+000,3.6313362785e+000,3.5365719325e+000,3.7800101153e+000,2.5201036528e+000,3.8420211986e+000,
2.8312500000e+001,3.8080246025e+000,4.0020575666e+000,3.2783029239e+000,4.0662462177e+000,3.6609927306e+000,3.8156574482e+000,3.4344895003e+000,2.7287377494e+000,4.8312221178e+000,3.7565348738e+000,3.5660689399e+000,3.8868333100e+000,2.4061236512e+000,3.8730761262e+000,
2.8406250000e+001,3.8928646040e+000,4.1017857902e+000,3.2795971111e+000,4.1550567522e+000,3.8368808618e+000,4.0700906869e+000,3.5315554015e+000,3.0987437975e+000,4.8683027501e+000,3.9685138322e+000,3.5800525871e+000,4.1111326958e+000,2.5099379006e+000,4.0900963454e+000,
2.8500000000e+001,3.8447305877e+000,4.0272369172e+000,3.1873275661e+000,4.0394776757e+000,3.7435845754e+000,4.0392480954e+000,3.4545280839e+000,3.0835988334e+000,4.7273626497e+000,3.9279761968e+000,3.5669672474e+000,4.1032564138e+000,2.4914846109e+000,4.0505103316e+000,
2.8593750000e+001,4.0530680770e+000,4.1983399570e+000,3.3557550894e+000,4.0514732503e+000,4.1217141258e+000,4.3768248963e+000,3.7283691061e+000,3.2420030338e+000,4.7661563245e+000,4.2067422595e+000,3.6236971511e+000,4.2770716371e+000,2.5595528594e+000,4.0857210279e+000,
2.8687500000e+001,3.9829609826e+000,4.1702103971e+000,3.3355318413e+000,4.0358330979e+000,4.1357986907e+000,4.4587303573e+000,3.6954909587e+000,3.3102579629e+000,4.6666297339e+000,4.3219194249e+000,3.6781863787e+000,4.3406058474e+000,2.6987205069e+000,4.0300781525e+000,
2.8781250000e+001,4.1102281172e+000,4.2539026657e+000,3.4621406502e+000,4.1643564862e+000,4.2300992452e+000,4.5502572681e+000,3.8216123212e+000,3.3913508056e+000,4.7183445933e+000,4.3805830801e+000,3.7816807376e+000,4.3676664747e+000,2.7060908432e+000,3.9619341299e+000,
2.8875000000e+001,4.0946981156e+000,4.2470325654e+000,3.4781667446e+000,4.1231826408e+000,4.2630144665e+000,4.5727083199e+000,3.8315226211e+000,3.4173559744e+000,4.7589980683e+000,4.3789714221e+000,3.7925479423e+000,4.3297426488e+000,2.7479654275e+000,3.8752639958e+000,
2.8968750000e+001,4.1077971969e+000,4.2599607667e+000,3.5153648757e+000,4.1520700046e+000,4.3332683352e+000,4.6392536478e+000,3.8737297726e+000,3.4397603760e+000,4.8402127581e+000,4.4169345687e+000,3.8714916297e+000,4.3169063893e+000,2.7557573838e+000,3.8795716913e+000,
2.9062500000e+001,4.0324538610e+000,4.1533523525e+000,3.4546937016e+000,4.0881614649e+000,4.3288671516e+000,4.6222476295e+000,3.8513243684e+000,3.4234096369e+000,4.8721266213e+000,4.3949796377e+000,3.8475466340e+000,4.3228181217e+000,2.8156017564e+000,3.9126021647e+000,
2.9156250000e+001,4.0272425229e+000,4.1851806253e+000,3.4961751680e+000,4.0397039082e+000,4.3581120521e+000,4.6383766479e+000,3.8954843096e+000,3.4497151169e+000,4.8730025835e+000,4.3964873111e+000,3.8314593047e+000,4.2991646474e+000,2.8291619153e+000,3.9106693754e+000,
2.9250000000e+001,4.0174060933e+000,4.1376511362e+000,3.4118300876e+000,3.9854700135e+000,4.3401989896e+000,4.5811839911e+000,3.8717769590e+000,3.4117554711e+000,5.0217659837e+000,4.3435735619e+000,3.7882769184e+000,4.2621840683e+000,2.8962431120e+000,3.9242545250e+000,
2.9343750000e+001,3.9144524426e+000,4.1522593677e+000,3.4061018360e+000,3.9435978516e+000,4.3018055054e+000,4.5326883033e+000,3.9119364013e+000,3.4111920490e+000,5.0770454644e+000,4.2843979420e+000,3.8668450409e+000,4.1939393141e+000,2.9076092210e+000,3.7877450102e+000,
2.9437500000e+001,3.8745577015e+000,4.0952449332e+000,3.3911618321e+000,3.9572469915e+000,4.2254156742e+000,4.4556174844e+000,3.8851946251e+000,3.3916097254e+000,5.0007522255e+000,4.1978759131e+000,3.7985255377e+000,4.0995290006e+000,2.7787340384e+000,3.6608322855e+000,
2.9531250000e+001,3.7775430913e+000,4.1074483943e+000,3.3301826374e+000,4.0009227867e+000,4.1539369998e+000,4.4151273853e+000,3.8003378402e+000,3.4771616419e+000,4.9846359273e+000,4.1053552434e+000,3.7789259054e+000,4.0730615776e+000,2.7329816417e+000,3.6967289823e+000,
2.9625000000e+001,3.5063871996e+000,3.8553492876e+000,3.1370929815e+000,3.8866094723e+000,3.8939266382e+000,4.0516509091e+000,3.6475354822e+000,3.3004810823e+000,4.9877292024e+000,3.7382387262e+000,3.6608387320e+000,3.7983177174e+000,2.6594687059e+000,3.6328335759e+000,
2.9718750000e+001,3.3825528384e+000,3.8941555788e+000,3.0842644091e+000,3.9467803080e+000,3.7600712666e+000,4.0829392378e+000,3.5503099156e+000,3.3237515020e+000,4.9957128201e+000,3.6023053207e+000,3.4921078812e+000,3.7893483992e+000,2.5386541977e+000,3.6524306200e+000,
2.9812500000e+001,3.3206552890e+000,3.8362486809e+000,3.0320270044e+000,3.9091241478e+000,3.6717057457e+000,4.0288470703e+000,3.5113606709e+000,3.3292178143e+000,4.8856775003e+000,3.5509925135e+000,3.4909995734e+000,3.7352484179e+000,2.4882996710e+000,3.6433534644e+000,
2.9906250000e+001,3.2835418023e+000,3.8065052589e+000,3.0210797997e+000,3.8600067314e+000,3.5755987171e+000,4.0022742808e+000,3.4664026617e+000,3.2571705115e+000,4.8474273190e+000,3.5743181829e+000,3.4791064592e+000,3.7601795413e+000,2.4119142935e+000,3.6010640048e+000,
3.0000000000e+001,3.2926861194e+000,3.8399587287e+000,3.0216383422e+000,3.8862373120e+000,3.4429148262e+000,4.0119788408e+000,3.4941188453e+000,3.3800382958e+000,4.7894103748e+000,3.5735071673e+000,3.3651965226e+000,3.6847492998e+000,2.4507467431e+000,3.6178999150e+000,
3.0093750000e+001,3.4244636497e+000,3.8940619088e+000,3.2185185883e+000,3.9486072385e+000,3.4460429643e+000,4.0322211243e+000,3.5057233824e+000,3.3875708818e+000,4.6773973386e+000,3.5874882194e+000,3.3911562103e+000,3.7106161874e+000,2.3587784845e+000,3.7006759394e+000,
3.0187500000e+001,3.4232467539e+000,3.8677429469e+000,3.2696553313e+000,3.9520192883e+000,3.4571993551e+000,4.0246373433e+000,3.5784989243e+000,3.3809008335e+000,4.5819715083e+000,3.5441941535e+000,3.3897187725e+000,3.6988512624e+000,2.3158942936e+000,3.6318795221e+000,
3.0281250000e+001,3.5276677310e+000,3.8275680593e+000,3.3419087749e+000,3.8820552919e+000,3.3776555832e+000,3.9547859857e+000,3.5135718449e+000,3.2489421475e+000,4.5144832917e+000,3.3289582160e+000,3.3009519886e+000,3.4951594949e+000,2.4001285786e+000,3.3798620274e+000,
3.0375000000e+001,3.6393347877e+000,3.9453698253e+000,3.5034061815e+000,4.0112401105e+000,3.5225535904e+000,3.9648677383e+000,3.4962609384e+000,3.2060647249e+000,4.5204996063e+000,3.3410171820e+000,3.2869482033e+000,3.4992652010e+000,2.4616733027e+000,3.4702755905e+000,
3.0468750000e+001,3.7511542278e+000,3.9716150591e+000,3.5171805113e+000,3.8850055363e+000,3.6328700747e+000,3.9240273184e+000,3.5404283572e+000,3.1339082323e+000,4.5854678438e+000,3.3143527304e+000,3.3505032854e+000,3.4324186318e+000,2.5799242820e+000,3.5437860817e+000,
3.0562500000e+001,3.7287203943e+000,3.9418513783e+000,3.4689107761e+000,3.8270150365e+000,3.6281859418e+000,3.9162950511e+000,3.5027451649e+000,2.9804969230e+000,4.5183297755e+000,3.2470493007e+000,3.3432861877e+000,3.3597259156e+000,2.6442524572e+000,3.5568557241e+000,
3.0656250000e+001,3.8332808365e+000,3.9619001885e+000,3.5982984518e+000,3.7885989526e+000,3.7380975022e+000,3.9346627759e+000,3.6108723674e+000,3.0021851517e+000,4.5578719764e+000,3.3418187532e+000,3.3471626568e+000,3.5305208398e+000,2.6531414201e+000,3.5618146160e+000,
3.0750000000e+001,3.9309255724e+000,4.0222039679e+000,3.6704397674e+000,3.7643647537e+000,3.7572103899e+000,4.0958023203e+000,3.6692834826e+000,3.1077837698e+000,4.6537874840e+000,3.5117644602e+000,3.4206349351e+000,3.5166542713e+000,2.9335786694e+000,3.7207917654e+000,
3.0843750000e+001,4.0044117066e+000,4.1164535203e+000,3.6844340696e+000,3.8687829720e+000,3.7602165898e+000,4.2507785736e+000,3.6666565657e+000,3.1890147806e+000,4.7416096621e+000,3.6360827221e+000,3.3719884413e+000,3.5912366016e+000,2.9956818692e+000,3.7298228692e+000,
3.0937500000e+001,4.0840330276e+000,4.2039980642e+000,3.7102174241e+000,3.9204624513e+000,3.7906685217e+000,4.2059182831e+000,3.6689143675e+000,3.2351542192e+000,4.7175680007e+000,3.4671758433e+000,3.4732346494e+000,3.5847723011e+000,3.0242539620e+000,3.7450592754e+000,
3.1031250000e+001,4.0030353252e+000,4.1871539482e+000,3.6275660664e+000,3.8567001585e+000,3.8008740755e+000,4.1806057896e+000,3.6266210213e+000,3.1843078623e+000,4.7394521771e+000,3.3956878747e+000,3.5143562398e+000,3.6295274914e+000,3.1359829735e+000,3.7118788532e+000,
3.1125000000e+001,4.0405090439e+000,4.1872965378e+000,3.5839607542e+000,3.8809829032e+000,3.8964865537e+000,4.2694851247e+000,3.6546492678e+000,3.2411018458e+000,4.7155068438e+000,3.4956005016e+000,3.4853982190e+000,3.6697801265e+000,3.1279330235e+000,3.6896899136e+000,
3.1218750000e+001,4.0725881248e+000,4.2908977510e+000,3.6592270508e+000,3.9737381396e+000,4.0224671982e+000,4.3973978055e+000,3.7592602269e+000,3.3099589790e+000,4.7867668214e+000,3.6314054898e+000,3.5512178077e+000,3.8820259445e+000,3.1789687229e+000,3.8607420363e+000,
3.1312500000e+001,4.1609176996e+000,4.3321354797e+000,3.6449495136e+000,3.9327995996e+000,4.0656747839e+000,4.4450888229e+000,3.8223811857e+000,3.3448732518e+000,4.8275472727e+000,3.7104555320e+000,3.6617038183e+000,3.9236431971e+000,3.2031829479e+000,3.8647871661e+000,
3.1406250000e+001,4.0937694241e+000,4.2829597913e+000,3.5714144887e+000,3.8725723530e+000,4.0384465627e+000,4.4372489964e+000,3.8342511619e+000,3.3342570141e+000,4.8695377945e+000,3.7371590345e+000,3.6530131977e+000,3.9197991271e+000,3.1989523429e+000,3.8188877657e+000,
3.1500000000e+001,4.0557291272e+000,4.2869939375e+000,3.5785709277e+000,3.9209617347e+000,4.0454959286e+000,4.4032057357e+000,3.8616063959e+000,3.3058783361e+000,4.8542530402e+000,3.8266026937e+000,3.6860445434e+000,3.9296710989e+000,3.2191721940e+000,3.7686469938e+000,
3.1593750000e+001,4.0453049466e+000,4.2580275178e+000,3.5114379628e+000,3.9147098879e+000,4.0247647729e+000,4.3888285661e+000,3.8117724127e+000,3.2704460020e+000,4.8699079953e+000,3.8135218919e+000,3.6853899620e+000,3.9068941920e+000,3.1958408752e+000,3.7539690104e+000,
3.1687500000e+001,4.0010876450e+000,4.2038063630e+000,3.4694968296e+000,3.9211211078e+000,3.9802573892e+000,4.3354230876e+000,3.7702335783e+000,3.2190212179e+000,4.7838488971e+000,3.7716308552e+000,3.7180845443e+000,3.8005865158e+000,3.1141010520e+000,3.6951390230e+000,
3.1781250000e+001,3.9390449302e+000,4.0561909286e+000,3.3808831714e+000,3.8091763671e+000,3.9683494343e+000,4.0848654804e+000,3.7207115934e+000,2.9406495977e+000,4.8316475532e+000,3.5574244481e+000,3.6683236302e+000,3.7861646241e+000,2.9280510018e+000,3.4969404279e+000,
3.1875000000e+001,3.9345005653e+000,4.0055199622e+000,3.4115406016e+000,3.7460558342e+000,3.9788754922e+000,3.9917205064e+000,3.6823089215e+000,2.8196521981e+000,4.8160636095e+000,3.4818662544e+000,3.5789652810e+000,3.8835938181e+000,2.8588518555e+000,3.5285589947e+000,
3.1968750000e+001,3.8691482796e+000,3.8503170915e+000,3.4355980672e+000,3.7349994180e+000,4.0142341203e+000,3.9015263200e+000,3.7060970368e+000,2.7638042018e+000,4.8187466722e+000,3.4106321787e+000,3.5597044224e+000,3.9177912013e+000,2.7878384660e+000,3.5802791442e+000,
3.2062500000e+001,3.8994747790e+000,3.8704303259e+000,3.4930803915e+000,3.8099895159e+000,3.8562097479e+000,3.8678364850e+000,3.6605772524e+000,2.8422720410e+000,4.9038208618e+000,3.4655746516e+000,3.5592170506e+000,3.9123118245e+000,2.6024203891e+000,3.5869878354e+000,
3.2156250000e+001,3.8243825856e+000,3.7718163426e+000,3.3685441458e+000,3.7014295609e+000,3.7089730025e+000,3.5956369172e+000,3.4991265612e+000,2.6154406414e+000,4.9096445125e+000,3.2771424608e+000,3.5114948002e+000,3.7959680663e+000,2.5754549712e+000,3.5476776790e+000,
3.2250000000e+001,3.6074106839e+000,3.5872081527e+000,3.1945929574e+000,3.6814870583e+000,3.5548107295e+000,3.3588203731e+000,3.3788039254e+000,2.5593907284e+000,4.8286273290e+000,3.1568992980e+000,3.3864288833e+000,3.6529891936e+000,2.5595413813e+000,3.4576984013e+000,
3.2343750000e+001,3.6420345803e+000,3.6849146402e+000,3.3197033293e+000,3.7489847535e+000,3.6564519817e+000,3.3827280062e+000,3.4327899644e+000,2.6675729907e+000,4.9696763650e+000,3.1811810434e+000,3.3549339531e+000,3.7130275102e+000,2.6103146069e+000,3.5206699237e+000,
3.2437500000e+001,3.6258980898e+000,3.7146242586e+000,3.3290676465e+000,3.7951446667e+000,3.6153867854e+000,3.5403248562e+000,3.4350379153e+000,2.7295581384e+000,4.9944403641e+000,3.2384447543e+000,3.3383304221e+000,3.8508324727e+000,2.6494730708e+000,3.6873586930e+000,
3.2531250000e+001,3.6143951688e+000,3.7037233452e+000,3.3515657868e+000,3.8212637234e+000,3.5467716502e+000,3.5814685138e+000,3.4573794229e+000,2.8480182731e+000,5.0265397932e+000,3.3204351051e+000,3.4368447733e+000,3.8865614863e+000,2.6642938699e+000,3.7960759061e+000,
3.2625000000e+001,3.6441730498e+000,3.8094558399e+000,3.4127612062e+000,3.9112234959e+000,3.6433144728e+000,3.6920234906e+000,3.5940134311e+000,2.9377566216e+000,5.0017569434e+000,3.5439557436e+000,3.3617511191e+000,3.9688141355e+000,2.7149437972e+000,3.9152338870e+000,
3.2718750000e+001,3.6170859849e+000,3.8163878584e+000,3.4026073304e+000,3.8960936350e+000,3.6175810407e+000,3.6985120075e+000,3.5444324467e+000,2.9454089718e+000,5.0459052222e+000,3.5562088179e+000,3.3625632015e+000,4.0165643579e+000,2.7347693061e+000,3.9209157454e+000,
3.2812500000e+001,3.6448957956e+000,3.9057211006e+000,3.4362367028e+000,3.9876940966e+000,3.6214506647e+000,3.7927519950e+000,3.5487135912e+000,3.0190532542e+000,4.9828400994e+000,3.7038059417e+000,3.4088084767e+000,4.0269864282e+000,2.7935431075e+000,3.9745359736e+000,
3.2906250000e+001,3.6521317012e+000,4.0573196269e+000,3.4486360097e+000,4.0955501392e+000,3.6835395672e+000,3.8817606941e+000,3.5925686836e+000,3.1338304476e+000,5.0266292955e+000,3.7260363417e+000,3.4100326664e+000,4.0593015695e+000,2.8557444943e+000,3.9380194722e+000,
3.3000000000e+001,3.5799872807e+000,4.0759981896e+000,3.3555205567e+000,4.0775772860e+000,3.6435914077e+000,3.8393471818e+000,3.4914713298e+000,2.9999902219e+000,4.9768398258e+000,3.7770599639e+000,3.3564197076e+000,3.9808891330e+000,2.8637952075e+000,3.9011150247e+000,
3.3093750000e+001,3.6149762408e+000,4.0716585146e+000,3.4149101571e+000,4.0750299041e+000,3.7189033309e+000,3.8683519174e+000,3.4942346522e+000,3.0180282891e+000,4.9623497373e+000,3.7252553162e+000,3.3821792430e+000,3.9580278262e+000,2.8194021650e+000,3.8285366921e+000,
3.3187500000e+001,3.5897489168e+000,4.0369048770e+000,3.3794676964e+000,4.0872981017e+000,3.7038501839e+000,3.8939557644e+000,3.4331867092e+000,3.0348524964e+000,4.9677336345e+000,3.7173715438e+000,3.4007393301e+000,3.9880545250e+000,2.9637452298e+000,3.8636274388e+000,
3.3281250000e+001,3.5839388872e+000,4.0442844764e+000,3.4488948807e+000,4.0824203263e+000,3.7832883848e+000,3.9786626898e+000,3.5857021173e+000,3.0643876963e+000,5.0109372228e+000,3.7449040674e+000,3.4278069462e+000,4.0385978542e+000,2.8278604415e+000,3.8882033079e+000,
3.3375000000e+001,3.4866718741e+000,3.9623299737e+000,3.3699906081e+000,4.0608037570e+000,3.6704701051e+000,4.0143717026e+000,3.4880028371e+000,3.0318236392e+000,4.9338139936e+000,3.7343035851e+000,3.3406851324e+000,4.0386799351e+000,2.8032432543e+000,3.8822900939e+000,
3.3468750000e+001,3.4710331310e+000,3.9250150294e+000,3.3518453539e+000,4.0479509751e+000,3.7106836153e+000,3.9782096746e+000,3.4867344211e+000,3.0462500675e+000,4.8777233038e+000,3.7042663586e+000,3.2969815414e+000,3.8976193098e+000,2.7805052323e+000,3.7209005381e+000,
3.3562500000e+001,3.5321600085e+000,3.9357439836e+000,3.3881074924e+000,4.0560610615e+000,3.7584636345e+000,3.9154831359e+000,3.4760045272e+000,3.0316130313e+000,4.8112702214e+000,3.5750876044e+000,3.2800145729e+000,3.8475306726e+000,2.6884587408e+000,3.6751055319e+000,
3.3656250000e+001,3.5753731584e+000,3.9452539571e+000,3.3930884118e+000,4.0537836176e+000,3.7694426792e+000,3.9811312142e+000,3.4559021586e+000,3.0541958067e+000,4.7809797535e+000,3.5156270033e+000,3.3742496677e+000,3.8573923572e+000,2.7425218609e+000,3.5813556355e+000,
3.3750000000e+001,3.6953811172e+000,4.1467272338e+000,3.4817693524e+000,4.2288616010e+000,3.7524033652e+000,4.0759467646e+000,3.4845812237e+000,3.2146034425e+000,4.8481361011e+000,3.5639241862e+000,3.4827196153e+000,3.8323053103e+000,2.8426127122e+000,3.7228192502e+000,
3.3843750000e+001,3.8695614969e+000,4.0208096110e+000,3.4653510715e+000,4.1696094928e+000,3.7739570420e+000,3.9850037162e+000,3.5064058854e+000,3.2220477871e+000,4.8331860064e+000,3.4323456564e+000,3.4119636992e+000,3.7140312443e+000,2.7692974175e+000,3.7129497381e+000,
3.3937500000e+001,4.0682219120e+000,4.1154026341e+000,3.6217500010e+000,4.2457930755e+000,3.8101233312e+000,3.9992621572e+000,3.5823682798e+000,3.3336319746e+000,4.7385630837e+000,3.4179527840e+000,3.4315330002e+000,3.6526031707e+000,2.7934088663e+000,3.7235089852e+000,
3.4031250000e+001,4.1231277199e+000,4.1535262815e+000,3.5841389418e+000,4.2884280404e+000,3.8612082824e+000,4.0263171308e+000,3.6186947563e+000,3.3492986050e+000,4.8107369278e+000,3.5019374977e+000,3.3800968351e+000,3.6344858332e+000,2.8608120796e+000,3.6983063345e+000,
3.4125000000e+001,4.1159877006e+000,4.1412201250e+000,3.5521986623e+000,4.3060536795e+000,3.8049755615e+000,4.0233973379e+000,3.6476159177e+000,3.3531885702e+000,4.8698182236e+000,3.4621510734e+000,3.4204583362e+000,3.6733807234e+000,2.9374634866e+000,3.7942201616e+000,
3.4218750000e+001,4.1616148195e+000,4.2070171693e+000,3.5885620825e+000,4.3074234048e+000,3.8431974982e+000,4.0736177159e+000,3.6663274027e+000,3.3914368653e+000,5.0089073162e+000,3.6251196283e+000,3.5605469323e+000,3.8505851796e+000,2.9351711568e+000,3.7645442935e+000,
3.4312500000e+001,4.2052710918e+000,4.1995962482e+000,3.4731398630e+000,4.3015397893e+000,3.7891710518e+000,3.9209870553e+000,3.5885273749e+000,3.3386490459e+000,4.9641073942e+000,3.5632576931e+000,3.5634198785e+000,3.8120113788e+000,2.9193124954e+000,3.7252899993e+000,
3.4406250000e+001,4.2804993970e+000,4.1956007450e+000,3.5391147375e+000,4.3326800557e+000,3.8055468507e+000,3.9213698072e+000,3.6054515941e+000,3.3409933994e+000,4.9539551266e+000,3.6688542007e+000,3.5228299135e+000,3.8644852588e+000,2.8370269196e+000,3.7900838999e+000,
3.4500000000e+001,4.3907507680e+000,4.3072584827e+000,3.6506355751e+000,4.3873166632e+000,3.8447414545e+000,3.9406959069e+000,3.6612238110e+000,3.3794089116e+000,5.0078463838e+000,3.6300213240e+000,3.4888734020e+000,3.8816224232e+000,2.8290627352e+000,3.7571035043e+000,
3.4593750000e+001,4.4578693261e+000,4.3784191869e+000,3.6239389937e+000,4.4624396976e+000,3.7378719612e+000,4.0163500025e+000,3.5636787662e+000,3.4146371943e+000,5.0409170148e+000,3.6894724560e+000,3.4660359013e+000,3.9478118451e+000,2.7604293624e+000,3.7866043279e+000,
3.4687500000e+001,4.5314410309e+000,4.3532573304e+000,3.6792440573e+000,4.4300611870e+000,3.8161405498e+000,3.9270011717e+000,3.5881750298e+000,3.4167817218e+000,5.0052470336e+000,3.6907985746e+000,3.3760966315e+000,3.8626125627e+000,2.6411675738e+000,3.5723557396e+000,
3.4781250000e+001,4.3890753366e+000,4.2513609068e+000,3.5245655196e+000,4.3025838032e+000,3.7738721373e+000,3.9246997525e+000,3.5268963545e+000,3.5208045860e+000,5.0187357958e+000,3.7427858778e+000,3.4692765355e+000,4.0797334002e+000,2.7018593674e+000,3.7574299600e+000,
3.4875000000e+001,4.3291471324e+000,4.2282509475e+000,3.6017431449e+000,4.2691382903e+000,3.8537226804e+000,4.0199165763e+000,3.5593701298e+000,3.4711889614e+000,5.0599838967e+000,3.9295772458e+000,3.6219846287e+000,4.1831300716e+000,2.8634101180e+000,3.9703506724e+000,
3.4968750000e+001,4.3161277164e+000,4.2851104933e+000,3.6518752876e+000,4.3903852868e+000,3.8478982522e+000,4.1541254324e+000,3.5662528192e+000,3.5091742095e+000,5.0856320577e+000,4.0300735212e+000,3.7054654570e+000,4.3338373168e+000,2.9051888018e+000,4.1721775583e+000,
3.5062500000e+001,4.3237352265e+000,4.3878087944e+000,3.8098456290e+000,4.5852534852e+000,3.8791973196e+000,4.2382223995e+000,3.7208448319e+000,3.6442609461e+000,5.1453162744e+000,4.0664125980e+000,3.7315966586e+000,4.3768361601e+000,3.0141749531e+000,4.3025355337e+000,
3.5156250000e+001,4.4018839631e+000,4.5382323484e+000,4.0154558317e+000,4.7348828850e+000,3.9614923423e+000,4.3037522075e+000,3.7846136046e+000,3.7554511516e+000,5.0666008050e+000,4.1723864802e+000,3.7396229314e+000,4.3830135212e+000,3.1389013101e+000,4.3924829231e+000,
3.5250000000e+001,4.4944848401e+000,4.6031342508e+000,4.1027091446e+000,4.7881494947e+000,3.9761292848e+000,4.2976289365e+000,3.8089545267e+000,3.7875551729e+000,4.9098001462e+000,4.1097554418e+000,3.6891826636e+000,4.3218176533e+000,3.2109280380e+000,4.4132032309e+000,
3.5343750000e+001,4.4857858324e+000,4.6043790351e+000,4.0918452428e+000,4.7287554890e+000,3.9648692719e+000,4.3185023514e+000,3.7827979572e+000,3.8041590792e+000,4.8549436347e+000,4.0822880917e+000,3.6755699079e+000,4.2957846163e+000,3.2148498263e+000,4.4220045477e+000,
3.5437500000e+001,4.4325541851e+000,4.5523997927e+000,4.0431576509e+000,4.7175143765e+000,4.0111298046e+000,4.3181158404e+000,3.8415634628e+000,3.8146706979e+000,4.8075595267e+000,4.0854297169e+000,3.8541603720e+000,4.3764170118e+000,3.2486862999e+000,4.4944990921e+000,
3.5531250000e+001,4.3926975853e+000,4.5062939927e+000,4.0594920926e+000,4.6600456618e+000,4.0681135520e+000,4.2933996453e+000,3.8879988167e+000,3.7283949185e+000,4.8291481177e+000,4.0903637550e+000,3.8808444442e+000,4.3963792658e+000,3.3025931049e+000,4.5141684263e+000,
3.5625000000e+001,4.2742199253e+000,4.4133586401e+000,4.0280499397e+000,4.6059948058e+000,4.0078279383e+000,4.1997316409e+000,3.8097499378e+000,3.6710893335e+000,4.7780251231e+000,4.0398267869e+000,3.9791825715e+000,4.3327864353e+000,3.3871997396e+000,4.5267738063e+000,
3.5718750000e+001,4.3135536080e+000,4.5100651516e+000,4.0823980680e+000,4.6468122221e+000,4.0692075491e+000,4.2639767731e+000,3.8498597651e+000,3.6624853753e+000,4.7484232112e+000,4.0173925302e+000,3.9839034692e+000,4.2605908779e+000,3.4058015486e+000,4.4963847672e+000,
3.5812500000e+001,4.4973679276e+000,4.6381337795e+000,4.1657217966e+000,4.7622660741e+000,4.1480540027e+000,4.3242325520e+000,3.9290565146e+000,3.6478143087e+000,4.7504138855e+000,3.9747236436e+000,3.9006288434e+000,4.1952632372e+000,3.4405110197e+000,4.4468094938e+000,
3.5906250000e+001,4.6008759697e+000,4.6817951119e+000,4.1868984774e+000,4.7501717014e+000,4.2098569736e+000,4.3652265836e+000,3.9629641806e+000,3.5985421996e+000,4.7821312324e+000,3.8349657177e+000,3.8031256827e+000,4.0063784466e+000,3.3939870272e+000,4.2985520860e+000,
3.6000000000e+001,4.5910648921e+000,4.6266285221e+000,4.0754750838e+000,4.6369613911e+000,4.1993919037e+000,4.2955775321e+000,3.9005116700e+000,3.4868662812e+000,4.7597581148e+000,3.7671981940e+000,3.9624380604e+000,3.9013563737e+000,3.4364119024e+000,4.2080278286e+000,
3.6093750000e+001,4.6394768827e+000,4.5132357206e+000,4.0004012138e+000,4.4224919570e+000,4.1809968344e+000,4.1405825609e+000,3.7897870094e+000,3.3159772125e+000,4.6690599429e+000,3.5746138526e+000,4.0138382145e+000,3.7888023282e+000,3.3585901668e+000,4.0837553094e+000,
3.6187500000e+001,4.6273313280e+000,4.5067903226e+000,3.9201324298e+000,4.3884619447e+000,4.1528146344e+000,4.1450047088e+000,3.7185056692e+000,3.1820476150e+000,4.5910306595e+000,3.5509833631e+000,4.0024160497e+000,3.8432005761e+000,3.3069407311e+000,4.0088114136e+000,
3.6281250000e+001,4.6557641303e+000,4.5310774789e+000,3.9510958587e+000,4.4112365250e+000,4.1712396729e+000,4.1232366284e+000,3.7306462148e+000,3.1606593136e+000,4.5801305135e+000,3.5191136545e+000,3.9602866811e+000,3.7891563019e+000,3.1944833700e+000,3.9274203445e+000,
3.6375000000e+001,4.6785918847e+000,4.5845043828e+000,4.0185644056e+000,4.4953407078e+000,4.1648227036e+000,4.2234278012e+000,3.7486611467e+000,3.2196678494e+000,4.5855929976e+000,3.5401104133e+000,4.0067328667e+000,3.7556889654e+000,3.2232544824e+000,3.9331889693e+000,
3.6468750000e+001,4.6707326187e+000,4.5775729254e+000,4.0111437836e+000,4.4614446240e+000,4.0882130317e+000,4.1895435793e+000,3.5895286179e+000,3.2286260461e+000,4.5068232575e+000,3.3207634279e+000,3.9102318207e+000,3.5394591723e+000,3.1682559194e+000,3.7496356884e+000,
3.6562500000e+001,4.6188110973e+000,4.5416114385e+000,3.9533046617e+000,4.5000806183e+000,4.0053727148e+000,4.2152460201e+000,3.4939921421e+000,3.2785032299e+000,4.5377241075e+000,3.3969224479e+000,3.8657385237e+000,3.6033684525e+000,3.1343972678e+000,3.6614893241e+000,
3.6656250000e+001,4.5676924994e+000,4.4983397037e+000,3.9119559186e+000,4.4627500622e+000,3.9564819663e+000,4.2248178407e+000,3.4095836087e+000,3.2960851350e+000,4.5343643351e+000,3.3879147648e+000,3.8564323516e+000,3.6387020005e+000,3.1719618793e+000,3.6510469080e+000,
3.6750000000e+001,4.4319435695e+000,4.3891920145e+000,3.8203670404e+000,4.3324126784e+000,3.8242020493e+000,4.1214765792e+000,3.2121587808e+000,3.0935634186e+000,4.4799421075e+000,3.3850484820e+000,3.8413334824e+000,3.6735314510e+000,3.3222062950e+000,3.6833781117e+000,
3.6843750000e+001,4.2797862819e+000,4.2249097231e+000,3.7241602729e+000,4.1917949135e+000,3.6372184971e+000,3.9610443832e+000,3.0885523741e+000,3.0422084569e+000,4.3760848126e+000,3.3794369480e+000,3.9129603092e+000,3.6998716145e+000,3.3693480954e+000,3.6986045429e+000,
3.6937500000e+001,4.3196897011e+000,4.4130426696e+000,3.7925670334e+000,4.3649324535e+000,3.6060948464e+000,4.1790109246e+000,3.0081054822e+000,3.2225319351e+000,4.3382391325e+000,3.4929349920e+000,3.8548144785e+000,3.8372279624e+000,3.4957334934e+000,3.7232209383e+000,
3.7031250000e+001,4.2959024962e+000,4.5209752960e+000,3.8305099250e+000,4.4417620332e+000,3.5712285058e+000,4.2032711234e+000,3.0227612057e+000,3.3362764751e+000,4.2606136245e+000,3.3406718603e+000,3.7587966278e+000,3.8068415744e+000,3.6787284002e+000,3.5976240331e+000,
3.7125000000e+001,4.1019239520e+000,4.3888226501e+000,3.7507951711e+000,4.3795113554e+000,3.4496165072e+000,4.1720607269e+000,3.0316463177e+000,3.3214462079e+000,4.2390627634e+000,3.2936010762e+000,3.7236176425e+000,3.7205726089e+000,3.7304710381e+000,3.5153186280e+000,
3.7218750000e+001,4.0440210127e+000,4.3392488839e+000,3.7055111512e+000,4.3235676442e+000,3.4225933937e+000,4.1493386363e+000,3.0077906288e+000,3.2645346736e+000,4.2991090399e+000,3.3335317246e+000,3.6911180987e+000,3.6508588827e+000,3.7106915010e+000,3.4328102721e+000,
3.7312500000e+001,3.9952128483e+000,4.3486335766e+000,3.7258366698e+000,4.3586208143e+000,3.4107114141e+000,4.1927252715e+000,3.0412665430e+000,3.2519925457e+000,4.3530874669e+000,3.3751714022e+000,3.7073704810e+000,3.7327463012e+000,3.8058913268e+000,3.4913159203e+000,
3.7406250000e+001,3.9858110196e+000,4.3685299462e+000,3.7123730319e+000,4.3758203777e+000,3.5329760364e+000,4.1659486753e+000,3.1444912958e+000,3.2262404299e+000,4.4153388413e+000,3.4990529322e+000,3.7655507821e+000,3.8732600986e+000,3.8507658397e+000,3.5139166733e+000,
3.7500000000e+001,3.9822481280e+000,4.3860529078e+000,3.7490070360e+000,4.3534923153e+000,3.5495273535e+000,4.1470989439e+000,3.1700948191e+000,3.2305451451e+000,4.4173481151e+000,3.5719651132e+000,3.7167439859e+000,4.0150858594e+000,3.9062858095e+000,3.8007954986e+000,
3.7593750000e+001,4.0986294605e+000,4.5162533850e+000,3.8074946323e+000,4.4085049433e+000,3.7453600678e+000,4.2260692051e+000,3.5128033497e+000,3.3046759107e+000,4.4173846013e+000,3.5948396158e+000,3.7487058072e+000,3.9539282878e+000,3.8905618223e+000,3.8100828408e+000,
3.7687500000e+001,4.1259216846e+000,4.5583946391e+000,3.8491704573e+000,4.4717686378e+000,3.8199692522e+000,4.2207945841e+000,3.6123034635e+000,3.3821854409e+000,4.5144704291e+000,3.7215290422e+000,3.7093561441e+000,3.9726489077e+000,3.8379796457e+000,3.8100072445e+000,
3.7781250000e+001,4.1911193169e+000,4.6408929210e+000,3.9360615215e+000,4.5459738173e+000,3.9473356534e+000,4.3078566630e+000,3.8004112803e+000,3.5135109636e+000,4.6177060325e+000,3.8726815427e+000,3.6665739360e+000,4.0991583233e+000,3.6969201830e+000,4.0912222429e+000,
3.7875000000e+001,4.1835337462e+000,4.6630562637e+000,3.9257401281e+000,4.5909487666e+000,3.9871162958e+000,4.2876862762e+000,3.8739025882e+000,3.5060064745e+000,4.5790284973e+000,3.8445170721e+000,3.6144526704e+000,4.1030946257e+000,3.6724477764e+000,4.1206035993e+000,
3.7968750000e+001,3.9607699082e+000,4.4526219913e+000,3.7448183654e+000,4.4266379594e+000,3.9171444456e+000,4.0075105733e+000,3.8413338534e+000,3.3071996002e+000,4.5331617571e+000,3.7536220592e+000,3.4617704536e+000,3.9677019145e+000,3.3405154984e+000,4.0747850732e+000,
3.8062500000e+001,3.8887268315e+000,4.3401756456e+000,3.7121220764e+000,4.3683124437e+000,3.9323508122e+000,3.9510592890e+000,3.8499830179e+000,3.2838486538e+000,4.6269164178e+000,3.8299825117e+000,3.4475383175e+000,4.0291785120e+000,3.1711691598e+000,4.1891916158e+000,
3.8156250000e+001,3.9506968998e+000,4.3760000339e+000,3.6732054919e+000,4.3583570382e+000,3.8880078598e+000,3.9254801122e+000,3.7971318995e+000,3.3088735826e+000,4.6392915175e+000,3.8239954920e+000,3.5038042642e+000,4.0490832541e+000,3.0605903661e+000,4.2334717264e+000,
3.8250000000e+001,4.0335338994e+000,4.4223203769e+000,3.7151679210e+000,4.3536752605e+000,3.9772750775e+000,3.9963715876e+000,3.8207437580e+000,3.3362972613e+000,4.6000792884e+000,3.9254124183e+000,3.4291009560e+000,4.0950519141e+000,2.9830702170e+000,4.3085099132e+000,
3.8343750000e+001,3.9178656196e+000,4.3473502144e+000,3.6281991385e+000,4.2542740318e+000,3.9616536074e+000,3.8642642580e+000,3.7567977716e+000,3.2499026565e+000,4.5963503370e+000,3.8955650084e+000,3.4495261294e+000,4.1288019061e+000,2.7000958887e+000,4.3226601110e+000,
3.8437500000e+001,3.9369731071e+000,4.3162103712e+000,3.6180929331e+000,4.2550011086e+000,3.9542466912e+000,3.9387546551e+000,3.7773242944e+000,3.2583734546e+000,4.5631392303e+000,3.9064746038e+000,3.2606800042e+000,4.0787904180e+000,2.4044049066e+000,4.3031695145e+000,
3.8531250000e+001,3.8078655527e+000,4.2804467606e+000,3.5041394804e+000,4.2421154308e+000,3.9141051116e+000,3.9039155378e+000,3.7064330476e+000,3.1649996771e+000,4.6571877826e+000,3.9043884428e+000,3.1945415333e+000,4.0548244000e+000,2.3172029218e+000,4.2414099882e+000,
3.8625000000e+001,3.7730830933e+000,4.2190686419e+000,3.4433594273e+000,4.2351241275e+000,3.8239309147e+000,3.8709584140e+000,3.6983171528e+000,3.1084079435e+000,4.5995600448e+000,3.8720751625e+000,3.2443718869e+000,4.0864299696e+000,2.3715146622e+000,4.2744782466e+000,
3.8718750000e+001,3.8612325918e+000,4.1422623430e+000,3.4033101978e+000,4.1260515318e+000,3.7416529071e+000,3.9268791842e+000,3.5919604636e+000,2.9602314773e+000,4.5629035642e+000,3.6843603452e+000,3.5294901457e+000,4.0704533410e+000,2.6260315812e+000,4.1898822623e+000,
3.8812500000e+001,4.0102802403e+000,4.1357654430e+000,3.3918742448e+000,4.1382207855e+000,3.7566587142e+000,3.9350117872e+000,3.4991191011e+000,2.9477221360e+000,4.6980382158e+000,3.7196178166e+000,3.6461659486e+000,4.0677521240e+000,2.7607961768e+000,4.1048941486e+000,
3.8906250000e+001,4.0959580462e+000,4.1208217123e+000,3.3866186755e+000,4.0659868361e+000,3.7958635983e+000,3.9437470305e+000,3.4676237105e+000,2.9732043896e+000,4.8283998536e+000,3.7295945551e+000,3.7155762097e+000,4.0743473255e+000,2.7547686607e+000,4.0585429033e+000,
3.9000000000e+001,4.2175939601e+000,4.1521511497e+000,3.4458625894e+000,3.9691481790e+000,3.8488093192e+000,3.9789467042e+000,3.5049317461e+000,2.9829440851e+000,4.8864444591e+000,3.7826437251e+000,3.8370413899e+000,4.1330507468e+000,2.8389685524e+000,4.1843112578e+000,
3.9093750000e+001,4.3132268789e+000,4.2258177025e+000,3.4570992423e+000,3.9812168961e+000,3.9998234821e+000,4.0401672066e+000,3.6415790839e+000,3.0199074495e+000,4.8460098057e+000,3.8134271663e+000,3.8828280737e+000,4.1568747263e+000,2.9732444995e+000,4.1585808453e+000,
3.9187500000e+001,4.2981721545e+000,4.1570966594e+000,3.4753718360e+000,4.0247563662e+000,3.9763162389e+000,4.0061461077e+000,3.6474432358e+000,3.0578732531e+000,4.8104378782e+000,3.7170181906e+000,3.8283036446e+000,4.1516154240e+000,3.0667703541e+000,4.1929707478e+000,
3.9281250000e+001,4.3708999872e+000,4.3253375131e+000,3.5338374414e+000,4.2277369594e+000,4.0306189444e+000,4.1742954658e+000,3.6763858265e+000,3.2618467169e+000,4.8041376598e+000,3.8266512957e+000,3.8396055788e+000,4.2779713403e+000,3.2137865725e+000,4.2686919056e+000,
3.9375000000e+001,4.4150599254e+000,4.3838812124e+000,3.5421679186e+000,4.2637169392e+000,4.0178723112e+000,4.1967904879e+000,3.7399346471e+000,3.2925087983e+000,4.7450971354e+000,3.8400023855e+000,3.8439490895e+000,4.2744407752e+000,3.2952421565e+000,4.3032988217e+000,
3.9468750000e+001,4.4178190022e+000,4.4157530478e+000,3.6285559380e+000,4.2800999490e+000,4.0084498532e+000,4.2725389986e+000,3.6882865347e+000,3.3901475955e+000,4.7325824465e+000,3.8688276175e+000,3.8708019824e+000,4.2275954042e+000,3.3481707873e+000,4.2533691750e+000,
3.9562500000e+001,4.4390388229e+000,4.4275347384e+000,3.6838683126e+000,4.2883887811e+000,4.0607098479e+000,4.3143601922e+000,3.7148742899e+000,3.4638174830e+000,4.6973995454e+000,3.9204710000e+000,3.8614414294e+000,4.2650701734e+000,3.3863833201e+000,4.2715920872e+000,
3.9656250000e+001,4.4675566267e+000,4.3610019388e+000,3.6818694995e+000,4.2202103882e+000,4.0773581523e+000,4.2231107168e+000,3.7164222538e+000,3.3961958852e+000,4.8967202835e+000,3.8866458461e+000,3.8482497647e+000,4.2007424902e+000,3.5134221926e+000,4.2737744883e+000,
3.9750000000e+001,4.4115044286e+000,4.3487436545e+000,3.6752641860e+000,4.2138158711e+000,4.0322128641e+000,4.1416716713e+000,3.7070466277e+000,3.4610859289e+000,4.8530569802e+000,3.9220703214e+000,3.6966485738e+000,4.2389811992e+000,3.4135924336e+000,4.2532337060e+000,
3.9843750000e+001,4.1983417232e+000,4.2438350905e+000,3.5459612071e+000,4.1504593775e+000,3.9114475272e+000,4.0720942712e+000,3.6152069281e+000,3.3946065419e+000,4.7259801713e+000,3.8391195540e+000,3.5483792540e+000,4.1937867788e+000,3.3465491642e+000,4.2628915947e+000,
3.9937500000e+001,4.1006512773e+000,4.2262248266e+000,3.5017426561e+000,4.1672807820e+000,3.8286645590e+000,4.0889628925e+000,3.5447835550e+000,3.3610382020e+000,4.5868103935e+000,3.8315769831e+000,3.4811422300e+000,4.1522909643e+000,3.3070531568e+000,4.1685915121e+000,
4.0031250000e+001,3.9697978851e+000,4.1308074946e+000,3.4974455871e+000,4.1731765701e+000,3.6877324335e+000,4.0291180086e+000,3.3352971832e+000,3.3256653870e+000,4.5981891693e+000,3.7706731928e+000,3.3534398136e+000,4.1076717526e+000,3.2166449660e+000,4.0664098622e+000,
4.0125000000e+001,3.8182931770e+000,4.1454817792e+000,3.5023656284e+000,4.2025594096e+000,3.7188590401e+000,4.1070166287e+000,3.3417997441e+000,3.3158551033e+000,4.7110161310e+000,3.8855480362e+000,3.3573471091e+000,4.2246060843e+000,3.2142215505e+000,4.0140227007e+000,
4.0218750000e+001,3.5788987182e+000,4.0516743302e+000,3.4010765040e+000,4.1039878201e+000,3.7002420910e+000,4.0080272911e+000,3.3161968303e+000,3.2604444772e+000,4.7081394871e+000,3.8433974745e+000,3.5086438655e+000,4.1478016820e+000,3.2101237995e+000,4.0256878175e+000,
4.0312500000e+001,3.4557850966e+000,3.9338136918e+000,3.2770911292e+000,3.9898192954e+000,3.6136307597e+000,3.8849991662e+000,3.3240136624e+000,3.1153691760e+000,4.7663254449e+000,3.7432213703e+000,3.5318884883e+000,3.9874156374e+000,3.1154365941e+000,3.9171707017e+000,
4.0406250000e+001,3.7518516924e+000,4.1081291147e+000,3.4849000217e+000,4.3075282973e+000,3.7099327707e+000,3.9586439570e+000,3.3992109018e+000,3.2632743036e+000,4.8040337849e+000,3.6658277727e+000,3.5391058524e+000,4.0447182547e+000,3.1258791269e+000,3.9054413662e+000,
4.0500000000e+001,3.7789966966e+000,4.1378187286e+000,3.4811334458e+000,4.3161426384e+000,3.6965677924e+000,3.8646253839e+000,3.4097238704e+000,3.2109478040e+000,4.7686910891e+000,3.6580170418e+000,3.6539804196e+000,4.0410664854e+000,3.0838974736e+000,3.9180130577e+000,
4.0593750000e+001,3.8831964865e+000,4.1738983217e+000,3.5737412842e+000,4.3119258047e+000,3.8413602941e+000,3.9148989789e+000,3.5033169918e+000,3.1692582106e+000,4.8155819300e+000,3.6787375955e+000,3.6691168216e+000,4.0500892003e+000,2.8125847581e+000,3.8424214271e+000,
4.0687500000e+001,3.8417769278e+000,4.1280080520e+000,3.5958584027e+000,4.2901708391e+000,3.8401707249e+000,3.9149135022e+000,3.4957627056e+000,3.2448418114e+000,4.7431407582e+000,3.6599602665e+000,3.6420832288e+000,3.9849808399e+000,2.7129388215e+000,3.8171849578e+000,
4.0781250000e+001,3.8427106097e+000,4.1204346758e+000,3.6245216161e+000,4.2768935361e+000,3.8988105225e+000,3.9396242547e+000,3.5818990752e+000,3.1947527240e+000,4.6354721555e+000,3.6184104666e+000,3.7079391084e+000,3.9828567132e+000,2.7295148889e+000,3.8417791638e+000,
4.0875000000e+001,3.9686176514e+000,4.3261011244e+000,3.7804770380e+000,4.4233315465e+000,4.0221748133e+000,4.1474871453e+000,3.7568367857e+000,3.3859624190e+000,4.6643435096e+000,3.6918931891e+000,3.7139788245e+000,4.0681867464e+000,2.7338053030e+000,3.8161217497e+000,
4.0968750000e+001,4.0252623243e+000,4.4239195083e+000,3.7993646951e+000,4.4663597521e+000,4.0341842416e+000,4.2679516018e+000,3.7796432443e+000,3.4778342130e+000,4.7428358455e+000,3.8135315592e+000,3.7251686026e+000,4.2221582360e+000,2.7932976691e+000,3.9726064628e+000,
4.1062500000e+001,4.1032207794e+000,4.5048192275e+000,3.8131518241e+000,4.4983036698e+000,4.0750579389e+000,4.3127857391e+000,3.8376344092e+000,3.5136406055e+000,4.7208551178e+000,3.8105003843e+000,3.7739281864e+000,4.2019844012e+000,2.7668534070e+000,3.9348815190e+000,
4.1156250000e+001,4.1725599831e+000,4.5569188811e+000,3.9162669282e+000,4.5306939210e+000,3.9526481969e+000,4.3034520290e+000,3.8053774630e+000,3.5473290248e+000,4.5755939858e+000,3.7646823280e+000,3.7571130252e+000,4.2704360186e+000,2.7234394592e+000,4.1732290460e+000,
