Time (s),AF3,AF4,F3,F4,F7,F8,FC5,FC6,T7,T8,P7,P8,O1,O2,Sampling Rate
0.0000000000e+000,4.7751860454e+000,4.7878256330e+000,4.2794901935e+000,4.3115743829e+000,4.5249104495e+000,4.1292909544e+000,4.2495524281e+000,4.1338109005e+000,4.3116792260e+000,4.3096477084e+000,3.7203069745e+000,4.1473096772e+000,4.8714026693e+000,4.5411014798e+000,1
9.3750000000e-002,4.6226048343e+000,4.8818789216e+000,4.4518111655e+000,3.7040424256e+000,4.5019237468e+000,4.1525138840e+000,4.1641466633e+000,4.1295476898e+000,3.6328461086e+000,4.2356406856e+000,3.7252396660e+000,4.6370075864e+000,4.8366961821e+000,4.7520775120e+000,
1.8750000000e-001,4.7968644050e+000,4.9256522512e+000,4.4458130229e+000,3.6855654770e+000,4.5442563767e+000,4.2325310493e+000,4.1813219619e+000,4.1466103632e+000,3.7090160170e+000,4.2648979170e+000,3.7582297537e+000,4.6765709626e+000,4.8674835396e+000,4.7824225029e+000,
2.8125000000e-001,4.8077692112e+000,4.9443662721e+000,4.3938304905e+000,3.7093346970e+000,4.5633679463e+000,4.3221414073e+000,4.1629102409e+000,4.1684462638e+000,3.7800902241e+000,4.2705242463e+000,3.8869096217e+000,4.8678760272e+000,4.9476663965e+000,4.8718858226e+000,
3.7500000000e-001,4.6877863689e+000,4.9414363706e+000,4.3946081717e+000,3.7077942890e+000,4.5335548442e+000,4.2924885501e+000,4.1592830571e+000,4.1346551480e+000,3.8050629587e+000,4.2653632001e+000,3.9067560085e+000,4.8905689465e+000,4.9346449943e+000,4.8839562168e+000,
4.6875000000e-001,4.6311392060e+000,4.9347068358e+000,4.3948043538e+000,3.7017129326e+000,4.5435695212e+000,4.2832179972e+000,4.1409686620e+000,4.0861206739e+000,3.8294728053e+000,4.3466829420e+000,3.9317398490e+000,4.9935874579e+000,4.9321933849e+000,5.0173838602e+000,
5.6250000000e-001,4.7277205550e+000,5.0446426962e+000,4.4803365415e+000,3.9467398801e+000,4.5771062477e+000,4.4798236269e+000,4.3858992481e+000,4.1788068494e+000,3.9328011813e+000,4.4625221678e+000,4.1800816032e+000,5.0091415510e+000,5.1105543523e+000,5.1255623731e+000,
6.5625000000e-001,4.7494495913e+000,5.0562642454e+000,4.4390058311e+000,3.8892042382e+000,4.5484044092e+000,4.5432410452e+000,4.3278070370e+000,4.1728716420e+000,3.9031317703e+000,4.3465850705e+000,4.0723352914e+000,5.0540404345e+000,5.1848717450e+000,5.2236079031e+000,
7.5000000000e-001,4.7822390119e+000,5.0462899922e+000,4.4100911432e+000,3.8506995355e+000,4.5295582614e+000,4.5632055102e+000,4.2968188504e+000,4.1960782660e+000,3.8936111862e+000,4.2881928252e+000,4.0598184825e+000,5.0715011721e+000,5.2063236535e+000,5.2472985432e+000,
8.4375000000e-001,4.7519599960e+000,4.9628017450e+000,4.2967486705e+000,3.7563115924e+000,4.3901044942e+000,4.4926095579e+000,4.0786931736e+000,4.1431176011e+000,3.8672027878e+000,4.0883182815e+000,3.8526660692e+000,5.1179986978e+000,5.0437528007e+000,5.2163466278e+000,
9.3750000000e-001,4.7362788468e+000,5.0705430380e+000,4.3662148342e+000,3.8018774440e+000,4.3284046862e+000,4.4986931033e+000,4.0948418408e+000,4.2052172437e+000,3.7535406260e+000,3.9955006383e+000,3.7206055723e+000,5.0807191276e+000,4.8142458115e+000,5.0342173534e+000,
1.0312500000e+000,4.5868901440e+000,4.9408990247e+000,4.2805058898e+000,3.7807410441e+000,4.1601788992e+000,4.4818954971e+000,4.0787163081e+000,4.1997072278e+000,3.7831004083e+000,3.9654392476e+000,3.6955146646e+000,4.9221524972e+000,4.7780067973e+000,4.9125296131e+000,
1.1250000000e+000,4.4426175079e+000,4.6889402942e+000,4.0018279200e+000,3.8090559531e+000,4.0960660869e+000,4.5307843092e+000,4.0661004574e+000,4.2162862158e+000,3.7697627752e+000,4.0268600350e+000,3.7004808695e+000,4.8445412760e+000,4.7861104070e+000,4.8665890775e+000,
1.2187500000e+000,4.5231279992e+000,4.6172524783e+000,3.9233931796e+000,3.7226994710e+000,4.0108286828e+000,4.4759812558e+000,4.0312389677e+000,4.2155775360e+000,3.6210716892e+000,4.0045775964e+000,3.6445759116e+000,4.9441838300e+000,4.6966572544e+000,4.9091603182e+000,
1.3125000000e+000,4.6249860204e+000,4.6900462112e+000,4.1081051115e+000,3.7771280307e+000,4.1481745138e+000,4.4707345740e+000,4.1271538658e+000,4.3422325334e+000,3.5861544737e+000,4.0351195570e+000,3.6441012700e+000,4.9393125535e+000,4.7312032895e+000,4.9684588954e+000,
1.4062500000e+000,4.6414509102e+000,4.7756759545e+000,4.1821691553e+000,3.8356890300e+000,4.2278917690e+000,4.5415419328e+000,4.1769436793e+000,4.3974304255e+000,3.6353060064e+000,4.0903689105e+000,3.7516227475e+000,5.0474816533e+000,4.8207157689e+000,5.0611964074e+000,
1.5000000000e+000,4.6575578606e+000,4.7799282247e+000,4.1722889289e+000,3.7577660080e+000,4.1560417922e+000,4.5148136389e+000,4.1363445834e+000,4.4648341494e+000,3.6436708989e+000,3.9912673948e+000,3.6612244002e+000,5.0890817599e+000,4.7991920276e+000,5.0663270196e+000,
1.5937500000e+000,4.5243354427e+000,4.5981337727e+000,4.0472503870e+000,3.4667633048e+000,4.0860274029e+000,4.2808383885e+000,3.8995380169e+000,4.3251011400e+000,3.5817725880e+000,3.7787494139e+000,3.3230960217e+000,5.1133601319e+000,4.4911110621e+000,4.9799521453e+000,
1.6875000000e+000,4.4302103468e+000,4.7015714949e+000,4.0375106471e+000,3.5110540840e+000,3.9928885700e+000,4.2521707056e+000,3.9208192101e+000,4.3079510708e+000,3.5902226094e+000,3.8412087682e+000,3.2634498757e+000,5.1032333771e+000,4.2185415085e+000,4.8794054432e+000,
1.7812500000e+000,4.4160621675e+000,4.7859357945e+000,4.0658564768e+000,3.7032540747e+000,4.0407920742e+000,4.3163665706e+000,3.9964763255e+000,4.4284086614e+000,3.6167237752e+000,3.9912579787e+000,3.2816081793e+000,5.0673973550e+000,4.2781843190e+000,4.8326824081e+000,
1.8750000000e+000,4.3120322235e+000,4.6756695598e+000,3.9652804220e+000,3.6520057505e+000,4.0504241453e+000,4.2419888602e+000,4.0482130462e+000,4.3296396992e+000,3.6888299743e+000,3.8850209620e+000,3.3492255349e+000,5.0308068785e+000,4.2460434396e+000,4.8127257811e+000,
1.9687500000e+000,4.3513456400e+000,4.6709424399e+000,3.9639590823e+000,3.7431445622e+000,4.0780482559e+000,4.2216831445e+000,4.0387786370e+000,4.3254430991e+000,3.6069454396e+000,3.9265218342e+000,3.4603693470e+000,5.0075576391e+000,4.3371489897e+000,4.8237195672e+000,
2.0625000000e+000,4.4271655643e+000,4.6940798289e+000,3.9520234302e+000,3.7055437768e+000,4.0677535215e+000,4.2863627965e+000,4.0183518816e+000,4.2994636020e+000,3.5633125544e+000,4.0448093438e+000,3.5093077850e+000,4.9922961738e+000,4.3970704760e+000,4.8559413805e+000,
2.1562500000e+000,4.4538164688e+000,4.7040819802e+000,3.9320822891e+000,3.6687678434e+000,4.1098325955e+000,4.2395711273e+000,4.0311490007e+000,4.2753396770e+000,3.5980026604e+000,4.0932268003e+000,3.5661246728e+000,4.9840053633e+000,4.5237683516e+000,4.8911249861e+000,
2.2500000000e+000,4.1712547881e+000,4.6989995526e+000,3.9003960654e+000,3.6706528523e+000,4.0777343106e+000,4.2562977113e+000,4.0175468309e+000,4.1612395794e+000,3.5977587376e+000,4.1034797881e+000,3.5780107568e+000,4.8464063531e+000,4.5469260439e+000,4.8416353057e+000,
2.3437500000e+000,4.0546907039e+000,4.5865369046e+000,3.5767282098e+000,3.6022168738e+000,3.7304779873e+000,4.0484403210e+000,3.7951017489e+000,4.0672578421e+000,3.4698510073e+000,4.0900736853e+000,3.3730028479e+000,4.6665098407e+000,4.3040177084e+000,4.5901578576e+000,
2.4375000000e+000,4.0971666548e+000,4.5406843032e+000,3.6644160953e+000,3.5663976117e+000,3.7964720129e+000,4.0885341568e+000,3.8720884942e+000,4.1149454055e+000,3.5001172764e+000,4.0783696262e+000,3.3135586770e+000,4.4638454484e+000,4.3833774959e+000,4.5247266225e+000,
2.5312500000e+000,4.1088998407e+000,4.4908246837e+000,3.6528538541e+000,3.6220033432e+000,3.9272043138e+000,4.0191304941e+000,4.2881604631e+000,4.0061611675e+000,3.4566681267e+000,4.1095715820e+000,3.2782073267e+000,4.3924681320e+000,4.3561601673e+000,4.4115440603e+000,
2.6250000000e+000,4.2470645692e+000,4.3952803018e+000,3.8810091356e+000,3.5517814793e+000,4.1018183859e+000,3.9234036928e+000,4.2922300529e+000,3.9524979134e+000,3.4795281317e+000,4.0929006562e+000,3.4619435447e+000,4.3647876438e+000,4.5488435791e+000,4.4137366269e+000,
2.7187500000e+000,4.2450329650e+000,4.2135494677e+000,3.9995990055e+000,3.4607497601e+000,4.0869963445e+000,3.7904531534e+000,4.3239983918e+000,3.8230379027e+000,3.4358180309e+000,3.9230768877e+000,3.4288832429e+000,4.3324893636e+000,4.4999421337e+000,4.4819877587e+000,
2.8125000000e+000,4.2148360921e+000,4.1382748051e+000,4.0084576818e+000,3.2735301124e+000,4.0458228618e+000,3.6864155332e+000,4.2227280680e+000,3.6123272785e+000,3.4479906563e+000,3.8301805261e+000,3.4312393207e+000,4.1522602590e+000,4.5190858132e+000,4.4394371153e+000,
2.9062500000e+000,4.3258728045e+000,4.1288841159e+000,4.1784747936e+000,3.2757127202e+000,4.0962799271e+000,3.7470855769e+000,4.2734095301e+000,3.6304333643e+000,3.3807165770e+000,3.9869362454e+000,3.2930965078e+000,4.3765102714e+000,4.4691437718e+000,4.4739360224e+000,
3.0000000000e+000,4.3007084574e+000,4.0801515906e+000,4.1642780583e+000,3.2345097665e+000,4.4818683826e+000,3.7965910025e+000,4.4228457281e+000,3.7241851419e+000,3.3628272161e+000,3.9665361107e+000,3.2464222116e+000,4.4293337889e+000,4.4523801271e+000,4.4582197279e+000,
3.0937500000e+000,4.3035703308e+000,4.0510358971e+000,4.2027027665e+000,3.3422253923e+000,4.5508912251e+000,3.9648647364e+000,4.4545647288e+000,3.8247850655e+000,3.3634682659e+000,3.9588005965e+000,3.1439702502e+000,4.5435504219e+000,4.3725788328e+000,4.4612991243e+000,
3.1875000000e+000,4.2397035272e+000,4.1245776378e+000,4.2174881674e+000,3.3742505218e+000,4.5398994429e+000,4.0140975835e+000,4.4867920942e+000,3.8500033499e+000,3.2641963661e+000,3.8939318094e+000,3.0932480293e+000,4.6044729329e+000,4.2430195676e+000,4.4897612908e+000,
3.2812500000e+000,4.3578956480e+000,4.0505560327e+000,4.2455549863e+000,3.3240253292e+000,4.5004414041e+000,3.9403302218e+000,4.4585651279e+000,3.7831380768e+000,3.2569409903e+000,3.7981871756e+000,3.0445424836e+000,4.6312127419e+000,4.2286500042e+000,4.4994346530e+000,
3.3750000000e+000,4.4011082111e+000,4.0345424162e+000,4.2360426919e+000,3.3136930750e+000,4.4991316028e+000,4.0391684956e+000,4.4457362947e+000,3.7590910902e+000,3.2340510863e+000,3.7774912231e+000,3.0300046677e+000,4.6373589589e+000,4.1910393532e+000,4.5010077187e+000,
3.4687500000e+000,4.4727830245e+000,4.4712329302e+000,4.5661048793e+000,3.4391850948e+000,4.5289961970e+000,4.0427793760e+000,4.4282653965e+000,3.7044209976e+000,3.2777894779e+000,3.8948776115e+000,3.0092186900e+000,4.6703190105e+000,4.0058118836e+000,4.4448337035e+000,
3.5625000000e+000,5.2603305464e+000,4.7747483396e+000,4.6510372116e+000,3.4589130189e+000,4.4747327604e+000,4.1232980651e+000,4.1091601089e+000,3.7037329052e+000,3.2923947791e+000,3.8902386106e+000,3.2337545727e+000,4.6326686885e+000,3.8499303837e+000,4.4191075899e+000,
3.6562500000e+000,5.2963350042e+000,4.7883539597e+000,4.5889278613e+000,3.4541520370e+000,4.3711179062e+000,4.1715454330e+000,4.0280012084e+000,3.7021119499e+000,3.2409530150e+000,3.8946069499e+000,3.3350125534e+000,4.5940454569e+000,3.6169591596e+000,4.3825555548e+000,
3.7500000000e+000,5.2954742461e+000,4.8108122414e+000,4.4952570686e+000,3.4471780498e+000,4.3376171668e+000,4.1636079838e+000,3.9228687325e+000,3.6760053328e+000,3.1682662714e+000,3.9148290819e+000,3.3507884668e+000,4.5505710968e+000,3.5090739591e+000,4.3239544776e+000,
3.8437500000e+000,5.2796913310e+000,4.8118469762e+000,4.4454053505e+000,3.4230424637e+000,4.3572304794e+000,4.1786998552e+000,3.9250615122e+000,3.6750305105e+000,3.2206183057e+000,3.8562622416e+000,3.3572563363e+000,4.4367409750e+000,3.5430549481e+000,4.2730115724e+000,
3.9375000000e+000,5.2347712961e+000,4.8487843641e+000,4.3627460205e+000,3.4166595564e+000,4.0813463753e+000,4.2212198565e+000,3.7171032104e+000,3.6051524315e+000,3.2038851004e+000,3.8023916655e+000,3.4013770574e+000,4.3267198446e+000,3.6613795430e+000,4.3603784771e+000,
4.0312500000e+000,5.2385211219e+000,4.8500371304e+000,4.3562037427e+000,3.2845053186e+000,3.7502343155e+000,4.1851169131e+000,3.5962970512e+000,3.6004961493e+000,3.3019188619e+000,3.7601523489e+000,3.4278118933e+000,4.2614156717e+000,3.7411939229e+000,4.3455685285e+000,
4.1250000000e+000,5.2227134241e+000,4.9404150072e+000,4.3734029980e+000,3.2797008087e+000,3.6071660674e+000,4.0955500094e+000,3.4240433991e+000,3.4952121568e+000,3.2824178068e+000,3.6725845811e+000,3.4770840347e+000,4.0639602594e+000,3.7201106055e+000,4.1862713998e+000,
4.2187500000e+000,5.2384913898e+000,4.9240802603e+000,4.3841762509e+000,3.2281530985e+000,3.6240672927e+000,4.0342288478e+000,3.4186344741e+000,3.5223436610e+000,3.3963609593e+000,3.7004944910e+000,3.4750665769e+000,4.1737823368e+000,3.7721696682e+000,4.2222319573e+000,
4.3125000000e+000,5.1474108613e+000,4.9266103470e+000,4.3808772292e+000,3.2265321704e+000,3.5937724681e+000,4.0514039578e+000,3.3625093542e+000,3.5273359608e+000,3.3898540692e+000,3.7111396155e+000,3.4642123263e+000,4.2911774478e+000,3.8041134550e+000,4.2853090699e+000,
4.4062500000e+000,5.1999539614e+000,4.9572372119e+000,4.4378877423e+000,3.2869874506e+000,3.7391854714e+000,4.1247767916e+000,3.4786181124e+000,3.5689620814e+000,3.5031587604e+000,3.8223151350e+000,3.4792985400e+000,4.3440954697e+000,3.8520078037e+000,4.2847026943e+000,
4.5000000000e+000,4.6932086324e+000,4.6361309887e+000,3.8828835397e+000,3.1510598226e+000,3.7604175306e+000,4.0275598389e+000,3.4049073543e+000,3.5839593007e+000,3.3415464220e+000,3.5994860895e+000,3.5228768086e+000,4.4551778468e+000,3.9998676760e+000,4.3741419641e+000,
4.5937500000e+000,4.1417861624e+000,4.3657283908e+000,3.5800109184e+000,3.0867640860e+000,3.7070817767e+000,4.0163801602e+000,3.4236370090e+000,3.6358627479e+000,3.4011878577e+000,3.7033166616e+000,3.3143684348e+000,4.4609946411e+000,4.1537737293e+000,4.3745795679e+000,
4.6875000000e+000,4.0978332463e+000,4.3380860950e+000,3.5956488743e+000,3.1163103249e+000,3.8015520765e+000,4.2148516376e+000,3.5130334063e+000,3.8244475319e+000,3.5995697258e+000,3.8601280692e+000,3.1481301515e+000,4.5159743530e+000,4.2246982584e+000,4.4144702926e+000,
4.7812500000e+000,4.1461284377e+000,4.3704784945e+000,3.6981054298e+000,3.1722257004e+000,4.0083182037e+000,4.2870721675e+000,3.6950420806e+000,3.8620879259e+000,3.6425004307e+000,3.8490445910e+000,3.3141558650e+000,4.6216811000e+000,4.3165832486e+000,4.5364356773e+000,
4.8750000000e+000,4.1853891237e+000,4.3944135041e+000,3.7456410795e+000,3.2477280989e+000,4.0505944310e+000,4.2403016516e+000,3.7134456499e+000,3.9016968828e+000,3.6786608284e+000,3.9008954187e+000,3.5629302930e+000,4.7555872900e+000,4.3026755329e+000,4.5924008870e+000,
4.9687500000e+000,4.3104083023e+000,4.4923769338e+000,3.8906525655e+000,3.4084939860e+000,4.1781382431e+000,4.3899140924e+000,3.8332437060e+000,4.0385461538e+000,3.7117361966e+000,3.9509574136e+000,3.6506165261e+000,4.9224265029e+000,4.3061309162e+000,4.6656937096e+000,
5.0625000000e+000,4.4280075274e+000,4.8421251387e+000,4.1321361059e+000,3.9047957107e+000,4.2177475721e+000,4.9256962401e+000,3.8890180158e+000,4.3461493651e+000,3.6994206582e+000,4.3195056091e+000,3.7020141331e+000,4.9583312080e+000,4.2913005003e+000,4.6626659873e+000,
5.1562500000e+000,4.4294475149e+000,4.8597275284e+000,4.0643180471e+000,3.9666997825e+000,4.2740517329e+000,4.9979889408e+000,3.9217988937e+000,4.3706477932e+000,3.6918711057e+000,4.3360648161e+000,3.6757156488e+000,4.9671799312e+000,4.2328036227e+000,4.6589546553e+000,
5.2500000000e+000,4.4984921216e+000,4.8602143755e+000,4.0833435449e+000,4.0234251191e+000,4.4024019423e+000,5.0562096977e+000,4.0068387658e+000,4.4021610915e+000,3.7045410649e+000,4.4384308420e+000,3.7231200395e+000,4.8261531996e+000,4.2641308304e+000,4.5733161807e+000,
5.3437500000e+000,4.4735951859e+000,4.8824747812e+000,4.0863190454e+000,4.0203622909e+000,4.4592068805e+000,5.0689626695e+000,4.0035143659e+000,4.3927161085e+000,3.7473495694e+000,4.4836837964e+000,3.7516698639e+000,4.7828793588e+000,4.2967037366e+000,4.5270430668e+000,
5.4375000000e+000,4.4087247231e+000,4.8108693584e+000,4.0297480040e+000,4.0232288528e+000,4.3927611888e+000,5.0260405271e+000,3.9792799684e+000,4.3730152155e+000,3.7449756319e+000,4.4531035726e+000,3.7602775090e+000,4.6904690271e+000,4.2912446139e+000,4.4120807586e+000,
5.5312500000e+000,4.3547764472e+000,4.8450091339e+000,4.0703525070e+000,4.0475147077e+000,4.4089949648e+000,5.0373454107e+000,3.9771126599e+000,4.3876786325e+000,3.8195276257e+000,4.5218072952e+000,3.7151821903e+000,4.6839957439e+000,4.2602268725e+000,4.3386179909e+000,
5.6250000000e+000,4.3043276342e+000,4.8930503132e+000,4.0910544683e+000,4.0315601721e+000,4.3871067522e+000,5.0282121881e+000,3.9419288173e+000,4.4088308916e+000,3.7780274861e+000,4.5147639562e+000,3.7038178618e+000,4.7147750992e+000,4.1146637806e+000,4.3604911932e+000,
5.7187500000e+000,4.2214632931e+000,4.8942013152e+000,4.1414831677e+000,4.1216450595e+000,4.3339867286e+000,5.0002415355e+000,3.9931775592e+000,4.3866814098e+000,3.7227235676e+000,4.5255656790e+000,3.6887754052e+000,4.7269088001e+000,4.0558353960e+000,4.3101591777e+000,
5.8125000000e+000,4.1500779158e+000,4.8856401534e+000,4.0478492041e+000,4.1108443734e+000,4.1959092476e+000,4.9963740488e+000,3.9123548496e+000,4.3754462518e+000,3.7451705288e+000,4.5055537984e+000,3.4082923903e+000,4.5055376987e+000,4.0144257234e+000,4.1150346252e+000,
5.9062500000e+000,4.1555318350e+000,4.9871122838e+000,4.1922984252e+000,4.2832052076e+000,4.2958037965e+000,5.1221748654e+000,4.0836720011e+000,4.5750600282e+000,4.1733740810e+000,4.6718735082e+000,3.6143973998e+000,4.6188802169e+000,4.2008611315e+000,4.1140470949e+000,
6.0000000000e+000,4.0865442035e+000,4.8665252662e+000,4.0796459028e+000,4.1842317084e+000,4.2453110215e+000,4.9544048305e+000,4.0070729170e+000,4.4366392139e+000,4.2523013410e+000,4.6353256171e+000,3.6758184178e+000,4.5627303624e+000,4.3008175965e+000,4.1053232285e+000,
6.0937500000e+000,4.7748431264e+000,5.3066260649e+000,4.6276319459e+000,4.1259470957e+000,4.4509036820e+000,4.7485693725e+000,4.1681252850e+000,4.5216596306e+000,4.2725304107e+000,4.4499788001e+000,3.7057332031e+000,4.5217754066e+000,4.4503030898e+000,4.3297895726e+000,
6.1875000000e+000,4.8052457758e+000,5.3615415183e+000,4.6328412815e+000,4.1311369011e+000,4.4407448140e+000,4.7642907394e+000,4.1494194899e+000,4.5364235150e+000,4.2685655495e+000,4.3637278532e+000,3.6685180115e+000,4.6884511300e+000,4.4530165549e+000,4.4557731802e+000,
6.2812500000e+000,4.7462521976e+000,5.3603649842e+000,4.6180632707e+000,4.1613411687e+000,4.2747939924e+000,4.7387541202e+000,4.1012884181e+000,4.5509096916e+000,4.2705951748e+000,4.3761799123e+000,3.6448212821e+000,4.7916846606e+000,4.3816368957e+000,4.4870625998e+000,
6.3750000000e+000,4.7869290920e+000,5.3890427593e+000,4.6784443472e+000,4.1984619956e+000,4.4001235889e+000,4.7553631264e+000,4.2005266625e+000,4.6005792063e+000,4.2707910173e+000,4.3434487308e+000,3.6618725209e+000,4.8100414829e+000,4.3896006102e+000,4.5074374110e+000,
6.4687500000e+000,4.9445331728e+000,5.4711315546e+000,4.7416699648e+000,4.2005614139e+000,4.5804533981e+000,4.8571177266e+000,4.3736478881e+000,4.6875810484e+000,4.2910458856e+000,4.3584715996e+000,3.6167291738e+000,4.7928029194e+000,4.6707329390e+000,4.6342653172e+000,
6.5625000000e+000,4.9583903407e+000,5.4727705198e+000,4.7282114050e+000,4.1860332903e+000,4.5725189638e+000,4.8560886731e+000,4.3905178767e+000,4.6547447654e+000,4.2517788026e+000,4.3161188754e+000,3.6502263688e+000,4.7218569088e+000,4.8792489151e+000,4.6639180050e+000,
6.6562500000e+000,4.9589814970e+000,5.4519734223e+000,4.7116487073e+000,4.1215845535e+000,4.5470368742e+000,4.8139442691e+000,4.3713463630e+000,4.6275794483e+000,4.1992093082e+000,4.3404531911e+000,3.5833544777e+000,4.8026899388e+000,4.8574893365e+000,4.6410497587e+000,
6.7500000000e+000,4.9592585626e+000,5.4588922496e+000,4.7027051993e+000,4.0960480061e+000,4.5348301329e+000,4.7780683586e+000,4.3234766420e+000,4.6399314120e+000,4.1924158288e+000,4.3038473764e+000,3.5786966314e+000,4.7905035615e+000,4.8408539227e+000,4.6446876560e+000,
6.8437500000e+000,4.9910081285e+000,5.4903347252e+000,4.7505924656e+000,4.1488204754e+000,4.5732008771e+000,4.7988367052e+000,4.3532257859e+000,4.6611264111e+000,4.1815819107e+000,4.3368670824e+000,3.6172772078e+000,4.7517002411e+000,4.8314301524e+000,4.6175695475e+000,
6.9375000000e+000,4.9278669920e+000,5.3758243281e+000,4.6198334981e+000,3.8882789333e+000,4.4253920389e+000,4.5173715492e+000,4.1724480349e+000,4.4176351927e+000,3.4810554681e+000,3.9869870973e+000,2.9515489058e+000,4.5480990310e+000,4.6154671774e+000,4.4877538210e+000,
7.0312500000e+000,4.6641007157e+000,5.0868406328e+000,4.2746137420e+000,3.7236264116e+000,4.2120761703e+000,4.4028829858e+000,4.0743989235e+000,4.1905753086e+000,3.3630690530e+000,3.9549429684e+000,2.7278113050e+000,4.5499700421e+000,4.5360331628e+000,4.3973432947e+000,
7.1250000000e+000,4.3043722197e+000,4.6209939634e+000,3.8806881995e+000,3.4584527971e+000,4.1537008745e+000,4.1800095885e+000,3.9897568097e+000,3.9670176339e+000,3.3824909546e+000,3.8895945788e+000,2.8599649017e+000,4.5326037007e+000,4.5594953779e+000,4.3988741144e+000,
7.2187500000e+000,4.2033655850e+000,4.4675601032e+000,3.8382109357e+000,3.2962232475e+000,4.1191505859e+000,4.0673950655e+000,3.8791435657e+000,3.8946623722e+000,3.2909157836e+000,3.8862999922e+000,2.8607115039e+000,4.3077806541e+000,4.5493144543e+000,4.2497031597e+000,
7.3125000000e+000,4.2500110906e+000,4.4777892760e+000,3.8330145062e+000,3.2882017268e+000,4.1481123155e+000,4.0547947870e+000,3.8526505884e+000,3.8629916750e+000,3.2880429889e+000,3.8660651838e+000,2.8468433228e+000,4.2522771877e+000,4.5632779434e+000,4.2490220037e+000,
7.4062500000e+000,4.1765242664e+000,4.4789933307e+000,3.7216784217e+000,3.2020567852e+000,3.9230148406e+000,3.9376223339e+000,3.6298342452e+000,3.7107218465e+000,3.3121485250e+000,3.9111656212e+000,2.8915058589e+000,4.2424208685e+000,4.5612963829e+000,4.2627850639e+000,
7.5000000000e+000,3.9607921929e+000,4.2563717272e+000,3.6009127030e+000,3.0748896721e+000,3.7662938575e+000,3.7200336217e+000,3.4610192801e+000,3.3938984673e+000,3.1554140080e+000,3.7817661577e+000,2.8167984374e+000,4.1918967023e+000,3.9646173575e+000,3.9474193557e+000,
7.5937500000e+000,4.0488599078e+000,4.2368775826e+000,3.6487602682e+000,3.1400735608e+000,3.8942761005e+000,3.6989299810e+000,3.5666830007e+000,3.4488032533e+000,3.1386756480e+000,3.6877866104e+000,2.8988034110e+000,4.1852504300e+000,3.8588957725e+000,3.9638697181e+000,
7.6875000000e+000,4.0275085807e+000,4.2106029424e+000,3.6335225680e+000,3.1769402724e+000,3.8790611841e+000,3.6671342247e+000,3.5175678963e+000,3.3998787622e+000,3.0559252816e+000,3.6011295897e+000,2.9010815331e+000,4.1599717095e+000,3.8133317444e+000,3.9416087106e+000,
7.7812500000e+000,3.9994759479e+000,4.1295053335e+000,3.5431808584e+000,3.0871878135e+000,3.8623987753e+000,3.6795965891e+000,3.5066619633e+000,3.3091401863e+000,3.0286649569e+000,3.5944929378e+000,2.8207221282e+000,4.1509924755e+000,3.7739592611e+000,3.9387580086e+000,
7.8750000000e+000,3.9748770453e+000,4.2197207885e+000,3.4243021042e+000,3.0029377650e+000,3.8442938607e+000,3.6721505151e+000,3.5208547004e+000,3.2522278985e+000,3.1379365641e+000,3.7204760093e+000,2.9831778787e+000,4.8408814170e+000,4.1068499094e+000,4.5184300719e+000,
7.9687500000e+000,3.9642716570e+000,4.2717989427e+000,3.4700856587e+000,3.0488733284e+000,3.8995718183e+000,3.7832992774e+000,3.6502829579e+000,3.4220388898e+000,3.3162457616e+000,3.8609151124e+000,3.0751520638e+000,4.8745784724e+000,4.0898593158e+000,4.5294832794e+000,
8.0625000000e+000,3.9626003062e+000,4.2872535022e+000,3.4718442327e+000,3.0818516373e+000,3.9230065418e+000,3.7539219351e+000,3.6878333645e+000,3.5050040864e+000,3.3887861805e+000,3.8492734889e+000,2.9885666714e+000,4.8781764579e+000,3.9954616082e+000,4.5169165739e+000,
8.1562500000e+000,3.9929113337e+000,4.2475317542e+000,3.5237764641e+000,3.1183322211e+000,3.9926156762e+000,3.8268229819e+000,3.8115747446e+000,3.6325831983e+000,3.4991218763e+000,3.8542730182e+000,2.9514101485e+000,4.8149733048e+000,4.0509370655e+000,4.4900414196e+000,
8.2500000000e+000,4.1594390091e+000,4.2365622136e+000,3.6450809868e+000,3.2635894925e+000,4.0423586913e+000,3.8612503639e+000,3.8776954543e+000,3.6212656679e+000,3.5416865675e+000,3.8230395126e+000,3.0206173619e+000,4.7849034022e+000,4.0608257843e+000,4.4657719983e+000,
8.3437500000e+000,4.0327497666e+000,4.1092923229e+000,3.4866095398e+000,3.1737668749e+000,3.8695765751e+000,3.8524144875e+000,3.7783990839e+000,3.6417047946e+000,3.4674320353e+000,3.8278047828e+000,2.9744852896e+000,4.9100139446e+000,3.9866898503e+000,4.5657399646e+000,
8.4375000000e+000,3.9815041589e+000,4.1994612943e+000,3.5151303022e+000,3.3164198452e+000,3.9192761434e+000,3.9647570623e+000,3.8140942737e+000,3.6895519818e+000,3.5474237814e+000,3.8394357718e+000,3.0866223418e+000,4.9724620975e+000,4.1077129353e+000,4.6608678715e+000,
8.5312500000e+000,4.0017480766e+000,4.1424494646e+000,3.4874307094e+000,3.2821654931e+000,3.8439777199e+000,3.9215665558e+000,3.7431782753e+000,3.6780405072e+000,3.5725185722e+000,3.8617010785e+000,3.1688501065e+000,4.9784270213e+000,4.0496733517e+000,4.6540253614e+000,
8.6250000000e+000,3.9349698286e+000,4.1242381388e+000,3.4106848909e+000,3.2648991558e+000,3.7692669168e+000,3.8957628280e+000,3.6989160834e+000,3.6070199406e+000,3.5477244776e+000,3.8655395120e+000,3.1123419771e+000,5.0013684936e+000,4.0194999467e+000,4.6874070370e+000,
8.7187500000e+000,3.9953336572e+000,4.2441907175e+000,3.5067244261e+000,3.4366378612e+000,3.8496094882e+000,3.9845291909e+000,3.8056683291e+000,3.8004740616e+000,3.6426024176e+000,4.0511252565e+000,3.2022013146e+000,5.0781767529e+000,4.0893422221e+000,4.7024976800e+000,
8.8125000000e+000,4.0195695623e+000,4.3203348065e+000,3.6892116114e+000,3.5577198962e+000,3.9957951533e+000,4.0690522089e+000,3.9092959086e+000,3.8804858154e+000,3.6849967948e+000,4.1684566790e+000,3.2912373507e+000,5.0881911653e+000,4.2073736546e+000,4.7261638146e+000,
8.9062500000e+000,4.0728864316e+000,4.2516873556e+000,3.7712961315e+000,3.5480088826e+000,4.0406313907e+000,4.0831152256e+000,3.9073558327e+000,3.8592656528e+000,3.6641157771e+000,4.0367503341e+000,3.2010608975e+000,4.5455467571e+000,4.0640309879e+000,4.2505922352e+000,
9.0000000000e+000,4.1568835721e+000,4.2563325565e+000,3.8897158504e+000,3.5421623546e+000,4.0945767454e+000,4.1515392162e+000,3.9719654171e+000,3.8918813508e+000,3.7529537867e+000,4.1580649623e+000,3.2281952740e+000,4.6327387105e+000,4.1193618829e+000,4.2483874889e+000,
9.0937500000e+000,4.1262839284e+000,4.2395346126e+000,3.8652679272e+000,3.5077934186e+000,4.1383827986e+000,4.1501978694e+000,3.9726103207e+000,3.8578635999e+000,3.7595431441e+000,4.1882413926e+000,3.3493955075e+000,4.6466653675e+000,4.1349802741e+000,4.2272611681e+000,
9.1875000000e+000,4.0772780174e+000,4.1909560485e+000,3.8271359222e+000,3.4779887763e+000,4.0477046303e+000,4.1139245031e+000,3.8565876079e+000,3.8231129015e+000,3.6324871350e+000,4.1416785154e+000,3.3178550328e+000,4.6675530279e+000,4.1077607782e+000,4.2749344501e+000,
9.2812500000e+000,3.9198888284e+000,4.2433489744e+000,3.7783029560e+000,3.4611512247e+000,4.0310781758e+000,4.1486071477e+000,3.8463386226e+000,3.8271874881e+000,3.6466814076e+000,4.1322521392e+000,3.3174024082e+000,4.6030983741e+000,4.0796678270e+000,4.2425674221e+000,
9.3750000000e+000,3.8660871104e+000,4.2938000147e+000,3.8233834309e+000,3.4934148890e+000,3.9591135961e+000,4.1530966073e+000,3.9481634150e+000,3.9112440756e+000,3.5535488536e+000,4.1597416085e+000,3.3107033519e+000,4.5894710188e+000,4.1519690827e+000,4.1905668436e+000,
9.4687500000e+000,3.9906962685e+000,4.2452278623e+000,3.7899424994e+000,3.4201277491e+000,3.8966859242e+000,4.0809809496e+000,3.8535839067e+000,3.9423301557e+000,3.5477927140e+000,4.0627030117e+000,3.1634559815e+000,4.5778515717e+000,3.9942752128e+000,4.1286488726e+000,
9.5625000000e+000,3.9939313015e+000,4.3637841195e+000,3.8001012600e+000,3.5848742205e+000,3.8887137181e+000,4.1714923149e+000,3.8734467548e+000,4.1475092327e+000,3.5517677910e+000,4.0945417791e+000,3.1307202861e+000,4.5727010348e+000,4.0019287468e+000,4.0963472436e+000,
9.6562500000e+000,4.0082204529e+000,4.3752270682e+000,3.8173080171e+000,3.6346673062e+000,3.8677683692e+000,4.2268510687e+000,3.8018330056e+000,4.2668680805e+000,3.5195731726e+000,4.0963650270e+000,3.1539750601e+000,4.5603689558e+000,3.9913531102e+000,4.1119364427e+000,
9.7500000000e+000,3.9755153342e+000,4.1394666290e+000,3.6795584026e+000,3.3701981442e+000,3.7867910186e+000,4.0538205723e+000,3.7169772357e+000,4.1333358932e+000,3.4306625236e+000,3.8056914687e+000,3.0195889490e+000,4.4131179291e+000,3.8871791871e+000,4.0530520449e+000,
9.8437500000e+000,3.9631389268e+000,4.1886993129e+000,3.6020270633e+000,3.5141469211e+000,3.6070862464e+000,4.1664037062e+000,3.6574516940e+000,4.2039561328e+000,3.3761393795e+000,3.9393109520e+000,2.9418441397e+000,4.5088602529e+000,3.8702987920e+000,4.1728786659e+000,
9.9375000000e+000,3.8883450059e+000,4.3061211057e+000,3.5146457227e+000,3.5479084106e+000,3.5468656632e+000,4.1293335175e+000,3.4995604669e+000,4.1904563057e+000,3.3069702986e+000,3.9506831144e+000,2.9357259729e+000,4.4887045983e+000,3.8176224366e+000,4.2087844397e+000,
1.0031250000e+001,3.8012854355e+000,4.2775587353e+000,3.4442485535e+000,3.5420994772e+000,3.4654480995e+000,4.0589976128e+000,3.4665356427e+000,4.2293774983e+000,3.0453800513e+000,3.8591107652e+000,2.7964971564e+000,4.4755909733e+000,3.7483374784e+000,4.2358144847e+000,
1.0125000000e+001,3.8971714176e+000,4.2824506890e+000,3.4927970330e+000,3.5908697085e+000,3.4071529647e+000,4.0600233847e+000,3.5079221882e+000,4.2062407057e+000,3.0376810862e+000,3.8359540546e+000,2.5658605448e+000,4.4534829332e+000,3.7352993345e+000,4.1987909179e+000,
1.0218750000e+001,3.8657322141e+000,4.4138873492e+000,3.5773054052e+000,3.6939108607e+000,3.5155126059e+000,4.0972642701e+000,3.5780050156e+000,4.2220615133e+000,3.1291325128e+000,3.8742015802e+000,2.6110894072e+000,4.5304891559e+000,3.7724441026e+000,4.1853763205e+000,
1.0312500000e+001,3.9552240828e+000,4.3876774773e+000,3.7251842034e+000,3.6603671324e+000,3.6428608394e+000,4.0279325388e+000,3.5878013210e+000,4.1896842885e+000,3.3196290730e+000,3.9089900149e+000,2.7596877125e+000,4.5149025865e+000,3.8827934933e+000,4.1607139167e+000,
1.0406250000e+001,4.1680828578e+000,4.5748629964e+000,4.1697797147e+000,3.6457394930e+000,3.5813376413e+000,4.0075027176e+000,3.5317505293e+000,4.1102525220e+000,3.3323115809e+000,3.8122850705e+000,2.8965056130e+000,4.4207044932e+000,3.8147886609e+000,4.1102622869e+000,
1.0500000000e+001,4.4070910363e+000,4.5360957509e+000,4.2305201673e+000,3.5887887010e+000,3.6808558165e+000,3.9563401640e+000,3.6132627546e+000,4.0271280007e+000,3.3419738395e+000,3.8960126921e+000,2.9641321414e+000,4.3568903564e+000,3.8109937047e+000,4.0854589020e+000,
1.0593750000e+001,4.4844148662e+000,4.7109153566e+000,4.3448538969e+000,3.6659510065e+000,3.7568500691e+000,3.9898102917e+000,3.7320437514e+000,3.9531983848e+000,3.3282906215e+000,3.9227331589e+000,3.0130721346e+000,4.3483272852e+000,3.8880200182e+000,4.1058121289e+000,
1.0687500000e+001,4.5620707540e+000,4.8661715618e+000,4.4689885853e+000,3.7975100356e+000,3.8631872913e+000,4.0697717032e+000,3.9280896341e+000,3.9195758684e+000,3.3717496681e+000,3.9406133062e+000,2.9517858799e+000,4.2753339656e+000,3.8363565351e+000,4.0156990519e+000,
1.0781250000e+001,4.5801656451e+000,4.8699949206e+000,4.4852248765e+000,3.7264290678e+000,3.8864080757e+000,3.9900983023e+000,3.9470920941e+000,3.8548370224e+000,3.3884521185e+000,3.8387274905e+000,2.9762806188e+000,4.2219771201e+000,3.8533922767e+000,3.9965362885e+000,
1.0875000000e+001,4.6325940890e+000,4.8784444686e+000,4.4816182615e+000,3.6923997245e+000,3.9433941778e+000,3.9161626416e+000,3.9065808443e+000,3.7556894561e+000,3.4511352558e+000,3.7269479008e+000,3.1111788174e+000,4.1023061462e+000,4.0173804154e+000,3.9298312788e+000,
1.0968750000e+001,4.7274088086e+000,4.8136702132e+000,4.4809982726e+000,3.6663397515e+000,3.9181729706e+000,3.8914432494e+000,3.9410965028e+000,3.7540238077e+000,3.4766730858e+000,3.5618895222e+000,3.1404776327e+000,4.0362358434e+000,3.9850985589e+000,3.9082652779e+000,
1.1062500000e+001,4.7356739121e+000,4.8624316580e+000,4.4932039805e+000,3.6399194913e+000,3.9014630980e+000,3.9092169674e+000,3.9011373230e+000,3.6465638054e+000,3.4854804101e+000,3.5662616306e+000,3.1251759520e+000,3.9489458096e+000,3.9882513240e+000,3.8296003007e+000,
1.1156250000e+001,4.7208458681e+000,4.8344080042e+000,4.4529376973e+000,3.5712481547e+000,3.9107876355e+000,3.9146724353e+000,3.8307802051e+000,3.6049145009e+000,3.4520218931e+000,3.5293782817e+000,3.1467112172e+000,3.8717742922e+000,3.9348043632e+000,3.7168224576e+000,
1.1250000000e+001,4.7610120170e+000,4.8045590156e+000,4.4740560545e+000,3.5657804936e+000,3.9332372485e+000,3.9853401521e+000,3.8466136521e+000,3.7134877737e+000,3.4428408309e+000,3.5671790383e+000,3.1334406180e+000,3.9068827525e+000,3.9353751674e+000,3.8887137827e+000,
1.1343750000e+001,4.7068364590e+000,4.7939586454e+000,4.4022416146e+000,3.5292518162e+000,3.9527670129e+000,3.9334961973e+000,3.9124110640e+000,3.7235382646e+000,3.3784030661e+000,3.5964283470e+000,3.0302715887e+000,3.8715449050e+000,3.8701945820e+000,3.8342086631e+000,
1.1437500000e+001,4.5303113869e+000,4.5434420987e+000,4.0255536081e+000,3.4689163045e+000,3.9139603921e+000,3.8171232290e+000,3.8448279304e+000,3.7311600954e+000,3.3503222842e+000,3.5889963103e+000,2.9262100686e+000,4.0007073122e+000,3.8703608958e+000,3.8050969980e+000,
1.1531250000e+001,4.1787778749e+000,4.5299221760e+000,3.9873564822e+000,3.4249436804e+000,3.8775429787e+000,3.8705889621e+000,3.8879378210e+000,3.6652432287e+000,3.2678315726e+000,3.4392732756e+000,2.8455043539e+000,3.9623678811e+000,3.8711703052e+000,3.7346701205e+000,
1.1625000000e+001,4.1482338887e+000,4.0978928852e+000,3.7670748618e+000,3.1017021166e+000,3.9788679979e+000,3.7476554257e+000,3.6632031404e+000,3.5514038344e+000,3.4517095725e+000,3.5080705764e+000,2.8833093823e+000,4.0518450392e+000,3.8971815811e+000,3.8614247419e+000,
1.1718750000e+001,4.1332373612e+000,4.1466248911e+000,3.8024827777e+000,3.1412962633e+000,4.0967831316e+000,3.8440898440e+000,3.7923552914e+000,3.6128134826e+000,3.7463254043e+000,3.7195988231e+000,3.0330916260e+000,4.1980817051e+000,3.8894509101e+000,3.8750638683e+000,
1.1812500000e+001,4.1299240226e+000,4.1176373405e+000,3.8127112030e+000,3.2247256744e+000,4.0765072827e+000,3.9284860362e+000,3.7821343230e+000,3.7016929393e+000,3.7953253850e+000,3.7788957492e+000,3.0333522899e+000,4.2546655016e+000,3.8385837386e+000,3.9120318644e+000,
1.1906250000e+001,4.0162556564e+000,4.0903738770e+000,3.8051688213e+000,3.2255488591e+000,4.0243651161e+000,3.9623019988e+000,3.8303777287e+000,3.6888261484e+000,3.7218055942e+000,3.7437062106e+000,2.8980577055e+000,4.2043743429e+000,3.5623192168e+000,3.7123475835e+000,
1.2000000000e+001,3.8500942429e+000,4.0567896715e+000,3.8259692616e+000,3.2977986434e+000,4.0294925826e+000,3.9580333765e+000,3.8059065076e+000,3.7442034051e+000,3.6569252773e+000,3.7694366113e+000,2.8155705045e+000,4.2433430419e+000,3.5803696312e+000,3.7208460980e+000,
1.2093750000e+001,3.8836982603e+000,3.9682199899e+000,3.8257793338e+000,3.3006587415e+000,4.0284970035e+000,3.9710510500e+000,3.8270516413e+000,3.7549381588e+000,3.6759574890e+000,3.7288186583e+000,2.8163082606e+000,4.3096383566e+000,3.5159389889e+000,3.7953699431e+000,
1.2187500000e+001,3.8669007178e+000,4.0070948061e+000,3.8218068084e+000,3.2658903262e+000,3.9654888044e+000,4.0341653322e+000,3.8185546375e+000,3.8732856079e+000,3.6924440830e+000,3.7860946088e+000,2.8644913036e+000,4.3458346797e+000,3.5646788563e+000,3.8993257331e+000,
1.2281250000e+001,3.8333593685e+000,4.0320290176e+000,3.7212554840e+000,3.2371695351e+000,3.8541121942e+000,3.9425517765e+000,3.7824510146e+000,3.7592565213e+000,3.7751718638e+000,3.7098170043e+000,2.9025070191e+000,4.2797640954e+000,3.6015599992e+000,3.7901689605e+000,
1.2375000000e+001,3.9680217636e+000,4.0707614332e+000,3.7742889534e+000,3.2894351246e+000,3.8582657719e+000,3.9760307019e+000,3.7969176276e+000,3.7618616455e+000,3.7659688917e+000,3.7033126404e+000,2.8694397509e+000,4.2282674289e+000,3.5029240425e+000,3.8167565442e+000,
1.2468750000e+001,3.9656801439e+000,4.1744559740e+000,3.8450973467e+000,3.3053876811e+000,3.9011199742e+000,4.0071319724e+000,3.7702607079e+000,3.8059555792e+000,3.8832257260e+000,3.7767190862e+000,2.9033630234e+000,4.2805150917e+000,3.6888084362e+000,3.8954047716e+000,
1.2562500000e+001,4.0296306066e+000,4.1340801512e+000,3.8372365990e+000,3.3196326572e+000,3.9104600990e+000,3.9773836528e+000,3.7735033316e+000,3.8745181600e+000,3.9221835086e+000,3.7847187014e+000,2.9906723703e+000,4.3302677289e+000,3.6972088123e+000,3.8907466085e+000,
1.2656250000e+001,3.8015218567e+000,4.0888962812e+000,3.5654093434e+000,3.1464964045e+000,3.4148347487e+000,3.8195574206e+000,3.5616175109e+000,3.8377135858e+000,3.6198755314e+000,3.5587582728e+000,2.8209725452e+000,4.2070881593e+000,3.6809989988e+000,3.9014208707e+000,
1.2750000000e+001,3.7749887837e+000,3.9869015811e+000,3.4810915939e+000,2.9777245639e+000,3.2679740140e+000,3.7282447683e+000,3.5328804155e+000,3.7263660325e+000,3.4734628908e+000,3.3166232323e+000,2.7579309569e+000,4.0903749051e+000,3.6789302157e+000,3.8766407043e+000,
1.2843750000e+001,3.7241357451e+000,4.0528537606e+000,3.4339712536e+000,2.9828390348e+000,3.2242941412e+000,3.6989775448e+000,3.4071854526e+000,3.8352475171e+000,3.4447825156e+000,3.5246964354e+000,2.7550245234e+000,4.1151205261e+000,3.6761557601e+000,3.8972960250e+000,
1.2937500000e+001,3.6302914779e+000,4.0879628443e+000,3.3232800224e+000,2.9901495135e+000,3.2065782492e+000,3.7793820655e+000,3.3348336692e+000,3.8841644569e+000,3.5172062209e+000,3.6106559460e+000,2.7793658311e+000,4.1162300047e+000,3.7538048914e+000,3.9035613943e+000,
1.3031250000e+001,3.6048704869e+000,4.1681054043e+000,3.3629878478e+000,2.9525666971e+000,3.2274962438e+000,3.7537569016e+000,3.3214127520e+000,3.8742762827e+000,3.4979390831e+000,3.6301271002e+000,2.7943902761e+000,4.0817908721e+000,3.7410221335e+000,3.8568410019e+000,
1.3125000000e+001,3.4818362068e+000,4.1032195007e+000,3.3613716249e+000,2.9254203978e+000,3.1873899281e+000,3.6474106887e+000,3.2717705658e+000,3.7513846879e+000,3.5116859250e+000,3.6324895488e+000,2.8356909517e+000,4.1007359008e+000,3.8148319635e+000,3.9561646457e+000,
1.3218750000e+001,3.5126097832e+000,4.0377550283e+000,3.3786319894e+000,3.0178018773e+000,3.1844198389e+000,3.6494145429e+000,3.2944716515e+000,3.7667629510e+000,3.5032023906e+000,3.6330662578e+000,2.7883610480e+000,4.0850666824e+000,3.7822440180e+000,3.8588226843e+000,
1.3312500000e+001,3.5440293640e+000,4.0381510652e+000,3.3985681226e+000,3.0385362063e+000,3.0823857038e+000,3.6397295753e+000,3.3041748862e+000,3.8471662260e+000,3.3764529930e+000,3.5975982501e+000,2.7685971196e+000,4.0731248066e+000,3.7436037021e+000,3.7945183405e+000,
1.3406250000e+001,3.5398129848e+000,4.1053530717e+000,3.4519259904e+000,3.1179929799e+000,3.3541489981e+000,3.7991570041e+000,3.5719882796e+000,3.9574839234e+000,3.5881724079e+000,3.8272476748e+000,2.8629294758e+000,4.1359722895e+000,3.7754438240e+000,3.8084524144e+000,
1.3500000000e+001,3.6066976003e+000,4.0729237738e+000,3.4250274134e+000,3.1101813816e+000,3.3606668151e+000,3.8253770759e+000,3.5318630201e+000,3.8731553823e+000,3.5263884363e+000,3.8566117772e+000,2.6680253016e+000,4.0611868050e+000,3.6437779084e+000,3.7584563397e+000,
1.3593750000e+001,3.5998119004e+000,4.2198561832e+000,3.4417165915e+000,3.1868516001e+000,3.4196036332e+000,3.8844597121e+000,3.5363818514e+000,3.8477191392e+000,3.6243910277e+000,3.9020347614e+000,2.6202444124e+000,3.9228955662e+000,3.5340693311e+000,3.5577706920e+000,
1.3687500000e+001,3.6158808779e+000,4.1581622399e+000,3.4573806857e+000,3.1972432076e+000,3.4583968897e+000,3.8880316566e+000,3.4891927928e+000,3.8514861577e+000,3.6326113444e+000,3.9701146472e+000,2.6955417079e+000,3.9462323025e+000,3.5481954941e+000,3.6006445494e+000,
1.3781250000e+001,3.6184509330e+000,4.2377296978e+000,3.4472655464e+000,3.2433902129e+000,3.4917390908e+000,3.9151239716e+000,3.5247620015e+000,3.9946262160e+000,3.5986033673e+000,3.9860412097e+000,2.7389335877e+000,4.0814495212e+000,3.5893770066e+000,3.7774600346e+000,
1.3875000000e+001,3.7693649756e+000,4.2101518852e+000,3.5005087974e+000,3.1764626616e+000,3.4911761238e+000,3.9255604736e+000,3.5310483649e+000,3.8437044270e+000,3.6525676235e+000,3.9371068466e+000,2.7750966588e+000,4.0660292657e+000,3.6195681693e+000,3.8015820670e+000,
1.3968750000e+001,3.7912471126e+000,4.1919107200e+000,3.5659279120e+000,3.2081389289e+000,3.5088193405e+000,3.9197489493e+000,3.6677819646e+000,3.8569769623e+000,3.6649865198e+000,3.9105713158e+000,2.7510968337e+000,4.0361700037e+000,3.6100997255e+000,3.7818110195e+000,
1.4062500000e+001,3.7523391881e+000,4.1381737427e+000,3.6032411613e+000,3.2061519571e+000,3.5125051973e+000,3.9308062021e+000,3.7387326661e+000,3.9034674019e+000,3.6810621954e+000,3.9395514475e+000,2.7747981289e+000,4.0759164103e+000,3.5777349286e+000,3.8128616213e+000,
1.4156250000e+001,3.7599644101e+000,4.2380874615e+000,3.6336384069e+000,3.2568095634e+000,3.5669547511e+000,3.9329000044e+000,3.7980368596e+000,3.9256901138e+000,3.7803056470e+000,3.9850863495e+000,2.7886132026e+000,4.0158299992e+000,3.8381938552e+000,3.8496464553e+000,
1.4250000000e+001,3.7487685165e+000,4.2329566476e+000,3.6943037978e+000,3.2689999961e+000,3.6502036114e+000,3.9472321822e+000,3.8590017708e+000,3.9050576235e+000,3.9110616666e+000,3.9924123946e+000,2.8620370841e+000,3.9540499702e+000,3.8133906906e+000,3.8229150986e+000,
1.4343750000e+001,3.8300635171e+000,4.3413972384e+000,3.6916346645e+000,3.2865965887e+000,3.6812598789e+000,3.9059156577e+000,3.7945827038e+000,3.9057138607e+000,3.8942857029e+000,3.9818804911e+000,2.8755100253e+000,3.9775021176e+000,3.8715762444e+000,3.8937583593e+000,
1.4437500000e+001,3.7469960622e+000,4.2354125891e+000,3.5826792041e+000,3.2219194095e+000,3.5700448936e+000,3.7947905758e+000,3.6038878772e+000,3.8436114661e+000,3.7583526233e+000,3.8126382754e+000,2.7756917661e+000,3.9133957165e+000,3.8248298489e+000,3.9339505774e+000,
1.4531250000e+001,3.7419275361e+000,4.1978021453e+000,3.5141666714e+000,3.2374334171e+000,3.5435215286e+000,3.7700200028e+000,3.6560095757e+000,3.8903925175e+000,3.6415082073e+000,3.6829942124e+000,2.8083002981e+000,3.9672016160e+000,3.7868127883e+000,3.9060769682e+000,
1.4625000000e+001,3.7608971735e+000,4.0866080771e+000,3.5061059704e+000,3.2384431999e+000,3.5361587953e+000,3.7406080249e+000,3.6897863248e+000,3.8993647571e+000,3.5284241131e+000,3.6309775173e+000,2.8246173576e+000,4.0541508379e+000,3.7699957493e+000,3.9484886915e+000,
1.4718750000e+001,3.7959034415e+000,4.1350811368e+000,3.5874068418e+000,3.2534107405e+000,3.6010929735e+000,3.7383542920e+000,3.7408071196e+000,3.7388578170e+000,3.5834674614e+000,3.5700334830e+000,2.7163251329e+000,3.9538236867e+000,3.8054732591e+000,3.9048428587e+000,
1.4812500000e+001,3.9336679362e+000,4.3614481363e+000,3.9054393520e+000,3.2850052449e+000,3.8441435963e+000,3.7025697643e+000,3.8744147872e+000,3.6943033037e+000,3.5787177549e+000,3.5344680507e+000,2.6747396671e+000,4.0164460579e+000,3.8622826317e+000,3.9657128823e+000,
1.4906250000e+001,4.2768439711e+000,4.4772833664e+000,3.9026746024e+000,3.3098328998e+000,3.9414093398e+000,3.6865841604e+000,3.8907801209e+000,3.7569455440e+000,3.5551134885e+000,3.3938377190e+000,2.8569977051e+000,3.9595429264e+000,4.0809814865e+000,3.9689472008e+000,
1.5000000000e+001,4.3032321428e+000,4.5881349379e+000,3.9134834316e+000,3.3374868616e+000,3.9269895223e+000,3.7286542753e+000,3.8262619016e+000,3.7927111477e+000,3.5717919175e+000,3.4198776156e+000,2.9178381572e+000,3.9613892936e+000,4.1576421310e+000,4.0295064080e+000,
1.5093750000e+001,4.3754051574e+000,4.6522157844e+000,3.9504718716e+000,3.3398158845e+000,3.9617926678e+000,3.7651153501e+000,3.8597254900e+000,3.8094091211e+000,3.5924222632e+000,3.3900085845e+000,2.8580233676e+000,3.9471760070e+000,4.1212723697e+000,3.9796292322e+000,
1.5187500000e+001,4.3755721094e+000,4.6101020994e+000,3.8645331949e+000,3.3241974073e+000,3.9236145038e+000,3.7414890203e+000,3.8086066913e+000,3.8520361125e+000,3.2845958811e+000,3.3164423256e+000,2.8067763858e+000,4.0636907270e+000,3.9693719785e+000,4.0485774563e+000,
1.5281250000e+001,4.3119884190e+000,4.6012984240e+000,3.8889994645e+000,3.3378716013e+000,3.8455668151e+000,3.7462927540e+000,3.7566778206e+000,3.7952458049e+000,3.1451559353e+000,3.3203464960e+000,2.8068552713e+000,4.1139408318e+000,4.0418764168e+000,4.1146943930e+000,
1.5375000000e+001,4.2891313481e+000,4.5462908909e+000,3.9222358484e+000,3.4959096524e+000,3.8651742843e+000,3.8526515912e+000,3.8216722133e+000,3.8748283251e+000,3.0938275190e+000,3.3343825592e+000,2.7603277048e+000,4.0661091488e+000,4.0327150185e+000,4.0407030273e+000,
1.5468750000e+001,4.3519743257e+000,4.6181369015e+000,3.9696421689e+000,3.6657325697e+000,3.9279131915e+000,3.9660979694e+000,3.8423738249e+000,4.0760358384e+000,3.2051993943e+000,3.5785811376e+000,3.1004908635e+000,4.2068791363e+000,4.2153617425e+000,4.2277464073e+000,
1.5562500000e+001,4.3159717795e+000,4.6416112166e+000,4.0587005856e+000,3.7125918455e+000,3.9399148918e+000,3.9433007805e+000,3.8484537453e+000,4.0609024316e+000,3.2825494396e+000,3.6796730641e+000,3.2278753579e+000,4.1898516987e+000,4.2633642414e+000,4.2473666524e+000,
1.5656250000e+001,4.3257196231e+000,4.6071444890e+000,4.0682230112e+000,3.6383415928e+000,3.9606280094e+000,4.0084248438e+000,3.8765419873e+000,4.0407469799e+000,3.2158346033e+000,3.7075636179e+000,3.2458793622e+000,4.1674991303e+000,4.3229793685e+000,4.2801625751e+000,
1.5750000000e+001,4.3099759012e+000,4.5934362725e+000,4.0142246014e+000,3.6610429322e+000,3.8849813885e+000,4.0317432920e+000,3.8702651019e+000,4.0881339713e+000,3.2245019765e+000,3.7937489500e+000,3.3053020700e+000,4.0688776635e+000,4.3027004855e+000,4.1466670485e+000,
1.5843750000e+001,4.0656280103e+000,4.4702182806e+000,3.9266080294e+000,3.6982907344e+000,3.7971588734e+000,4.0553393415e+000,3.7729108052e+000,4.0962194408e+000,3.2471864326e+000,3.8997437079e+000,3.2972397267e+000,4.1219892775e+000,4.3282432521e+000,4.2074734593e+000,
1.5937500000e+001,3.9070991733e+000,4.4353255700e+000,4.0379864194e+000,3.7890365215e+000,3.7396473558e+000,4.0495207536e+000,3.7988689861e+000,4.0973766575e+000,3.1884566417e+000,3.9161962708e+000,3.1645902921e+000,4.3450071002e+000,4.1556587073e+000,4.3705845007e+000,
1.6031250000e+001,3.8648859852e+000,4.2686329018e+000,3.9203750643e+000,3.7761042126e+000,3.7172636150e+000,4.0189689460e+000,3.7462345883e+000,3.9777889851e+000,3.2127271508e+000,3.8956604499e+000,3.1671956040e+000,4.3326584238e+000,4.2054247297e+000,4.4212371067e+000,
1.6125000000e+001,3.8763009402e+000,4.3435732610e+000,3.9381518493e+000,3.7812076589e+000,3.7130112626e+000,4.0143310399e+000,3.6774613055e+000,3.9530968784e+000,3.2750049322e+000,3.9143743153e+000,3.1654043888e+000,4.2847860610e+000,4.1812614786e+000,4.3414069383e+000,
1.6218750000e+001,3.8989613535e+000,4.3386482950e+000,3.9919122194e+000,3.8204657989e+000,3.7552114519e+000,4.0676240252e+000,3.7813972802e+000,4.0376723960e+000,3.3203336479e+000,3.8869919665e+000,3.1243852898e+000,4.2232198999e+000,4.1427025557e+000,4.2767093182e+000,
1.6312500000e+001,4.0198624202e+000,4.3991246204e+000,4.0258701403e+000,3.8793588741e+000,3.8123056901e+000,4.1625974073e+000,3.7855286298e+000,4.0996014319e+000,3.4620143380e+000,3.9595245840e+000,3.1639912121e+000,4.2355138369e+000,4.1274266912e+000,4.2813265954e+000,
1.6406250000e+001,3.9843405828e+000,4.3129683519e+000,3.9756955245e+000,3.6878133396e+000,3.7402015383e+000,3.9866582921e+000,3.7195784336e+000,3.8481338262e+000,3.3636913373e+000,3.8189579407e+000,3.2175030457e+000,4.1770819526e+000,4.0833793075e+000,4.2682155171e+000,
1.6500000000e+001,3.9811616350e+000,4.3666434003e+000,4.0020407571e+000,3.6660019432e+000,3.8339705782e+000,4.0547748963e+000,3.7376289412e+000,3.7874288918e+000,3.4239322372e+000,3.8861729760e+000,3.0343615993e+000,4.0720433056e+000,4.0941890747e+000,4.1507683733e+000,
1.6593750000e+001,4.0809077078e+000,4.4839457223e+000,4.0341388972e+000,3.7222202889e+000,3.8436645364e+000,4.1093806797e+000,3.7201110473e+000,3.8911166219e+000,3.4833936807e+000,3.9504382689e+000,3.0967819768e+000,4.2013799417e+000,4.2136829939e+000,4.1703037824e+000,
1.6687500000e+001,4.0131917598e+000,4.4226772296e+000,3.9799371580e+000,3.7029426506e+000,3.7840071480e+000,4.0883466895e+000,3.7347663875e+000,3.8542476174e+000,3.5726763330e+000,3.9492914937e+000,3.1079921525e+000,4.2409692615e+000,4.2790997923e+000,4.1661808239e+000,
1.6781250000e+001,4.0675669244e+000,4.4614078255e+000,4.0115072942e+000,3.7791080625e+000,3.8711687814e+000,4.1715445598e+000,3.8040331034e+000,3.8480048593e+000,3.5402182476e+000,3.8799132737e+000,3.1149885091e+000,4.2433161877e+000,4.3176043289e+000,4.1699183137e+000,
1.6875000000e+001,4.2480552170e+000,4.3872518835e+000,4.0323478779e+000,3.8998303220e+000,4.0493510361e+000,4.3646804858e+000,3.8787377155e+000,3.9734951803e+000,3.7393849884e+000,3.9505259808e+000,3.1751265186e+000,4.1632017066e+000,4.3735417680e+000,4.0672178488e+000,
1.6968750000e+001,4.2204156058e+000,4.3836022185e+000,3.9986547205e+000,3.8787831615e+000,4.1022386193e+000,4.3145107677e+000,3.8745803140e+000,4.0125325366e+000,3.7478591221e+000,4.0237747160e+000,3.1863926569e+000,4.1350969188e+000,4.3463979854e+000,3.9363227731e+000,
1.7062500000e+001,4.1828932195e+000,4.3282972479e+000,4.0277989275e+000,3.8648432859e+000,4.1559315947e+000,4.3623135896e+000,3.9568101339e+000,4.1441099137e+000,3.7799892234e+000,4.0838326661e+000,3.2583000405e+000,4.1083596591e+000,4.3576205215e+000,3.8456679620e+000,
1.7156250000e+001,4.1621794680e+000,4.4722293464e+000,4.0396226592e+000,3.8877171133e+000,4.1627721342e+000,4.4299421488e+000,4.0192073428e+000,4.1808269533e+000,3.8100509757e+000,4.0935780340e+000,3.2675039819e+000,4.0896172557e+000,4.3595280568e+000,3.9136440206e+000,
1.7250000000e+001,4.0792072168e+000,4.5524250659e+000,3.9510652724e+000,3.8387753087e+000,4.1058952946e+000,4.3587538684e+000,3.9165495483e+000,4.0714296681e+000,3.7685504783e+000,4.1491643193e+000,3.2918207425e+000,4.0885221689e+000,4.4036013127e+000,3.9618228923e+000,
1.7343750000e+001,4.0443384880e+000,4.4936065052e+000,3.9544791962e+000,3.7900400306e+000,4.0974648206e+000,4.3748172767e+000,3.9872465027e+000,4.0634524512e+000,3.6884420428e+000,4.1573823101e+000,3.3076666526e+000,4.0734394317e+000,4.3838184449e+000,3.8494149776e+000,
1.7437500000e+001,4.0785000077e+000,4.4892868812e+000,3.9198437947e+000,3.8063120824e+000,4.0505879450e+000,4.3623222459e+000,3.9466264085e+000,4.1447654401e+000,3.6734148567e+000,4.1719830878e+000,3.2814448698e+000,4.1888254163e+000,4.3216586362e+000,3.8564443320e+000,
1.7531250000e+001,3.9859525217e+000,4.4351519598e+000,3.8674953844e+000,3.7732622354e+000,4.0465730880e+000,4.3149784619e+000,3.9515226056e+000,4.0838135082e+000,3.7136362718e+000,4.1331297384e+000,3.1807414408e+000,4.1439724765e+000,4.0946346079e+000,3.8664877486e+000,
1.7625000000e+001,3.9407367035e+000,4.4550387223e+000,3.7783159118e+000,3.8090029407e+000,4.0789574531e+000,4.3550904793e+000,3.9600268736e+000,4.1080591194e+000,3.7083027104e+000,4.1712248042e+000,3.2329607900e+000,4.1308725984e+000,4.0599462324e+000,3.8348935578e+000,
1.7718750000e+001,4.0043305835e+000,4.5452721872e+000,3.8539397542e+000,3.8761631040e+000,4.1652133449e+000,4.4590079766e+000,3.9542548611e+000,4.2548574306e+000,3.6504624526e+000,4.4132719568e+000,3.2180083579e+000,4.2992034941e+000,3.9779189718e+000,3.8909219230e+000,
1.7812500000e+001,3.9556952367e+000,4.5297869768e+000,3.8252310631e+000,3.7649277488e+000,4.0552258459e+000,4.3752318739e+000,3.9205620059e+000,4.2247171059e+000,3.5815177507e+000,4.3477482607e+000,3.1681800836e+000,4.3066845757e+000,3.9127112790e+000,3.9728444495e+000,
1.7906250000e+001,3.7961219062e+000,4.6047127639e+000,3.7176320671e+000,3.6814034604e+000,3.9377868032e+000,4.2865750571e+000,3.8528200365e+000,4.1333081351e+000,3.5130667594e+000,4.3321054275e+000,3.1917730550e+000,4.2590605011e+000,3.9633224400e+000,3.8942678238e+000,
1.8000000000e+001,3.7863357136e+000,4.5821562009e+000,3.6046818010e+000,3.6625329420e+000,3.8643256279e+000,4.3022174538e+000,3.8296250088e+000,4.0482596505e+000,3.4750227062e+000,4.3062809174e+000,3.3823228750e+000,4.2564538042e+000,4.0681999294e+000,3.8958491028e+000,
1.8093750000e+001,3.7731468903e+000,4.6129089889e+000,3.5904872321e+000,3.6704699454e+000,3.8357896610e+000,4.3004412844e+000,3.7626096874e+000,4.0433414243e+000,3.4561431978e+000,4.3323464413e+000,3.3433810637e+000,4.5170290001e+000,4.0948130128e+000,4.0550856554e+000,
1.8187500000e+001,3.8553103123e+000,4.4879487433e+000,3.5892741794e+000,3.6180037645e+000,3.8043414416e+000,4.2388781234e+000,3.6996142625e+000,4.0131044023e+000,3.4526174601e+000,4.2923286868e+000,3.4357768895e+000,4.5376028255e+000,4.1953383989e+000,4.0582480289e+000,
1.8281250000e+001,3.8368946503e+000,4.3796916634e+000,3.5741874052e+000,3.5815670552e+000,3.7716950593e+000,4.1839503113e+000,3.6909773673e+000,3.9993626511e+000,3.4611272501e+000,4.2038776108e+000,3.3956875209e+000,4.5052336295e+000,4.1273532636e+000,4.0657937407e+000,
1.8375000000e+001,3.8136197993e+000,4.4082589862e+000,3.5962445865e+000,3.5768848792e+000,3.7986245597e+000,4.1924823424e+000,3.6837597538e+000,3.9911297144e+000,3.4908077504e+000,4.2149563764e+000,3.3973454461e+000,4.5119873068e+000,4.3009513300e+000,4.1504687484e+000,
1.8468750000e+001,3.7932029667e+000,4.4071161969e+000,3.6905944059e+000,3.5233726693e+000,3.8060134076e+000,4.2035566170e+000,3.7021053480e+000,3.9312677978e+000,3.4475458778e+000,4.1602185140e+000,3.4692177732e+000,4.4689512297e+000,4.4695550393e+000,4.2189912912e+000,
1.8562500000e+001,5.0470856581e+000,5.6301002646e+000,5.4958026889e+000,5.0897240357e+000,5.4440543273e+000,5.6343958987e+000,5.4425894722e+000,5.2741797753e+000,5.5646984293e+000,5.6279757082e+000,4.9017824442e+000,5.5742447803e+000,5.6137829387e+000,5.0563599459e+000,
1.8656250000e+001,5.2924250213e+000,5.8557417079e+000,5.6880610938e+000,5.3006987506e+000,5.6469150453e+000,5.8027508702e+000,5.6228368795e+000,5.3849223419e+000,5.7831535076e+000,5.7854037306e+000,5.0661940421e+000,5.6784201465e+000,5.7732986005e+000,5.1632526852e+000,
1.8750000000e+001,5.3274800550e+000,5.8738735061e+000,5.7150814737e+000,5.3241898000e+000,5.6493721965e+000,5.8193744066e+000,5.6293349029e+000,5.4058517723e+000,5.8024396999e+000,5.8046469088e+000,5.0763425314e+000,5.6964503574e+000,5.7777867539e+000,5.1775879874e+000,
1.8843750000e+001,5.2968543728e+000,5.8439719691e+000,5.7005757078e+000,5.3168087072e+000,5.6476262803e+000,5.8141539452e+000,5.6222687190e+000,5.4046063007e+000,5.8075196899e+000,5.8101803013e+000,5.0802098564e+000,5.6882600617e+000,5.7745293569e+000,5.1640066743e+000,
1.8937500000e+001,5.2879698485e+000,5.8161638437e+000,5.6977871161e+000,5.3036979571e+000,5.6320518964e+000,5.8038093351e+000,5.6088144732e+000,5.4319241316e+000,5.8010897289e+000,5.7969886903e+000,5.0546791751e+000,5.6832548707e+000,5.7456861394e+000,5.1717893941e+000,
1.9031250000e+001,5.2967061929e+000,5.8094126952e+000,5.6989022472e+000,5.3031386461e+000,5.6372562436e+000,5.8024446599e+000,5.6152847366e+000,5.4272786280e+000,5.7978054080e+000,5.7990503768e+000,5.0339205393e+000,5.6534509985e+000,5.7164174825e+000,5.1246428244e+000,
1.9125000000e+001,5.3122802461e+000,5.8691064238e+000,5.7442027038e+000,5.3672052952e+000,5.6772842008e+000,5.8642508804e+000,5.6545098776e+000,5.4717330819e+000,5.8242979483e+000,5.8188615961e+000,5.0527513023e+000,5.6642207075e+000,5.7273373456e+000,5.1271477938e+000,
1.9218750000e+001,5.3512635000e+000,5.8926867324e+000,5.7644032484e+000,5.3803207428e+000,5.7053644666e+000,5.8865703528e+000,5.6821761703e+000,5.4735611471e+000,5.8495583957e+000,5.8319760248e+000,5.0735514480e+000,5.6754142163e+000,5.7534047304e+000,5.1345899729e+000,
1.9312500000e+001,5.3900870087e+000,5.9057602138e+000,5.7834415978e+000,5.3972594028e+000,5.7137074826e+000,5.9028991153e+000,5.6853119311e+000,5.4771996663e+000,5.8510180304e+000,5.8356778806e+000,5.0686023042e+000,5.6840082964e+000,5.7527318286e+000,5.1122614055e+000,
1.9406250000e+001,5.3764701659e+000,5.8957024201e+000,5.7722230110e+000,5.4002548900e+000,5.7061448558e+000,5.8961677079e+000,5.6773609556e+000,5.4724677167e+000,5.8483613914e+000,5.8343519228e+000,5.0588261401e+000,5.6705490355e+000,5.6944009653e+000,5.0638673164e+000,
1.9500000000e+001,5.3711689490e+000,5.8985361180e+000,5.7615211379e+000,5.3963619101e+000,5.7001065928e+000,5.8921917165e+000,5.6665303938e+000,5.4600627967e+000,5.8445769013e+000,5.8377993848e+000,5.0356625617e+000,5.6580065164e+000,5.6672076546e+000,5.0368478357e+000,
1.9593750000e+001,4.3481246314e+000,4.8188760846e+000,4.4432319730e+000,4.2035778695e+000,4.3472068751e+000,4.7538513066e+000,4.3023303482e+000,4.3214944022e+000,4.3235121831e+000,4.4909930790e+000,3.5609757789e+000,4.4565793194e+000,4.3025688434e+000,3.9666669320e+000,
1.9687500000e+001,4.0456630204e+000,4.3805327000e+000,3.9920426755e+000,3.7682420799e+000,3.8694254393e+000,4.3591525931e+000,3.8244530091e+000,4.0047823244e+000,3.8240271567e+000,4.0379797620e+000,3.1166914469e+000,4.2313701049e+000,3.9392643929e+000,3.7867413532e+000,
1.9781250000e+001,3.9832678018e+000,4.4319688331e+000,3.9621977922e+000,3.7502267840e+000,3.8609063163e+000,4.3278909325e+000,3.8468174568e+000,3.9207533932e+000,3.7387885547e+000,3.9633065917e+000,3.0940928371e+000,4.1738120815e+000,3.9417617755e+000,3.8283971373e+000,
1.9875000000e+001,4.2270139646e+000,4.7185684665e+000,4.3330730988e+000,4.0573019126e+000,4.1381531604e+000,4.6367841106e+000,4.1910651158e+000,3.9919611742e+000,4.0662364230e+000,4.3663923266e+000,3.4399910331e+000,4.4138127880e+000,4.2256579110e+000,4.0757821317e+000,
1.9968750000e+001,4.3279670443e+000,4.7778154222e+000,4.4280552871e+000,4.1130982922e+000,4.2414854065e+000,4.6992776883e+000,4.3059637531e+000,4.0405431612e+000,4.2040719070e+000,4.5068527971e+000,3.5279231739e+000,4.4998554681e+000,4.2559626065e+000,4.1389004468e+000,
2.0062500000e+001,4.4025283062e+000,4.7403341292e+000,4.4811876388e+000,4.1009178006e+000,4.2727000248e+000,4.7217049080e+000,4.3168407199e+000,4.0054783209e+000,4.2115723327e+000,4.4878882108e+000,3.4875781274e+000,4.4965577651e+000,4.2442152360e+000,4.1630735802e+000,
2.0156250000e+001,4.3344964582e+000,4.6167532671e+000,4.3621462109e+000,3.9241157456e+000,4.1034424385e+000,4.5372650596e+000,4.1702755670e+000,3.8372968817e+000,4.1128817407e+000,4.4049837065e+000,3.3763351256e+000,4.4072387344e+000,4.0961191474e+000,4.1626347854e+000,
2.0250000000e+001,4.2544022134e+000,4.4948146374e+000,4.2625296195e+000,3.8388854566e+000,3.9956784519e+000,4.4416932187e+000,4.0743488670e+000,3.8247383807e+000,3.9619635466e+000,4.3671491682e+000,3.1531044936e+000,4.3613691142e+000,3.9183422716e+000,4.1106172992e+000,
2.0343750000e+001,4.1603331366e+000,4.4777265437e+000,4.1707927951e+000,3.7937162857e+000,3.9513451258e+000,4.3873912903e+000,4.0792297563e+000,3.8121020285e+000,3.9696587945e+000,4.3533894272e+000,3.1766024143e+000,4.4088729941e+000,3.9166103941e+000,4.1378767324e+000,
2.0437500000e+001,4.1743666170e+000,4.4559779150e+000,4.2064575544e+000,3.7575353577e+000,4.0054752371e+000,4.3531717269e+000,4.1267543001e+000,3.7914758304e+000,3.9973709910e+000,4.3144937341e+000,3.2054781372e+000,4.4778504524e+000,3.9617040455e+000,4.2066366639e+000,
2.0531250000e+001,4.1648171250e+000,4.4309841489e+000,4.1955451646e+000,3.7111021132e+000,3.9691355484e+000,4.2977553852e+000,4.1118964423e+000,3.7309532136e+000,4.0102823120e+000,4.2548968590e+000,3.2828881971e+000,4.5096411014e+000,4.1389128208e+000,4.3072269618e+000,
2.0625000000e+001,4.1300812169e+000,4.3690765921e+000,4.1530045493e+000,3.6811914528e+000,3.9557838561e+000,4.3151088229e+000,4.1136462071e+000,3.7412930427e+000,4.0115652962e+000,4.2529083602e+000,3.3321091194e+000,4.5021437902e+000,4.1500080805e+000,4.2751222924e+000,
2.0718750000e+001,4.9741556482e+000,4.7030759255e+000,4.4563896873e+000,3.7064465819e+000,4.1319049866e+000,4.4555973978e+000,4.2153955880e+000,3.8914518207e+000,4.0823395999e+000,4.2916698294e+000,3.4051921602e+000,4.5292792392e+000,4.3347097432e+000,4.4691037489e+000,
2.0812500000e+001,5.1483840221e+000,4.8244904932e+000,4.5560257658e+000,3.7019667395e+000,4.2682539333e+000,4.4732701152e+000,4.2682986075e+000,3.9086890915e+000,4.0889965142e+000,4.2660412997e+000,3.4176387371e+000,4.5756908492e+000,4.4365309625e+000,4.5398846285e+000,
2.0906250000e+001,5.1156150694e+000,4.6314803260e+000,4.2644523093e+000,3.1653297213e+000,4.0083888732e+000,3.9819031009e+000,3.9526191196e+000,3.5588310923e+000,3.5380983153e+000,3.6269103201e+000,3.0683113104e+000,4.3535959906e+000,4.2550350271e+000,4.4197439936e+000,
2.1000000000e+001,5.1163917058e+000,4.6765740315e+000,4.2164400836e+000,3.2068829168e+000,3.9616532330e+000,4.0208750211e+000,3.8866330932e+000,3.7215975836e+000,3.5099526616e+000,3.5859306143e+000,3.0231337567e+000,4.3504478178e+000,4.3439877091e+000,4.4325360553e+000,
2.1093750000e+001,5.0692016878e+000,4.6367168948e+000,4.1289822165e+000,3.1025762511e+000,3.9003762644e+000,3.8770487725e+000,3.8065722522e+000,3.6998751753e+000,3.4262992663e+000,3.4772859633e+000,2.9959498543e+000,4.3527420059e+000,4.3313312605e+000,4.4261556249e+000,
2.1187500000e+001,5.0855596688e+000,4.6998122782e+000,4.1918898828e+000,3.2203326887e+000,3.9875247721e+000,3.9433717372e+000,3.8778992844e+000,3.7218289459e+000,3.3965738877e+000,3.6408667892e+000,3.0493367440e+000,4.4138830313e+000,4.3443580463e+000,4.4242630469e+000,
2.1281250000e+001,5.0852585631e+000,4.7451902844e+000,4.1840045825e+000,3.2780439634e+000,3.9854934093e+000,3.9784245160e+000,3.8729997773e+000,3.7329379172e+000,3.4699110132e+000,3.6214476084e+000,3.0025524672e+000,4.4265290354e+000,4.3760116416e+000,4.4684158356e+000,
2.1375000000e+001,5.1410339130e+000,4.9016066499e+000,4.2390585600e+000,3.4418743442e+000,4.1081635993e+000,4.1701295830e+000,3.9734998456e+000,3.7975823952e+000,3.6089679727e+000,3.7796787057e+000,3.0930093458e+000,4.4073057695e+000,4.5361668024e+000,4.5205033096e+000,
2.1468750000e+001,5.1663668598e+000,4.9472996132e+000,4.2499006913e+000,3.4781713042e+000,4.1304693413e+000,4.3046662371e+000,3.9983809954e+000,3.9217049786e+000,3.6757557843e+000,3.9097826040e+000,2.9815472134e+000,4.3441068753e+000,4.4984416414e+000,4.4240516240e+000,
2.1562500000e+001,5.1905026360e+000,5.0263804304e+000,4.3094153757e+000,3.7085284469e+000,4.2344593097e+000,4.5524974198e+000,4.1110949580e+000,4.1320897387e+000,3.8349089224e+000,4.2655666632e+000,3.4734082306e+000,4.3780217043e+000,4.8311974001e+000,4.5015601426e+000,
2.1656250000e+001,5.1730747914e+000,5.0620377050e+000,4.3466799027e+000,3.8169058686e+000,4.3081332283e+000,4.6560137187e+000,4.1633429179e+000,4.2417612631e+000,4.0337456528e+000,4.2910924642e+000,3.5863804204e+000,4.3952682136e+000,4.9814622375e+000,4.6066559266e+000,
2.1750000000e+001,4.4253668397e+000,4.7773381757e+000,3.9441103048e+000,3.8409245709e+000,4.2335667739e+000,4.6535140445e+000,4.0646056996e+000,4.2463547372e+000,4.1597386881e+000,4.4756426796e+000,3.7385266562e+000,4.4435368517e+000,5.0383328614e+000,4.5116287707e+000,
2.1843750000e+001,4.1268010047e+000,4.7779230693e+000,3.8853416734e+000,3.8761046737e+000,4.1129635614e+000,4.6372912429e+000,3.9553263857e+000,4.2637816840e+000,4.2499557965e+000,4.6578103941e+000,3.8433150916e+000,4.3671657611e+000,5.0260410622e+000,4.4142440145e+000,
2.1937500000e+001,4.2130673108e+000,4.8358994181e+000,4.0314638425e+000,3.9010256617e+000,4.2770518213e+000,4.8384332836e+000,4.0527520718e+000,4.3616939088e+000,4.4239087752e+000,4.7372310887e+000,4.1634147817e+000,4.2945197451e+000,5.2573173887e+000,4.6781507345e+000,
2.2031250000e+001,4.2644946388e+000,4.8868882890e+000,4.0722466430e+000,3.9564943966e+000,4.3081159185e+000,4.8766141216e+000,4.0699989017e+000,4.4371957389e+000,4.4154443898e+000,4.8991318661e+000,4.2224311204e+000,4.6700745587e+000,5.2265600978e+000,4.7139315812e+000,
2.2125000000e+001,4.3002575286e+000,4.8776634573e+000,4.0636830335e+000,3.9550110954e+000,4.2960334763e+000,4.8830826207e+000,4.0517235263e+000,4.5335975722e+000,4.4152316969e+000,4.9046562015e+000,4.2696681437e+000,4.6134137109e+000,5.2387683088e+000,4.6825027643e+000,
2.2218750000e+001,4.2555776900e+000,4.8133525987e+000,3.9890795710e+000,3.8720782826e+000,4.2640330681e+000,4.8460287057e+000,3.9709986705e+000,4.5682682394e+000,4.3862873160e+000,4.8730262000e+000,4.3819330899e+000,4.5768386507e+000,5.2393669884e+000,4.6794375392e+000,
2.2312500000e+001,4.2801652856e+000,4.7888887765e+000,4.1002287044e+000,3.8384161127e+000,4.3009547980e+000,4.8417519292e+000,4.0480210721e+000,4.5624548948e+000,4.3439474744e+000,4.8823450277e+000,4.4351937963e+000,4.5494366100e+000,5.2574879672e+000,4.6399751991e+000,
2.2406250000e+001,4.3646172817e+000,4.6939589203e+000,4.0496345258e+000,3.8090601481e+000,4.2398936969e+000,4.7929621091e+000,4.0253777815e+000,4.5678636161e+000,4.3641316044e+000,4.9014714616e+000,4.4426612173e+000,4.5596347724e+000,5.2337181687e+000,4.6043517118e+000,
2.2500000000e+001,4.6919416940e+000,4.8352009075e+000,4.0523948814e+000,3.8355029040e+000,4.3111648633e+000,4.7697004783e+000,4.0539014256e+000,4.5265612356e+000,4.3075036301e+000,4.9270490583e+000,4.3369522791e+000,4.6537428671e+000,5.0719498118e+000,4.5554185881e+000,
2.2593750000e+001,4.7325864500e+000,4.7851760587e+000,3.9946270074e+000,3.6247076969e+000,4.2339692539e+000,4.5281865735e+000,3.9414782646e+000,4.4225596562e+000,4.2026788196e+000,4.8051015216e+000,4.2792951681e+000,4.8028251293e+000,4.9333261531e+000,4.5731722540e+000,
2.2687500000e+001,4.7497684110e+000,4.7104290437e+000,3.8555744367e+000,3.4928434960e+000,4.0561608852e+000,4.4141707596e+000,3.8240574301e+000,4.3494495219e+000,3.9839484777e+000,4.7932370548e+000,4.2041470524e+000,4.8055251765e+000,4.7768536544e+000,4.5401284714e+000,
2.2781250000e+001,4.7509150449e+000,4.7537073187e+000,3.8179870096e+000,3.5378226093e+000,4.0571610839e+000,4.4378313603e+000,3.7964592935e+000,4.3548238996e+000,3.9156665634e+000,4.6069026821e+000,4.1968620075e+000,4.8580585499e+000,4.8090841678e+000,4.6077990072e+000,
2.2875000000e+001,4.6666212375e+000,4.5981312404e+000,3.7203548602e+000,3.4300620496e+000,3.9838626703e+000,4.3517053681e+000,3.7345874515e+000,4.3185823545e+000,3.7152323949e+000,4.4957199146e+000,4.0158917205e+000,4.9457457550e+000,4.6661758048e+000,4.5918987056e+000,
2.2968750000e+001,4.6299897523e+000,4.5158560595e+000,3.5385316793e+000,3.3920824227e+000,3.8106053015e+000,4.0606667395e+000,3.6903148419e+000,4.2402531974e+000,3.5014279728e+000,4.3460672471e+000,3.7123796499e+000,4.8829325977e+000,4.2629645530e+000,4.2448999589e+000,
2.3062500000e+001,4.5892222115e+000,4.4320232343e+000,3.4790191193e+000,3.2643785854e+000,3.7653779954e+000,3.9485007631e+000,3.6968452827e+000,4.0292380884e+000,3.5364614152e+000,4.0917017540e+000,3.6446847531e+000,4.8106597484e+000,4.2887588458e+000,4.3272636614e+000,
2.3156250000e+001,4.6174471434e+000,4.4730636798e+000,3.5294161146e+000,3.2971808326e+000,3.8431652085e+000,4.0094695161e+000,3.8376578617e+000,3.9484745727e+000,3.6514296156e+000,4.1494106386e+000,3.4344980039e+000,4.8429220967e+000,4.3065883348e+000,4.3653275060e+000,
2.3250000000e+001,4.6645012519e+000,4.5208088675e+000,3.7009291134e+000,3.4391784447e+000,4.0043915264e+000,4.1148251608e+000,3.9395944236e+000,4.0683993191e+000,3.7036913277e+000,4.2545204125e+000,3.3415936515e+000,4.8830939145e+000,4.3799203938e+000,4.4269163160e+000,
2.3343750000e+001,4.6823554661e+000,4.6658232975e+000,3.7516984327e+000,3.6955541643e+000,4.0069940999e+000,4.1766204249e+000,3.9693416372e+000,4.1905967527e+000,3.6505908883e+000,4.2898276110e+000,3.2339280120e+000,4.9318004572e+000,4.2859494643e+000,4.4504052755e+000,
2.3437500000e+001,4.6925242018e+000,4.7478018668e+000,3.9319387722e+000,3.6371106309e+000,4.0578121534e+000,4.2063846072e+000,3.9562010384e+000,4.2509813683e+000,3.6062253308e+000,4.2168666729e+000,3.2745604749e+000,4.9668939035e+000,4.4734708789e+000,4.6190615829e+000,
2.3531250000e+001,4.6193797031e+000,4.8350111657e+000,4.3039372837e+000,3.7025575957e+000,4.1924197362e+000,4.2437769424e+000,4.0686302092e+000,4.2625168041e+000,3.5929461085e+000,4.1727890508e+000,3.4405799686e+000,4.8475263111e+000,4.5051093619e+000,4.5461573818e+000,
2.3625000000e+001,4.6250211935e+000,4.8464414220e+000,4.3124364638e+000,3.6651225227e+000,4.1548348256e+000,4.1763122965e+000,4.0837132257e+000,4.1846063171e+000,3.5399450580e+000,4.0987212007e+000,3.2936708167e+000,4.7399362631e+000,4.3841803089e+000,4.4196677267e+000,
2.3718750000e+001,4.6510390882e+000,4.8725244894e+000,4.3442730175e+000,3.6816527633e+000,4.2495133800e+000,4.2025509264e+000,4.1785128318e+000,4.1974486664e+000,3.6128791331e+000,4.1848233412e+000,3.3032234370e+000,4.8267374784e+000,4.4302834381e+000,4.4728341249e+000,
2.3812500000e+001,4.7301710105e+000,4.8496611275e+000,4.3929257144e+000,3.6375482960e+000,4.3078261464e+000,4.1549534672e+000,4.3188457017e+000,4.1732049369e+000,3.7181843915e+000,4.1627479331e+000,3.4032027757e+000,4.7379525931e+000,4.5345202314e+000,4.6056527001e+000,
2.3906250000e+001,4.6939326989e+000,4.8190517815e+000,4.3790285609e+000,3.5757853082e+000,4.2934840939e+000,4.0868850445e+000,4.3029805841e+000,4.1360971974e+000,3.6947316376e+000,4.1852725840e+000,3.4319274941e+000,4.7950137996e+000,4.5300115926e+000,4.6470074450e+000,
2.4000000000e+001,4.6887436822e+000,4.8539836306e+000,4.4161943124e+000,3.6360733847e+000,4.2730640325e+000,4.1471293158e+000,4.2703986435e+000,4.1013034948e+000,3.6832072782e+000,4.2188256045e+000,3.4431020882e+000,4.7012458125e+000,4.5531907090e+000,4.6362204772e+000,
2.4093750000e+001,4.7196648374e+000,4.9088001314e+000,4.4878851010e+000,3.7389823294e+000,4.3049168770e+000,4.2667114450e+000,4.3000500520e+000,4.1256692995e+000,3.6405618969e+000,4.3016172587e+000,3.6552387300e+000,4.6516206479e+000,4.7415679147e+000,4.6584138161e+000,
2.4187500000e+001,4.7367926674e+000,4.9697295084e+000,4.6374182973e+000,3.8970838456e+000,4.4326502993e+000,4.4104125517e+000,4.4504614497e+000,4.2685306437e+000,3.7057468258e+000,4.3534914902e+000,3.7438342590e+000,4.6146531781e+000,4.7659739140e+000,4.6174824407e+000,
2.4281250000e+001,4.7190001705e+000,4.9505675741e+000,4.5832616077e+000,3.8626320549e+000,4.3967964248e+000,4.3768097885e+000,4.4383301461e+000,4.1524301781e+000,3.7243334971e+000,4.3628056495e+000,3.7345400356e+000,4.7053691143e+000,4.6974851804e+000,4.6616696483e+000,
2.4375000000e+001,4.6572860925e+000,4.8980314781e+000,4.5545246498e+000,3.8050362137e+000,4.4843168511e+000,4.4577873230e+000,4.4108541384e+000,4.1361904352e+000,3.9020756977e+000,4.3853259627e+000,3.7670628135e+000,4.6856048063e+000,4.7958103713e+000,4.6833314911e+000,
2.4468750000e+001,4.4143773038e+000,4.5580740970e+000,4.2214595079e+000,3.7685117369e+000,4.3844630162e+000,4.3550725210e+000,4.3774152999e+000,4.0583408476e+000,3.9423837639e+000,4.3986361378e+000,3.7699490630e+000,4.5937498828e+000,4.7622318790e+000,4.5997574828e+000,
2.4562500000e+001,4.2289893439e+000,4.5858654917e+000,4.2957570473e+000,3.8096318699e+000,4.3199894745e+000,4.4571069548e+000,4.3457993016e+000,4.1702664818e+000,3.9358569640e+000,4.4826133001e+000,3.6964251082e+000,4.6189697356e+000,4.7357085569e+000,4.6345878509e+000,
2.4656250000e+001,4.1771308420e+000,4.5565939357e+000,4.3138491569e+000,3.8111208089e+000,4.3406478801e+000,4.4553296623e+000,4.3662429407e+000,4.1609068510e+000,3.9051321541e+000,4.4589570962e+000,3.6648547933e+000,4.7006270030e+000,4.6855182413e+000,4.6732305916e+000,
2.4750000000e+001,4.1207323703e+000,4.5221970619e+000,4.2701983544e+000,3.7939935893e+000,4.3266093443e+000,4.4364717505e+000,4.2698494158e+000,4.1514181363e+000,3.9314484362e+000,4.4181671411e+000,3.7499830873e+000,4.9969968307e+000,4.9654041796e+000,5.1140959074e+000,
2.4843750000e+001,4.0822049655e+000,4.4887445873e+000,4.2395911340e+000,3.7603694959e+000,4.3225277509e+000,4.4191085994e+000,4.2298832214e+000,4.1412449855e+000,3.9838249942e+000,4.4072821051e+000,3.8694748056e+000,5.0723253654e+000,5.0382064632e+000,5.1545006107e+000,
2.4937500000e+001,4.2279637404e+000,4.5322448730e+000,4.2592815060e+000,3.8237970581e+000,4.4280633977e+000,4.4937716995e+000,4.2917195563e+000,4.2546771107e+000,4.0554295201e+000,4.4477327697e+000,3.9288988072e+000,5.1750807703e+000,5.1120290372e+000,5.2475396516e+000,
2.5031250000e+001,4.3839517040e+000,4.5525202562e+000,4.2620053855e+000,3.8016426863e+000,4.4954805838e+000,4.5094514652e+000,4.2998457350e+000,4.2752957902e+000,4.1530633266e+000,4.4304137570e+000,4.0163105997e+000,5.2258885189e+000,5.1793051455e+000,5.3319716905e+000,
2.5125000000e+001,4.4374355029e+000,4.6178235088e+000,4.2876726349e+000,3.8398047747e+000,4.6271144750e+000,4.5831451130e+000,4.3612397342e+000,4.3030028604e+000,4.2583061994e+000,4.4527059363e+000,4.0793683376e+000,5.2734084706e+000,5.2951078891e+000,5.4630594028e+000,
2.5218750000e+001,4.3765821340e+000,4.4969761193e+000,4.0994033377e+000,3.6247861380e+000,4.4987267856e+000,4.4502864048e+000,4.2050582962e+000,4.1454897833e+000,4.1722120206e+000,4.3288946681e+000,4.0253898553e+000,5.2522225396e+000,5.2728730928e+000,5.4616587638e+000,
2.5312500000e+001,4.4423431661e+000,4.7530809098e+000,4.2443696857e+000,3.6818178953e+000,4.5297068341e+000,4.4613298847e+000,4.2997125035e+000,4.1630920944e+000,4.1821430025e+000,4.3182271221e+000,4.0838166947e+000,5.1953362818e+000,5.3367572121e+000,5.4779250395e+000,
2.5406250000e+001,4.3914317545e+000,4.6570096296e+000,4.1778119789e+000,3.5542179620e+000,4.4204395936e+000,4.3538139402e+000,4.2201582386e+000,4.0048038727e+000,4.0588853925e+000,4.2457200765e+000,4.0160874180e+000,5.2332527239e+000,5.2451062495e+000,5.4710844604e+000,
2.5500000000e+001,4.4049770944e+000,4.5615855918e+000,4.1379666185e+000,3.5124072392e+000,4.4132822503e+000,4.2840021239e+000,4.1789645075e+000,3.8833420921e+000,4.0111894907e+000,4.1158815148e+000,3.9747718913e+000,5.2164993671e+000,5.2394719618e+000,5.4537451191e+000,
2.5593750000e+001,4.4070374544e+000,4.5494776363e+000,4.1221260264e+000,3.4508378592e+000,4.4305817686e+000,4.3134872233e+000,4.2425771634e+000,3.8829608781e+000,4.0401873172e+000,4.1605877952e+000,4.0224120372e+000,5.2547387339e+000,5.2831677812e+000,5.5097946969e+000,
2.5687500000e+001,4.4014082640e+000,4.5580775864e+000,4.1338252494e+000,3.5112263427e+000,4.4829988881e+000,4.4050879831e+000,4.2783653802e+000,4.0008044962e+000,4.1122066781e+000,4.1642313654e+000,4.0302385463e+000,5.1850892636e+000,5.3278883294e+000,5.5049236212e+000,
2.5781250000e+001,4.3111943245e+000,4.5520108203e+000,4.1107191896e+000,3.5689022526e+000,4.3808697461e+000,4.4522663074e+000,4.2505295357e+000,4.0342311944e+000,4.0001639852e+000,4.3172128690e+000,3.8373985097e+000,4.9237002025e+000,5.0539771854e+000,5.1803373436e+000,
2.5875000000e+001,4.4179637448e+000,4.7955254509e+000,4.2314538379e+000,3.9372398872e+000,4.4814818396e+000,4.6789239952e+000,4.3926238695e+000,4.2914606193e+000,3.9565320102e+000,4.5246227150e+000,3.7829795741e+000,4.8815191741e+000,4.9753149143e+000,5.1315180432e+000,
2.5968750000e+001,4.2920220541e+000,4.7710707971e+000,4.2468503330e+000,3.9866375043e+000,4.4550595930e+000,4.6670299098e+000,4.3865657952e+000,4.2105976414e+000,4.0247231039e+000,4.5082458839e+000,3.6427466934e+000,4.7834678006e+000,4.8341063197e+000,5.0075547063e+000,
2.6062500000e+001,4.1213240083e+000,4.8168485542e+000,4.2953161537e+000,4.0089547012e+000,4.4382934155e+000,4.6831997934e+000,4.4560855843e+000,4.1292621687e+000,3.9448391396e+000,4.4044408078e+000,3.5584689987e+000,4.6820060770e+000,4.7812416207e+000,4.9479204058e+000,
2.6156250000e+001,4.0518789744e+000,4.7652075052e+000,4.2322447319e+000,4.0121186903e+000,4.2717625988e+000,4.6206897999e+000,4.3145540846e+000,4.1827500652e+000,3.8650472911e+000,4.4216552883e+000,3.2083731349e+000,4.6917840911e+000,4.4473716400e+000,4.7848158867e+000,
2.6250000000e+001,4.0881237478e+000,4.7164412913e+000,4.1764793724e+000,4.0649660750e+000,4.2440414587e+000,4.6216602552e+000,4.2426996855e+000,4.1994621655e+000,3.8717438771e+000,4.4835215378e+000,3.1344241032e+000,4.7763272558e+000,4.4520738286e+000,4.8318498286e+000,
2.6343750000e+001,4.0899518044e+000,4.7119952010e+000,4.1680004250e+000,4.2590350470e+000,4.1802894481e+000,4.6953811544e+000,4.1315735853e+000,4.3517398614e+000,3.8223516467e+000,4.5555174696e+000,3.0115486431e+000,4.8317147084e+000,4.2831595319e+000,4.7752827241e+000,
2.6437500000e+001,4.3286881625e+000,4.7325101370e+000,4.2083344801e+000,4.2922002753e+000,4.2059311294e+000,4.6593294026e+000,4.1228841726e+000,4.3533446744e+000,3.8689276454e+000,4.5096252343e+000,3.0289989317e+000,4.8425499936e+000,4.3512713837e+000,4.8218182424e+000,
2.6531250000e+001,4.6996869079e+000,4.9154150638e+000,4.3576856819e+000,4.2971095477e+000,4.3065867309e+000,4.6572331130e+000,4.1210636419e+000,4.3538722101e+000,3.8148015278e+000,4.5058474666e+000,3.4585254284e+000,4.9096129126e+000,4.3611395082e+000,4.8959688998e+000,
2.6625000000e+001,4.8562050879e+000,4.9310680212e+000,4.3613916314e+000,4.3067194482e+000,4.3539388760e+000,4.6164487956e+000,4.1473001729e+000,4.3102739446e+000,3.7708349106e+000,4.4694261379e+000,3.5345652322e+000,4.9880266205e+000,4.3346999321e+000,4.8837130367e+000,
2.6718750000e+001,4.9005559512e+000,4.9744766675e+000,4.4548517109e+000,4.3661731507e+000,4.3782502496e+000,4.5552733213e+000,4.0933267718e+000,4.2550953290e+000,3.6945303484e+000,4.4609566427e+000,3.5363723232e+000,5.0323382144e+000,4.1995907751e+000,4.8690857209e+000,
2.6812500000e+001,4.9016117390e+000,4.8771605422e+000,4.4371185822e+000,4.3050718936e+000,4.3560075344e+000,4.4585228648e+000,4.0626687226e+000,4.1896677016e+000,3.5712171146e+000,4.2923554156e+000,3.5184903224e+000,5.0580314105e+000,4.2107408065e+000,4.8767750020e+000,
2.6906250000e+001,4.8373455657e+000,4.8326107281e+000,4.3436342270e+000,4.0986104788e+000,4.2454926537e+000,4.1852095416e+000,3.8996053728e+000,4.0868430514e+000,3.5099544722e+000,3.9950060734e+000,3.4571461105e+000,4.9869261784e+000,4.2419238494e+000,4.8443059715e+000,
2.7000000000e+001,4.8362192321e+000,4.8473888100e+000,4.2911762884e+000,4.0965894854e+000,4.1535527460e+000,4.2204733016e+000,3.7988300570e+000,4.1944460699e+000,3.2845399025e+000,4.0558855871e+000,3.4821482984e+000,5.0622449369e+000,4.2831749993e+000,4.9198176888e+000,
2.7093750000e+001,4.8413978162e+000,4.7046755727e+000,4.1960796131e+000,4.0167940911e+000,4.1226430686e+000,4.0916299093e+000,3.6854064710e+000,4.2481245608e+000,3.3176928788e+000,4.0158897145e+000,3.4797786484e+000,5.0460469398e+000,4.2451214505e+000,4.9346773295e+000,
2.7187500000e+001,4.9096098775e+000,4.7165180775e+000,4.1937591565e+000,3.9259003530e+000,4.3025250767e+000,4.1567410647e+000,3.6723340015e+000,4.2805918256e+000,3.3024639668e+000,3.9444811848e+000,3.5740866246e+000,5.0971569125e+000,4.3278218669e+000,5.0117460519e+000,
2.7281250000e+001,4.8557967349e+000,4.6851726801e+000,4.1496486384e+000,3.7639049328e+000,4.3351631028e+000,4.0666052934e+000,3.9464879585e+000,4.3385360994e+000,3.5528994803e+000,3.8054007949e+000,3.5913166734e+000,5.1296792167e+000,4.4744735883e+000,5.0988474948e+000,
2.7375000000e+001,4.8304758957e+000,4.6088176170e+000,4.1109398177e+000,3.4979640657e+000,4.3171733535e+000,3.9668439817e+000,3.9554952123e+000,4.2395195110e+000,3.6042816808e+000,3.7132566584e+000,3.5885450102e+000,5.0680355036e+000,4.4803287212e+000,5.1064123347e+000,
2.7468750000e+001,4.5817546227e+000,4.5168304980e+000,3.9346320098e+000,3.4542262317e+000,4.2215336182e+000,4.0186274523e+000,3.8885916533e+000,4.2709713219e+000,3.5283828561e+000,3.7351718998e+000,3.5983421292e+000,5.0685108675e+000,4.4407095044e+000,5.0854227200e+000,
2.7562500000e+001,4.3590825001e+000,4.3950410958e+000,3.8336114015e+000,3.5367811446e+000,4.1296954166e+000,4.0495407949e+000,3.8489386327e+000,4.2986365025e+000,3.5389775229e+000,4.0070226788e+000,3.1003185640e+000,5.0832319425e+000,4.4093178518e+000,5.0766200650e+000,
2.7656250000e+001,4.0635873945e+000,4.6402334215e+000,3.7720587637e+000,3.6039058211e+000,3.9646219283e+000,4.0958381425e+000,3.7286718986e+000,4.3821715552e+000,3.5784541492e+000,4.0620121821e+000,2.8447829596e+000,5.0283372302e+000,4.3606374048e+000,5.0171977386e+000,
2.7750000000e+001,4.0463362394e+000,4.7192562389e+000,3.6915842582e+000,3.6266637002e+000,3.9482267810e+000,4.1369101984e+000,3.6957813103e+000,4.3619733314e+000,3.6230483061e+000,4.1414138962e+000,2.8675202610e+000,4.9972688179e+000,4.3528404346e+000,4.9789211294e+000,
2.7843750000e+001,3.9866975596e+000,4.7720481112e+000,3.7455798868e+000,3.7346493922e+000,3.9484578094e+000,4.2514181096e+000,3.7173686535e+000,4.4185043039e+000,3.6247221698e+000,4.1708540839e+000,2.9047014587e+000,4.9912413145e+000,4.3351928846e+000,4.9629561160e+000,
2.7937500000e+001,4.1058068063e+000,4.7888881336e+000,3.8500267003e+000,3.8961536607e+000,3.9982889178e+000,4.3450187749e+000,3.7039522778e+000,4.4139746762e+000,3.6692304024e+000,4.2190222425e+000,2.9778473667e+000,4.9231945649e+000,4.2752967322e+000,4.8876270961e+000,
2.8031250000e+001,4.1652333766e+000,4.8765846920e+000,3.9382241857e+000,4.1896612230e+000,4.0321767223e+000,4.4463184884e+000,3.7578994411e+000,4.5173490556e+000,3.6643327107e+000,4.3181080980e+000,3.0246305266e+000,4.9636166762e+000,4.2791583718e+000,4.9179734847e+000,
2.8125000000e+001,4.1082599564e+000,4.9336238383e+000,4.0408522277e+000,4.3367986983e+000,3.9741897030e+000,4.4456423750e+000,3.8303631473e+000,4.5281373221e+000,3.6613032757e+000,4.4348580361e+000,3.0287079946e+000,4.9839219525e+000,4.2987113006e+000,4.9182438474e+000,
2.8218750000e+001,4.0774372049e+000,4.9879239057e+000,4.1668640473e+000,4.5864928650e+000,3.8650310082e+000,4.5937108552e+000,3.9141327484e+000,4.6035570569e+000,3.6869972037e+000,4.5902215128e+000,2.8484091385e+000,4.8238126965e+000,3.9971891231e+000,4.6293062809e+000,
2.8312500000e+001,4.1278152945e+000,5.0313491994e+000,4.1894811708e+000,4.6101037566e+000,3.8239834442e+000,4.6425641974e+000,3.7764587797e+000,4.6172163072e+000,3.4901564235e+000,4.6048588033e+000,2.8131455311e+000,4.8293356454e+000,3.8558644459e+000,4.5970993979e+000,
2.8406250000e+001,4.1442219860e+000,5.0947883768e+000,4.2446045849e+000,4.6579415256e+000,3.8800542465e+000,4.6919454084e+000,3.8495248814e+000,4.7189602945e+000,3.5160312844e+000,4.6367312229e+000,2.8817613309e+000,4.8305772314e+000,3.8719503358e+000,4.4902105780e+000,
2.8500000000e+001,4.1291135393e+000,5.1006627280e+000,4.2318653620e+000,4.6592375882e+000,3.9099800726e+000,4.6678295008e+000,3.8800263994e+000,4.6775113362e+000,3.6018602960e+000,4.5792414257e+000,2.7869118014e+000,4.7534592146e+000,3.8000652085e+000,4.4052189136e+000,
2.8593750000e+001,4.1064118762e+000,4.9491346660e+000,4.1915979799e+000,4.6215565055e+000,3.9090397187e+000,4.6153853298e+000,3.9162452076e+000,4.6168091735e+000,3.5977521361e+000,4.4498056528e+000,2.7725695788e+000,4.6927826179e+000,3.8066789469e+000,4.4063317349e+000,
2.8687500000e+001,4.1101199738e+000,4.8932703185e+000,4.1509176274e+000,4.5257990903e+000,3.8780783487e+000,4.5666842587e+000,3.8899704787e+000,4.5665255208e+000,3.6218145091e+000,4.3588643477e+000,2.6945417979e+000,4.6788242572e+000,3.9218836197e+000,4.3753879622e+000,
2.8781250000e+001,4.1305070595e+000,4.9037364488e+000,4.1950327779e+000,4.5417348889e+000,3.9409141516e+000,4.6168647513e+000,4.0436690858e+000,4.5669806638e+000,3.7452516317e+000,4.4183885326e+000,2.8082124143e+000,4.7211423105e+000,4.0137299669e+000,4.3866778890e+000,
2.8875000000e+001,4.2404070713e+000,4.9467329628e+000,4.2839947831e+000,4.5197565158e+000,4.1393315948e+000,4.5525478919e+000,4.2349360431e+000,4.4857723177e+000,3.8969645531e+000,4.5103083841e+000,2.7212254556e+000,4.7112705170e+000,3.9882251296e+000,4.3677745139e+000,
2.8968750000e+001,4.1290175699e+000,4.8932148860e+000,4.2582423547e+000,4.4119062938e+000,4.0855597808e+000,4.4806177594e+000,4.2300752177e+000,4.4234980942e+000,3.8554017087e+000,4.4723685642e+000,2.6554150480e+000,4.6771113803e+000,4.0137627147e+000,4.3675800629e+000,
2.9062500000e+001,4.1528742140e+000,4.7649272562e+000,4.2416480897e+000,4.1907807025e+000,4.0747588165e+000,4.4029296957e+000,4.2554178329e+000,4.3619899310e+000,3.9190713887e+000,4.3814849861e+000,2.7566120055e+000,4.5620798692e+000,4.0339106109e+000,4.2200269568e+000,
2.9156250000e+001,4.1825015279e+000,4.8698135853e+000,4.2550082712e+000,4.1479641387e+000,4.1336109929e+000,4.4736575970e+000,4.2629365778e+000,4.3445283032e+000,3.9370447589e+000,4.4409357779e+000,2.8197913076e+000,4.6970613189e+000,4.0887969397e+000,4.2250581264e+000,
2.9250000000e+001,4.5532698543e+000,5.2837823609e+000,4.4661708069e+000,4.3444544133e+000,4.3522740268e+000,4.7024795810e+000,4.3102996250e+000,4.5315726238e+000,4.0345898120e+000,4.6936616509e+000,2.9309505607e+000,4.8165917284e+000,4.1580552602e+000,4.2954831788e+000,
2.9343750000e+001,4.6132610371e+000,5.2553793163e+000,4.4548029616e+000,4.3571479722e+000,4.3949387591e+000,4.7611065749e+000,4.3168569936e+000,4.5655233753e+000,4.0609879188e+000,4.7249540933e+000,2.9237963722e+000,4.8213487336e+000,4.2237967190e+000,4.3346590529e+000,
2.9437500000e+001,4.6391536289e+000,5.2738447304e+000,4.5245552312e+000,4.4075047752e+000,4.5055415571e+000,4.8711028425e+000,4.3632030189e+000,4.6296614601e+000,4.1096497567e+000,4.7993627396e+000,2.9413988855e+000,4.8281511344e+000,4.1783862999e+000,4.2822444467e+000,
2.9531250000e+001,4.6117277588e+000,5.2673937646e+000,4.5377112070e+000,4.3946478424e+000,4.4735844957e+000,4.8837824854e+000,4.3313969633e+000,4.6696242398e+000,4.0657856293e+000,4.7903705723e+000,2.9696986176e+000,4.7708366096e+000,4.1367222520e+000,4.1624703051e+000,
2.9625000000e+001,4.6151812663e+000,5.2816317415e+000,4.5095322071e+000,4.4165566896e+000,4.4781258643e+000,4.9074672689e+000,4.3279391793e+000,4.7224642489e+000,4.1169438554e+000,4.8086202836e+000,2.9548107423e+000,4.7574167619e+000,4.1451252871e+000,4.1121657891e+000,
2.9718750000e+001,4.5927253426e+000,5.2544823993e+000,4.5001785983e+000,4.4317342917e+000,4.4617541269e+000,4.9110224158e+000,4.2641243105e+000,4.7079121687e+000,4.0298873873e+000,4.8039736899e+000,2.9596071198e+000,4.7064603875e+000,4.0811273152e+000,4.1627916695e+000,
2.9812500000e+001,4.5229556251e+000,5.1641577649e+000,4.4209190933e+000,4.3946189617e+000,4.3509473587e+000,4.8801317432e+000,4.1253696247e+000,4.6762493402e+000,3.9560773106e+000,4.7318473577e+000,2.9696761257e+000,4.7117401386e+000,4.0568839603e+000,4.1452081275e+000,
2.9906250000e+001,4.4500132246e+000,5.1252704465e+000,4.3131587502e+000,4.3354525580e+000,4.2074174151e+000,4.8250930849e+000,3.9700484753e+000,4.6332145654e+000,3.8700223585e+000,4.6237888638e+000,3.0217941288e+000,4.6747936338e+000,3.9727936404e+000,4.0840094628e+000,
3.0000000000e+001,4.4254998070e+000,5.1486059362e+000,4.3045012507e+000,4.3395126408e+000,4.2160788146e+000,4.8381836584e+000,3.9560705729e+000,4.6287092081e+000,3.9258019083e+000,4.6346727407e+000,3.0239617923e+000,4.7086803977e+000,3.9940372952e+000,4.1212193637e+000,
3.0093750000e+001,4.3779945617e+000,5.1046612128e+000,4.2655342771e+000,4.3004417329e+000,4.2206362106e+000,4.8076730279e+000,3.9127478733e+000,4.6003753111e+000,3.8548677940e+000,4.6364812990e+000,2.9506839282e+000,4.7193613893e+000,3.8884244793e+000,4.1186872635e+000,
3.0187500000e+001,4.1560888114e+000,4.8602747380e+000,4.0147954234e+000,3.9616335328e+000,4.0160318336e+000,4.5604432048e+000,3.7268185093e+000,4.3974814144e+000,3.7457764998e+000,4.3197799092e+000,2.8425902778e+000,4.4067038097e+000,3.7385962990e+000,3.8615545447e+000,
3.0281250000e+001,3.7741315813e+000,4.3443367434e+000,3.7352734650e+000,3.4961590439e+000,3.7094639526e+000,4.3146790821e+000,3.6357958077e+000,3.9929816535e+000,3.7253405390e+000,3.9336645707e+000,2.8960339330e+000,4.1861014845e+000,3.6267721710e+000,3.7489085146e+000,
3.0375000000e+001,3.7039777666e+000,4.2075594356e+000,3.6389490282e+000,3.2861819387e+000,3.6044999178e+000,4.2031628832e+000,3.6091530208e+000,3.8024010741e+000,3.6262496877e+000,3.7443021122e+000,3.1872035225e+000,4.4162918439e+000,3.9865374116e+000,4.1405924739e+000,
3.0468750000e+001,3.7686471969e+000,4.2038944807e+000,3.4307211610e+000,3.0743902191e+000,3.5404111915e+000,4.1339975742e+000,3.5326555922e+000,3.6781988765e+000,3.7245744619e+000,3.6939298370e+000,3.2555540183e+000,4.4454587333e+000,4.2859738764e+000,4.3362669555e+000,
3.0562500000e+001,3.8679793267e+000,4.2594533314e+000,3.4732030028e+000,2.9828685217e+000,3.5254209514e+000,4.1448496397e+000,3.6276151505e+000,3.6083281156e+000,3.7094199786e+000,3.6429069658e+000,3.2438596025e+000,4.4257759515e+000,4.2887964370e+000,4.3864292291e+000,
3.0656250000e+001,3.8892511503e+000,4.2871266293e+000,3.5273183006e+000,2.8506659250e+000,3.5697311866e+000,4.1251663823e+000,3.6622440990e+000,3.4659666881e+000,3.6913193349e+000,3.5897220899e+000,3.2544361966e+000,4.4053633625e+000,4.2854572724e+000,4.3976292472e+000,
3.0750000000e+001,4.1953785262e+000,4.6153925798e+000,4.0877890245e+000,2.9244752004e+000,3.7717078310e+000,4.0506286481e+000,3.7917021950e+000,3.4090308460e+000,3.7444116258e+000,3.6117998875e+000,3.2207518013e+000,4.3544817461e+000,4.2772469336e+000,4.3563492351e+000,
3.0843750000e+001,4.5551294368e+000,4.6418404909e+000,4.1436970321e+000,2.9770999781e+000,4.0175781248e+000,4.1298840548e+000,3.8875326640e+000,3.5369253137e+000,3.7458251222e+000,3.7663700627e+000,3.2172227468e+000,4.4553996939e+000,4.2787604567e+000,4.3873801146e+000,
3.0937500000e+001,4.5718338026e+000,4.6558338242e+000,4.1658956419e+000,3.0186464472e+000,4.0604648545e+000,4.1603053286e+000,3.9094608121e+000,3.5459121434e+000,3.7499669658e+000,3.8426714107e+000,3.2031314183e+000,4.3437257855e+000,4.2893410682e+000,4.3752549221e+000,
3.1031250000e+001,4.5901669411e+000,4.6592321084e+000,4.1324881886e+000,2.9973554111e+000,4.0248474380e+000,4.1839169652e+000,3.8727280877e+000,3.6896100460e+000,3.6919523415e+000,3.8205243563e+000,3.2726476314e+000,4.4021118214e+000,4.2893981608e+000,4.4066732650e+000,
3.1125000000e+001,4.5925488628e+000,4.6482412655e+000,4.1224198371e+000,3.0196661821e+000,4.0549538282e+000,4.1695148105e+000,3.8654114768e+000,3.7900556197e+000,3.7462468154e+000,3.8120376502e+000,3.3134486214e+000,4.3914577816e+000,4.3265499265e+000,4.4105926936e+000,
3.1218750000e+001,4.5892678301e+000,4.5858134165e+000,4.0871131120e+000,2.9364563285e+000,4.1310615447e+000,4.1742069537e+000,3.8634963849e+000,3.8569043195e+000,3.7368232749e+000,3.7832999224e+000,3.3419321088e+000,4.3746425687e+000,4.3616530017e+000,4.4077705152e+000,
3.1312500000e+001,4.4807230200e+000,4.6041691440e+000,4.0186589040e+000,2.9445406163e+000,4.0597036728e+000,4.1076345198e+000,3.7821645693e+000,3.8116015170e+000,3.7193371110e+000,3.7401489541e+000,3.1732441838e+000,4.4203161275e+000,4.3051893440e+000,4.4076245997e+000,
3.1406250000e+001,4.4751766628e+000,4.5806052103e+000,3.9865870044e+000,2.9675546530e+000,4.0053802629e+000,3.9162205856e+000,3.7332420294e+000,3.7197416653e+000,3.6273793190e+000,3.7013631130e+000,2.9303643196e+000,4.1240767663e+000,3.7399331129e+000,4.0111938459e+000,
3.1500000000e+001,4.4797055852e+000,4.7271090398e+000,4.1247081690e+000,3.2190023808e+000,3.9959605793e+000,3.8790279636e+000,3.7018184766e+000,3.7650073966e+000,3.6235945710e+000,3.9496296669e+000,2.9388996706e+000,4.2767820872e+000,3.6198941156e+000,4.0854327990e+000,
3.1593750000e+001,4.4889216287e+000,4.8090142486e+000,4.1462071864e+000,3.3362999311e+000,4.0565582962e+000,4.0304542116e+000,3.7279730092e+000,3.8190770943e+000,3.6840767668e+000,4.2270644901e+000,2.9984106813e+000,4.3471576992e+000,3.6185271023e+000,4.0106936813e+000,
3.1687500000e+001,4.5459631099e+000,4.8372476420e+000,4.0957587611e+000,3.3986199029e+000,4.0568060228e+000,4.0464509422e+000,3.7397817965e+000,3.9115181981e+000,3.6707420226e+000,4.2864501696e+000,3.1559659729e+000,4.5571425990e+000,3.9352606782e+000,4.2878311284e+000,
3.1781250000e+001,4.2080147890e+000,4.6054575657e+000,3.6352794330e+000,3.3372636653e+000,4.0398581021e+000,4.0840682129e+000,3.7132479833e+000,3.9848867407e+000,3.6725798147e+000,4.2674061336e+000,3.0509755394e+000,4.5084722275e+000,3.9496765965e+000,4.2340950588e+000,
3.1875000000e+001,4.0004805678e+000,4.6323651201e+000,3.6032949300e+000,3.3938288414e+000,3.8827365789e+000,4.0043254282e+000,3.5609253730e+000,3.9108854674e+000,3.7007515384e+000,4.2049199749e+000,3.0748111999e+000,4.4091269941e+000,4.0143285895e+000,4.2413850211e+000,
3.1968750000e+001,4.0156649153e+000,4.7162504852e+000,3.6133374599e+000,3.4347268858e+000,3.8192673819e+000,4.0579633459e+000,3.5106706746e+000,4.0287414837e+000,3.7121143188e+000,4.1984217564e+000,2.9801451333e+000,4.3971838721e+000,4.0169578177e+000,4.1498062831e+000,
3.2062500000e+001,3.9767936997e+000,4.7397137562e+000,3.6061753734e+000,3.4791145876e+000,3.8226337912e+000,4.0804446794e+000,3.4960852146e+000,3.9679992805e+000,3.6889321364e+000,4.2052109435e+000,2.9365686986e+000,4.2703976222e+000,3.9877064619e+000,4.0521467419e+000,
3.2156250000e+001,4.0080604969e+000,4.7079719588e+000,3.7906097469e+000,3.5201215482e+000,3.8035527631e+000,4.0426529045e+000,3.5202542845e+000,3.8804762718e+000,3.5898037431e+000,4.1992119442e+000,3.0102824370e+000,4.2445037344e+000,4.0650356727e+000,4.1249383349e+000,
3.2250000000e+001,4.0356610584e+000,4.7136137405e+000,3.8805822747e+000,3.5584404083e+000,3.8218780115e+000,4.0655189545e+000,3.6443429007e+000,3.9224344889e+000,3.5503025862e+000,4.2106745258e+000,3.0565179815e+000,4.2762280101e+000,4.0736654070e+000,4.1729755303e+000,
3.2343750000e+001,4.1126277481e+000,4.8020439067e+000,4.0246368724e+000,3.6850261943e+000,3.9103208498e+000,4.1714090226e+000,3.7822769158e+000,3.9682938590e+000,3.4940161740e+000,4.2343058097e+000,3.0298239783e+000,4.2547159565e+000,4.0984648725e+000,4.1614163555e+000,
3.2437500000e+001,4.0896479008e+000,4.8267454586e+000,4.0326948474e+000,3.7106868420e+000,3.9355885521e+000,4.2167102017e+000,3.7864352659e+000,3.9553991018e+000,3.5458959640e+000,4.2118948523e+000,3.0863548120e+000,4.3072185055e+000,4.1250286454e+000,4.1750530667e+000,
3.2531250000e+001,3.9455154036e+000,4.6352958363e+000,3.8461590098e+000,3.5531980984e+000,3.8519437870e+000,4.1374829548e+000,3.6963602531e+000,3.8500160994e+000,3.3699741448e+000,3.9185342091e+000,3.0435525356e+000,4.1499972778e+000,4.0997862595e+000,4.1244840990e+000,
3.2625000000e+001,3.8124114457e+000,4.4362659040e+000,3.8618764210e+000,3.4913814002e+000,3.8022094670e+000,3.9717395024e+000,3.7080055258e+000,3.7348266860e+000,3.3092429617e+000,3.6693583860e+000,2.9114701900e+000,4.0137356112e+000,4.0357536923e+000,4.0916155863e+000,
3.2718750000e+001,3.9032672994e+000,4.4370350697e+000,3.8650424619e+000,3.4872153231e+000,3.7130257201e+000,3.9046503325e+000,3.6761383834e+000,3.6453041315e+000,3.2639934118e+000,3.5688467722e+000,2.8340100744e+000,3.6473081560e+000,3.8629847843e+000,3.7645000871e+000,
3.2812500000e+001,3.9388463279e+000,4.4704137151e+000,3.8604478062e+000,3.4547525825e+000,3.6263680183e+000,3.9415505970e+000,3.6490631109e+000,3.6352133170e+000,3.2058710865e+000,3.6463158369e+000,2.8595049683e+000,3.6822401169e+000,3.8312248789e+000,3.7838413788e+000,
3.2906250000e+001,4.0235274874e+000,4.4577356108e+000,3.9463304106e+000,3.4553276498e+000,3.6720021689e+000,3.9681530086e+000,3.7409849062e+000,3.6633629363e+000,3.2071572687e+000,3.6709043960e+000,2.8729878835e+000,3.6637242136e+000,3.7816412577e+000,3.6989975865e+000,
3.3000000000e+001,4.0727590234e+000,4.3077760516e+000,3.9873908867e+000,3.3804308285e+000,3.7334826511e+000,3.9479876408e+000,3.7738324941e+000,3.6631562333e+000,3.1698411488e+000,3.6324281559e+000,2.9230423728e+000,3.7790207076e+000,3.7913837860e+000,3.7498665282e+000,
3.3093750000e+001,4.0700447393e+000,4.3522038634e+000,3.9658484270e+000,3.3625113139e+000,3.7209675707e+000,3.8728417482e+000,3.8028269323e+000,3.6132323307e+000,3.1491074794e+000,3.6412833766e+000,2.8833738429e+000,3.8179799319e+000,3.7300386729e+000,3.7827035755e+000,
3.3187500000e+001,4.1211255671e+000,4.4202119847e+000,3.8817958489e+000,3.3749918838e+000,3.6994175655e+000,3.8427754633e+000,3.7377192952e+000,3.5496216638e+000,3.0761792132e+000,3.5767495896e+000,2.9026032466e+000,3.8210359117e+000,3.7565460769e+000,3.7789692330e+000,
3.3281250000e+001,4.0934052015e+000,4.5319296370e+000,3.8556019941e+000,3.4145364451e+000,3.5990174728e+000,3.7942322003e+000,3.6757836806e+000,3.6166439346e+000,3.0661031400e+000,3.6304075287e+000,2.8798353730e+000,3.8146411570e+000,3.7829958486e+000,3.7205472501e+000,
3.3375000000e+001,4.0272011125e+000,4.4435655097e+000,3.7862433947e+000,3.2660800957e+000,3.5245819156e+000,3.6967104220e+000,3.5814210282e+000,3.6589451206e+000,3.0958561365e+000,3.6839373302e+000,2.7737839631e+000,3.9525175221e+000,3.6723004199e+000,3.7661860860e+000,
3.3468750000e+001,4.0187840097e+000,4.3778406518e+000,3.7778277716e+000,3.2215607699e+000,3.4442785790e+000,3.6488612584e+000,3.5650517081e+000,3.7146486286e+000,3.1657125035e+000,3.6248532956e+000,2.7336133167e+000,3.8086397840e+000,3.5848903146e+000,3.6025548191e+000,
3.3562500000e+001,3.9895137705e+000,4.4252803392e+000,3.8155515945e+000,3.1914991047e+000,3.4940630565e+000,3.6496856245e+000,3.5350833224e+000,3.7662710215e+000,3.0743790659e+000,3.6763451422e+000,2.7995949012e+000,3.9615284865e+000,3.6035738590e+000,3.6625684831e+000,
3.3656250000e+001,3.9737741356e+000,4.4666996988e+000,3.7820175133e+000,3.2464705517e+000,3.5392583749e+000,3.7470807385e+000,3.5418272323e+000,3.8746173594e+000,3.0607677756e+000,3.7126750576e+000,2.9094904337e+000,4.0541889304e+000,3.5463384622e+000,3.6514246447e+000,
3.3750000000e+001,3.9208814771e+000,4.4400657628e+000,3.7834022979e+000,3.2537909382e+000,3.5603187824e+000,3.8327386028e+000,3.5497050622e+000,3.9162719586e+000,3.1079846540e+000,3.7348090570e+000,2.9775939042e+000,4.1698692450e+000,3.4459939822e+000,3.7773592803e+000,
3.3843750000e+001,3.7746686766e+000,4.4575201662e+000,3.6985592927e+000,3.2951125224e+000,3.4717685427e+000,3.8120416299e+000,3.5396176569e+000,3.9243002831e+000,3.0272725352e+000,3.6383757003e+000,2.9454125630e+000,4.1383677380e+000,3.5010407239e+000,3.7771299837e+000,
3.3937500000e+001,3.7083021097e+000,4.5009893452e+000,3.5731849482e+000,3.2987694098e+000,3.3962696750e+000,3.7626413220e+000,3.4064837018e+000,3.9263348328e+000,3.0211397345e+000,3.7252846056e+000,2.8837693179e+000,4.2077775869e+000,3.5479447282e+000,3.8964167798e+000,
3.4031250000e+001,3.6987232602e+000,4.4724338497e+000,3.6433054323e+000,3.4206354380e+000,3.4009437505e+000,3.7996636619e+000,3.4027129770e+000,3.9009930307e+000,3.0793726746e+000,3.8200892312e+000,2.8462536731e+000,4.1936713369e+000,3.6189511926e+000,3.8177564846e+000,
3.4125000000e+001,3.6870247286e+000,4.4342404180e+000,3.7870672683e+000,3.4826288645e+000,3.5010041777e+000,3.8545587365e+000,3.5124202319e+000,3.9655069434e+000,3.2427680637e+000,3.8789241082e+000,2.8530178501e+000,4.1883940472e+000,3.6522057112e+000,3.8067488857e+000,
3.4218750000e+001,3.6757932751e+000,4.4483284359e+000,3.8196554696e+000,3.4515149642e+000,3.4961033261e+000,3.9352845000e+000,3.4614813021e+000,3.9145196407e+000,3.2474219471e+000,3.9775280962e+000,2.7458937370e+000,4.1759396928e+000,3.5443850404e+000,3.7453064831e+000,
3.4312500000e+001,3.8960991477e+000,4.7340067176e+000,4.0554572895e+000,3.7077338668e+000,3.7102111680e+000,4.1887304497e+000,3.6673510508e+000,4.0805860129e+000,3.2498783701e+000,4.0756256395e+000,2.8304501209e+000,4.1795151573e+000,3.4503269792e+000,3.6774957105e+000,
3.4406250000e+001,3.9855636847e+000,4.7525856286e+000,4.0364091032e+000,3.8342135844e+000,3.7341398058e+000,4.2401452854e+000,3.6695948539e+000,4.1502532296e+000,3.1539429431e+000,4.1506242888e+000,2.9578854192e+000,4.2867328954e+000,3.5326297058e+000,3.6937349472e+000,
3.4500000000e+001,3.9632258505e+000,4.7332572163e+000,4.0293443414e+000,3.8850873227e+000,3.7082605202e+000,4.2843812245e+000,3.6257293572e+000,4.1726144672e+000,3.1251587518e+000,4.1907062624e+000,3.0050728068e+000,4.3332550688e+000,3.6143656590e+000,3.7961622812e+000,
3.4593750000e+001,4.0103934519e+000,4.6943743380e+000,4.0466555351e+000,3.8957351785e+000,3.7576542150e+000,4.2889503646e+000,3.6441272918e+000,4.1332288735e+000,3.1784852170e+000,4.1588658794e+000,2.9505360873e+000,4.2890245012e+000,3.6027423883e+000,3.8880747197e+000,
3.4687500000e+001,3.9352817097e+000,4.6700567842e+000,3.9873142773e+000,3.7906242491e+000,3.6780017230e+000,4.2153740764e+000,3.5914843423e+000,4.0599785182e+000,3.1548447877e+000,4.0806587536e+000,2.8731371733e+000,4.2409899043e+000,3.6157216301e+000,3.9006650070e+000,
3.4781250000e+001,3.9386873636e+000,4.7056424356e+000,4.0347615654e+000,3.8069996450e+000,3.7350741700e+000,4.1987611789e+000,3.6490579693e+000,4.0887741872e+000,3.1188604335e+000,4.1985452758e+000,2.9127603225e+000,4.2194206947e+000,3.6609441775e+000,3.8231855969e+000,
3.4875000000e+001,3.9843272348e+000,4.7713529457e+000,4.0739787208e+000,3.8377499881e+000,3.9184835410e+000,4.3291481836e+000,3.7123099578e+000,4.1362211129e+000,3.2532341174e+000,4.2362159609e+000,3.0515820754e+000,4.3003012879e+000,3.7821263313e+000,3.9746477459e+000,
3.4968750000e+001,3.9881023569e+000,4.7674250583e+000,4.0565166259e+000,3.8310543268e+000,3.9715068738e+000,4.3732230623e+000,3.7593414428e+000,4.2206598362e+000,3.3219530616e+000,4.1795818687e+000,3.1929379268e+000,4.2784279179e+000,3.8043080690e+000,3.9438171397e+000,
3.5062500000e+001,4.0125445311e+000,4.7925232421e+000,4.0817994844e+000,3.8276197715e+000,3.9202633462e+000,4.3702892661e+000,3.7525720497e+000,4.1855769921e+000,3.3704458224e+000,4.2140035312e+000,3.1389196216e+000,4.4847707070e+000,3.7369118640e+000,4.0334029386e+000,
3.5156250000e+001,3.8699162815e+000,4.7256172112e+000,3.9647069576e+000,3.7400324498e+000,3.8433161642e+000,4.2645579712e+000,3.6712446395e+000,4.1149807466e+000,3.2512447571e+000,4.0761292033e+000,3.1237450540e+000,4.4589413208e+000,3.7461667416e+000,4.0197198167e+000,
3.5250000000e+001,3.9289382265e+000,4.6811619097e+000,3.9211767658e+000,3.7131136621e+000,3.8561375436e+000,4.2961107140e+000,3.6732463899e+000,4.1608404577e+000,3.3380377313e+000,4.0303568757e+000,3.0836806807e+000,4.4886501688e+000,3.7877150245e+000,4.0282482518e+000,
3.5343750000e+001,3.7919380163e+000,4.5171251045e+000,3.7915494431e+000,3.4960286294e+000,3.7727377248e+000,4.2463742031e+000,3.6698811678e+000,4.0080927099e+000,3.4166926372e+000,3.8921108457e+000,3.0941647107e+000,4.3225534366e+000,3.9491662766e+000,4.0024079097e+000,
3.5437500000e+001,3.7138705483e+000,4.4689129379e+000,3.7924703572e+000,3.3363905685e+000,3.8434481902e+000,4.1875659240e+000,3.7633056057e+000,3.9076318318e+000,3.4439936929e+000,3.7776444382e+000,3.0164021274e+000,4.2733097056e+000,3.9197778573e+000,3.9504102432e+000,
3.5531250000e+001,3.7397013945e+000,4.5365760382e+000,3.8403082375e+000,3.3586644568e+000,3.8647214566e+000,4.1963901950e+000,3.8209366545e+000,4.0043858965e+000,3.4650777354e+000,3.8246817211e+000,3.0810413876e+000,4.2943766668e+000,4.0906995289e+000,3.9996026816e+000,
3.5625000000e+001,3.7372925005e+000,4.5415792000e+000,3.9030077367e+000,3.4169005729e+000,3.8593912457e+000,4.2037282730e+000,3.8350781003e+000,4.0613224698e+000,3.4666343620e+000,3.8529639862e+000,3.1496318121e+000,4.3156652710e+000,4.1622695998e+000,4.0163751181e+000,
3.5718750000e+001,3.7718830483e+000,4.6136085877e+000,3.9536659674e+000,3.4677602016e+000,3.9260439016e+000,4.2710511629e+000,3.8877810256e+000,4.1033332243e+000,3.5276693957e+000,3.9087037302e+000,3.1540262365e+000,4.4377038713e+000,4.2293297638e+000,4.1342971150e+000,
3.5812500000e+001,3.8748811344e+000,4.6552323944e+000,4.0085048446e+000,3.4700514852e+000,3.9817476156e+000,4.3796842732e+000,3.9655861970e+000,4.0790496282e+000,3.6324443304e+000,3.8077306329e+000,3.2235394832e+000,4.3891939008e+000,4.2931297734e+000,4.1848795033e+000,
3.5906250000e+001,3.8100554997e+000,4.5333377426e+000,3.9603036059e+000,3.4108758507e+000,3.8739630457e+000,4.2805770817e+000,3.9007278242e+000,4.0276849558e+000,3.6492259815e+000,3.7846115185e+000,3.2282851684e+000,4.3101329014e+000,4.2774193722e+000,4.0999542169e+000,
3.6000000000e+001,3.8078209200e+000,4.4686272047e+000,3.9497864834e+000,3.3109011050e+000,3.8426886272e+000,4.2025029005e+000,3.8966940472e+000,3.9216008303e+000,3.6180418398e+000,3.6937510945e+000,3.1419718942e+000,4.0983585493e+000,4.2347884061e+000,4.0386912602e+000,
3.6093750000e+001,3.8321398178e+000,4.4688525000e+000,3.9587605000e+000,3.3787846864e+000,3.9009805851e+000,4.2715246154e+000,3.9175053076e+000,3.9390638656e+000,3.6994168867e+000,3.6795635050e+000,3.2123730275e+000,3.9577318315e+000,4.3998182113e+000,4.0524389603e+000,
3.6187500000e+001,3.8351940275e+000,4.4533091087e+000,3.9714616068e+000,3.4542333100e+000,3.8846191622e+000,4.3246848225e+000,3.9279476667e+000,3.9855652407e+000,3.7851065890e+000,3.7423646373e+000,3.2248000990e+000,4.0553799728e+000,4.3680312776e+000,4.1086165635e+000,
3.6281250000e+001,3.7895112308e+000,4.5013156749e+000,3.9948860683e+000,3.4967092710e+000,3.9365702187e+000,4.3377322089e+000,3.8721676707e+000,4.0207572857e+000,3.8255545332e+000,3.8901814863e+000,3.2418257500e+000,4.2239660675e+000,4.3802361833e+000,4.1866535320e+000,
3.6375000000e+001,3.8318806543e+000,4.4553074494e+000,3.9597540611e+000,3.4157777709e+000,3.9396660828e+000,4.2522860272e+000,3.7981515773e+000,3.9766881599e+000,3.7787628637e+000,3.8841717981e+000,3.1306090338e+000,4.1856710463e+000,4.3289522379e+000,4.1821402113e+000,
3.6468750000e+001,3.8377077397e+000,4.5009793990e+000,3.9481821084e+000,3.4543105191e+000,3.8579112813e+000,4.2763203733e+000,3.7883479682e+000,3.9431729234e+000,3.7482447714e+000,3.9240502833e+000,3.0566548270e+000,4.1725331203e+000,4.2516026977e+000,4.1055392418e+000,
3.6562500000e+001,3.8976554202e+000,4.5876344937e+000,3.9755648796e+000,3.6608361269e+000,3.8794380091e+000,4.3670429118e+000,3.8178625575e+000,3.9988238849e+000,3.7568687710e+000,3.9067525972e+000,3.0796992239e+000,4.1234592180e+000,4.2013557562e+000,4.0546317464e+000,
3.6656250000e+001,3.8384662418e+000,4.5673515180e+000,3.9464075135e+000,3.7066567408e+000,3.8340844786e+000,4.3931240045e+000,3.7639751596e+000,3.9412851247e+000,3.7305774905e+000,3.9426992834e+000,2.9569421448e+000,4.0283102832e+000,4.1517285790e+000,3.9341006169e+000,
3.6750000000e+001,4.0408606208e+000,4.5602217307e+000,4.0816784391e+000,3.7606902187e+000,3.8335220202e+000,4.3036644117e+000,3.8056725100e+000,3.9207088211e+000,3.7265873629e+000,3.9111213596e+000,2.8593349714e+000,4.0285462042e+000,4.2028029606e+000,4.0735235585e+000,
3.6843750000e+001,4.0674865026e+000,4.6081381927e+000,4.1432346183e+000,3.7959454220e+000,3.8873629277e+000,4.2717037263e+000,3.8046856023e+000,3.9601966192e+000,3.7271635454e+000,3.9592788013e+000,2.7236562454e+000,4.0887458700e+000,4.0483031466e+000,3.9501523334e+000,
3.6937500000e+001,4.1267074969e+000,4.6477056901e+000,4.1534867265e+000,3.8521134787e+000,3.8895835842e+000,4.3190082593e+000,3.7945358952e+000,3.9636954324e+000,3.6838503366e+000,3.9983942477e+000,2.7357534610e+000,4.1038463718e+000,4.0431966333e+000,3.9220691583e+000,
3.7031250000e+001,4.0851505916e+000,4.6690936134e+000,4.1101881432e+000,3.8303134382e+000,3.8501844747e+000,4.3238655206e+000,3.7796816442e+000,4.0110531674e+000,3.6009303340e+000,4.0600898440e+000,2.6859891685e+000,4.1988817253e+000,4.0570688843e+000,3.9695694862e+000,
3.7125000000e+001,4.1461015640e+000,4.6665331842e+000,4.1022070618e+000,3.7863348226e+000,3.8691586903e+000,4.3204748217e+000,3.7643382633e+000,4.0201447633e+000,3.5607149417e+000,4.1244553312e+000,2.6292117252e+000,4.2242876769e+000,3.8429981347e+000,3.8952329332e+000,
3.7218750000e+001,4.1522581745e+000,4.6380033484e+000,4.0527820962e+000,3.7227048569e+000,3.8181129265e+000,4.1879791650e+000,3.8177575458e+000,3.9511376238e+000,3.4236894510e+000,4.0823007514e+000,2.5720566251e+000,4.1019483023e+000,3.7888004163e+000,3.8288278028e+000,
3.7312500000e+001,4.1346351310e+000,4.5918996826e+000,4.0286651115e+000,3.7349686331e+000,3.8358655202e+000,4.2062725317e+000,3.8757525798e+000,3.9218069973e+000,3.4568822741e+000,4.0893831549e+000,2.6811439511e+000,3.9477830589e+000,3.8420204603e+000,3.7343121043e+000,
3.7406250000e+001,4.3998300789e+000,4.7090999065e+000,4.1816775277e+000,3.8062853895e+000,3.8262834695e+000,4.1968592333e+000,3.8875333275e+000,3.9392802356e+000,3.4279099521e+000,4.0792299924e+000,2.7169451481e+000,4.0504726137e+000,3.7691584363e+000,3.8146686498e+000,
3.7500000000e+001,4.4706331220e+000,4.7784344245e+000,4.2844004534e+000,3.7600943819e+000,3.9910421509e+000,4.1672643569e+000,3.9221129149e+000,3.9182758516e+000,3.4398840670e+000,4.0413060334e+000,2.7422772452e+000,4.0332940837e+000,3.7757662966e+000,3.8467742872e+000,
3.7593750000e+001,4.5662643292e+000,4.7889959607e+000,4.3626077919e+000,3.7655973991e+000,4.0514124016e+000,4.1538436656e+000,3.9659910038e+000,3.9333290454e+000,3.4501967143e+000,4.1474991259e+000,2.7507173898e+000,4.0993405232e+000,3.8127339178e+000,3.8781475057e+000,
3.7687500000e+001,4.5939843872e+000,4.7646551579e+000,4.3511222057e+000,3.6930884281e+000,4.0637525382e+000,4.1739859535e+000,3.9919481885e+000,3.9586527611e+000,3.4246965140e+000,4.1494647069e+000,2.7892303319e+000,4.0726292328e+000,3.7849497600e+000,3.8190413549e+000,
3.7781250000e+001,4.4724829902e+000,4.7189662676e+000,4.1970394545e+000,3.7038447976e+000,4.0216427891e+000,4.2028798665e+000,3.9403947341e+000,3.9686316495e+000,3.3840587024e+000,4.2221414682e+000,2.8015099497e+000,4.0854843827e+000,3.5672000261e+000,3.5679224073e+000,
3.7875000000e+001,4.4177242954e+000,4.6848026537e+000,4.1349662626e+000,3.6982958264e+000,3.8811403238e+000,4.0832444241e+000,3.8950848976e+000,3.9697104041e+000,3.2334883361e+000,4.1365056223e+000,2.8256684475e+000,4.0146914581e+000,3.5746291999e+000,3.5944591717e+000,
3.7968750000e+001,4.4287811886e+000,4.7114782475e+000,4.1411264312e+000,3.7137465841e+000,3.8713956526e+000,4.0620955239e+000,3.8784490852e+000,3.9355245174e+000,3.2071687958e+000,4.1991821985e+000,2.7586239850e+000,4.0611673089e+000,3.6064544865e+000,3.5855628691e+000,
3.8062500000e+001,4.4293044332e+000,4.6789811796e+000,4.1213350528e+000,3.7083578731e+000,3.8877384882e+000,4.0401905883e+000,3.8833966695e+000,3.8627817051e+000,3.1615041672e+000,4.1244737940e+000,2.8188145854e+000,3.9692345680e+000,3.5923959298e+000,3.5569491376e+000,
3.8156250000e+001,4.4905405131e+000,4.6708051948e+000,4.1775610055e+000,3.7407976513e+000,3.9622257714e+000,4.1164424603e+000,3.8645207487e+000,3.9455592455e+000,3.1688821582e+000,4.2624733361e+000,2.8750716598e+000,4.1055117504e+000,3.7131815022e+000,3.7301580753e+000,
3.8250000000e+001,4.4964509373e+000,4.6826566475e+000,4.1858928840e+000,3.7299552747e+000,3.9967205192e+000,4.1575472711e+000,3.8830077707e+000,3.9318239397e+000,3.0880312819e+000,4.2721815713e+000,2.8818352201e+000,4.1572186950e+000,3.7806863189e+000,3.7611254588e+000,
3.8343750000e+001,4.3619018348e+000,4.6954612926e+000,4.2130170176e+000,3.7803625818e+000,3.9985220917e+000,4.1642015633e+000,3.8962178164e+000,4.0104041526e+000,3.1112206772e+000,4.3140493536e+000,2.9061644240e+000,4.2320869708e+000,3.7909707323e+000,3.7765973734e+000,
3.8437500000e+001,4.1430040069e+000,4.5512311555e+000,3.9837634335e+000,3.7346772554e+000,3.8379729648e+000,4.1460978479e+000,3.8067476722e+000,4.0061290018e+000,3.0040362321e+000,4.3623124011e+000,2.9876557689e+000,4.1957313355e+000,3.9233553806e+000,3.6433852870e+000,
3.8531250000e+001,4.0770201978e+000,4.4566165321e+000,3.9082111641e+000,3.6610279586e+000,3.7424719091e+000,4.0986189652e+000,3.7110244737e+000,3.9670447909e+000,3.1261085142e+000,4.3233765230e+000,2.9875548585e+000,4.2026757623e+000,3.9295476487e+000,3.6318985765e+000,
3.8625000000e+001,3.9563450167e+000,4.4336192471e+000,3.7798279678e+000,3.5606363120e+000,3.7545102138e+000,4.0636877117e+000,3.6524830110e+000,3.9391409614e+000,3.1950564932e+000,4.2016017105e+000,3.0368429118e+000,4.1166753733e+000,3.9951706026e+000,3.5909342786e+000,
3.8718750000e+001,4.1652643581e+000,4.4309319660e+000,4.0073907245e+000,3.5715249334e+000,3.8779323360e+000,4.1043872143e+000,3.7436919523e+000,3.9924994976e+000,3.4213023413e+000,4.2087011973e+000,3.0828452758e+000,4.0472902950e+000,4.0485551648e+000,3.7046212503e+000,
3.8812500000e+001,4.2596126611e+000,4.4907609273e+000,4.1192099757e+000,3.6001739785e+000,3.9611789854e+000,4.1431528875e+000,3.7018286973e+000,3.9718290976e+000,3.5417764509e+000,4.1628022314e+000,3.1323806907e+000,4.0384624509e+000,4.1203672974e+000,3.7272139082e+000,
3.8906250000e+001,4.1862600791e+000,4.5049920918e+000,4.1144874389e+000,3.5459736733e+000,3.9620175275e+000,4.2105727380e+000,3.7494984601e+000,3.9777172859e+000,3.6005653879e+000,4.1632831656e+000,3.1756349020e+000,4.1348462506e+000,4.1555043057e+000,3.8083750678e+000,
3.9000000000e+001,4.2652681975e+000,4.5457217590e+000,4.1707935205e+000,3.5479167589e+000,4.0822089111e+000,4.2656968585e+000,3.8691412494e+000,4.0555130991e+000,3.7351711157e+000,4.1382870969e+000,3.2578344186e+000,4.1226275762e+000,4.1678050251e+000,3.8477089450e+000,
3.9093750000e+001,4.2235015974e+000,4.5958890159e+000,4.1606182006e+000,3.5770761921e+000,4.1177615578e+000,4.2114179629e+000,4.0381973158e+000,4.0165670515e+000,3.7386065529e+000,4.0743904653e+000,3.3448015798e+000,4.0969150178e+000,4.2131226963e+000,3.8922282095e+000,
3.9187500000e+001,4.1974941129e+000,4.5776031271e+000,4.1061233788e+000,3.5364292132e+000,4.0929829137e+000,4.1560830920e+000,4.0870587352e+000,3.9693367563e+000,3.8009885970e+000,3.9584742775e+000,3.3532713762e+000,4.1723440659e+000,4.2041397609e+000,3.9379375037e+000,
3.9281250000e+001,4.1480466717e+000,4.6319754274e+000,4.0718484713e+000,3.5201307864e+000,3.9936075814e+000,4.0761487629e+000,4.0488444893e+000,3.9606177215e+000,3.8305022032e+000,3.9544118883e+000,3.4260307633e+000,4.2542406358e+000,4.1573208497e+000,3.9261917383e+000,
3.9375000000e+001,4.2152343610e+000,4.5847735275e+000,4.0253478791e+000,3.4118545865e+000,4.0594109829e+000,4.0043047745e+000,4.0650180976e+000,3.8957111468e+000,3.8161257043e+000,3.8413258241e+000,3.4133932026e+000,4.3070443754e+000,4.1006281998e+000,4.0087576451e+000,
3.9468750000e+001,4.2514387963e+000,4.5312459325e+000,3.9928913753e+000,3.3875562922e+000,4.0728734221e+000,3.9978391802e+000,4.0771045421e+000,3.9317007648e+000,3.8112372355e+000,3.7719295680e+000,3.3546831961e+000,4.2677431372e+000,3.9562834511e+000,3.9994015110e+000,
3.9562500000e+001,4.2103447632e+000,4.4985487378e+000,3.9921590177e+000,3.3811790911e+000,4.0225730430e+000,3.9829741922e+000,4.0968002191e+000,3.9434656021e+000,3.8179621593e+000,3.9327919224e+000,3.3760288321e+000,4.2624877960e+000,3.8860607196e+000,3.9991369466e+000,
3.9656250000e+001,4.1904613984e+000,4.4473178790e+000,3.9619274358e+000,3.4042330611e+000,3.9888720573e+000,4.0262528800e+000,4.0718667421e+000,4.0221609049e+000,3.7660789864e+000,3.9914314027e+000,3.3849616570e+000,4.2949590263e+000,3.8501241931e+000,3.9884947500e+000,
3.9750000000e+001,3.9795391276e+000,4.3832873373e+000,3.6984052133e+000,3.4473753608e+000,3.8750493341e+000,3.9899348154e+000,4.0057845771e+000,3.9881066390e+000,3.5704832443e+000,4.0192514360e+000,3.3157821216e+000,4.4000852759e+000,3.7291352709e+000,3.9730863311e+000,
3.9843750000e+001,4.0288945334e+000,4.5514831779e+000,3.8157336874e+000,3.5796353211e+000,3.9437045267e+000,4.1488286468e+000,4.1217404343e+000,4.0920053022e+000,3.6319808974e+000,4.1223852942e+000,3.3347572246e+000,4.4378008052e+000,3.7446286908e+000,4.0056123723e+000,
3.9937500000e+001,4.0499540426e+000,4.6384357382e+000,3.8686916762e+000,3.6323291823e+000,3.9456451890e+000,4.0631388010e+000,4.1002081717e+000,4.0964083816e+000,3.5736773652e+000,4.1218023054e+000,3.2836570945e+000,4.3547867730e+000,3.7448033150e+000,3.9278963909e+000,
4.0031250000e+001,3.9321091288e+000,4.5131585443e+000,3.7960040187e+000,3.5707412048e+000,3.7314280920e+000,3.9646392546e+000,3.9158646482e+000,4.1002106659e+000,3.4983903847e+000,4.0888239689e+000,3.2206305758e+000,4.3228647994e+000,3.7519737634e+000,3.8619375345e+000,
4.0125000000e+001,3.8720674336e+000,4.4827519669e+000,3.7479012955e+000,3.5360614635e+000,3.7009520966e+000,3.9816401885e+000,3.8346902531e+000,4.0964990124e+000,3.4941808922e+000,4.1188542178e+000,3.0867141782e+000,4.4075995722e+000,3.7106172698e+000,3.9786822457e+000,
4.0218750000e+001,3.9002928522e+000,4.4810919407e+000,3.7324897019e+000,3.5184078915e+000,3.6802635245e+000,4.0141036746e+000,3.8126742309e+000,4.0437392541e+000,3.4757543644e+000,4.0703853800e+000,3.0373590308e+000,4.1611191847e+000,3.7184721496e+000,3.8786995232e+000,
4.0312500000e+001,3.8626661551e+000,4.4347034878e+000,3.7194557199e+000,3.5501122686e+000,3.6733729509e+000,4.0156319061e+000,3.7807825230e+000,4.0386686710e+000,3.4229802597e+000,4.0725969870e+000,2.8581636668e+000,4.1344660307e+000,3.7516336263e+000,3.9188331260e+000,
4.0406250000e+001,3.9278123234e+000,4.5175711649e+000,3.8366043593e+000,3.6338092091e+000,3.8687231845e+000,4.2077485577e+000,3.8260540609e+000,4.1204426405e+000,3.5765263991e+000,4.2230617190e+000,3.0491056543e+000,4.0474029931e+000,4.1419771176e+000,3.8494455984e+000,
4.0500000000e+001,3.8875772938e+000,4.5448993913e+000,3.8388757620e+000,3.6688876451e+000,3.9003750136e+000,4.2077630524e+000,3.8168824489e+000,4.0776760400e+000,3.6312756033e+000,4.2251830828e+000,3.0805407083e+000,4.1676893105e+000,4.1836981405e+000,3.9197804964e+000,
4.0593750000e+001,3.9346349976e+000,4.5374811617e+000,3.8433184087e+000,3.7121345629e+000,4.0527038473e+000,4.2605264014e+000,3.9191787605e+000,4.0775273266e+000,3.6056016765e+000,4.1941880027e+000,2.9892806194e+000,4.1652405874e+000,4.1817946757e+000,3.8626452375e+000,
4.0687500000e+001,3.9384470550e+000,4.5196761807e+000,3.8857488010e+000,3.7372682807e+000,4.0557021929e+000,4.2197812098e+000,3.9318901494e+000,4.0410612658e+000,3.6083334109e+000,4.1784833821e+000,3.0108655100e+000,4.1520918073e+000,4.1578343303e+000,3.8052352477e+000,
4.0781250000e+001,3.8172791811e+000,4.4948978226e+000,3.8496389058e+000,3.6381232625e+000,3.9694724143e+000,4.1633772489e+000,3.7833877338e+000,3.9851505983e+000,3.6047871829e+000,4.1768429077e+000,3.1258781624e+000,4.0485291247e+000,4.1977756368e+000,3.7720345423e+000,
4.0875000000e+001,3.7347295891e+000,4.1286459040e+000,3.5348455259e+000,3.3778550197e+000,3.8214754122e+000,3.9953611037e+000,3.6187870410e+000,3.8059625323e+000,3.4561403842e+000,4.0295023554e+000,3.0996175197e+000,3.9403802179e+000,4.1483117629e+000,3.6856872084e+000,
4.0968750000e+001,3.7382277673e+000,4.0984233001e+000,3.4930965792e+000,3.3942619319e+000,3.8012345962e+000,4.0331572035e+000,3.6198971270e+000,3.7395846642e+000,3.3673354637e+000,4.0119260563e+000,3.0788807025e+000,3.9735991170e+000,4.1774892081e+000,3.7181493404e+000,
4.1062500000e+001,3.7703254072e+000,4.2204456329e+000,3.5234560537e+000,3.4407693644e+000,3.8553173823e+000,4.0525952620e+000,3.6581148289e+000,3.6734362880e+000,3.3833307881e+000,4.0394814677e+000,3.0730321618e+000,4.4723199604e+000,4.2586661799e+000,4.0568452107e+000,
4.1156250000e+001,3.8728330494e+000,4.2175958390e+000,3.6376431632e+000,3.4445915197e+000,3.9187669958e+000,4.1662854353e+000,3.7456844914e+000,3.7635964603e+000,3.3489007396e+000,4.0947166203e+000,3.1192230368e+000,4.5807854344e+000,4.3099899714e+000,4.1279231308e+000,
