Time (s),AF3,AF4,F3,F4,F7,F8,FC5,FC6,T7,T8,P7,P8,O1,O2,Sampling Rate
0.0000000000e+000,2.5707811819e+000,3.2909341830e+000,2.4468917177e+000,3.0213625558e+000,2.6564493055e+000,2.9813956906e+000,2.8656196158e+000,3.0940992640e+000,2.7827289364e+000,3.5431968500e+000,1.9110246566e+000,3.1818633520e+000,2.5986134583e+000,2.8426666712e+000,1
9.3750000000e-002,2.6124731119e+000,3.3539515113e+000,2.5477684592e+000,3.1323151853e+000,2.6907930248e+000,3.0066228204e+000,2.8756463812e+000,3.1294751890e+000,2.8342813252e+000,3.6022043719e+000,1.8973663906e+000,3.1926159195e+000,2.5391750775e+000,2.9577568459e+000,
1.8750000000e-001,2.6540167123e+000,3.4777827127e+000,2.6056934031e+000,3.1744127737e+000,2.8783498880e+000,3.1353877875e+000,2.9364837809e+000,3.2604859186e+000,2.8926169070e+000,3.6860832602e+000,2.1532260351e+000,3.2415801882e+000,2.6170599592e+000,3.0288379734e+000,
2.8125000000e-001,2.8432416245e+000,3.6740964406e+000,2.7171376946e+000,3.3563201953e+000,2.9963239909e+000,3.3325887337e+000,3.0548006019e+000,3.6381343130e+000,2.8625260104e+000,3.8110673382e+000,2.2961675998e+000,3.3895823421e+000,2.5850087553e+000,2.9217143909e+000,
3.7500000000e-001,2.9392466280e+000,3.6959184423e+000,2.6439208196e+000,3.4059855908e+000,3.0309527702e+000,3.3796447039e+000,2.9742279140e+000,3.7120700998e+000,2.8962955691e+000,3.8771221190e+000,2.3463734863e+000,3.4132255512e+000,2.4254662003e+000,2.7883234615e+000,
4.6875000000e-001,3.0642417553e+000,3.6683933869e+000,2.7030323552e+000,3.4517927462e+000,3.0292999837e+000,3.2669071806e+000,2.9681483646e+000,3.7344613073e+000,2.8888037344e+000,3.9018240021e+000,2.3776958037e+000,3.3490943599e+000,2.4540632005e+000,2.8242712252e+000,
5.6250000000e-001,3.0840826420e+000,3.7267654100e+000,2.7097226102e+000,3.5063140648e+000,3.0245497764e+000,3.3263297683e+000,2.9652165873e+000,3.7335878604e+000,2.8607620205e+000,3.8408174350e+000,2.6940839049e+000,3.3702997009e+000,2.4985756800e+000,2.9685918484e+000,
6.5625000000e-001,3.0315448943e+000,3.6262252295e+000,2.6452690561e+000,3.4239647964e+000,2.9505962894e+000,3.2345036905e+000,2.9636880384e+000,3.6211012079e+000,2.8668200171e+000,3.7203005763e+000,2.6902682077e+000,3.3446755290e+000,2.4524863044e+000,3.0706499233e+000,
7.5000000000e-001,2.9998750427e+000,3.7268724882e+000,2.6326059187e+000,3.4207201322e+000,2.9844246899e+000,3.3601744087e+000,2.9173179391e+000,3.7486515070e+000,2.7806628457e+000,3.8074564957e+000,2.6596086199e+000,3.3872734452e+000,2.2954016869e+000,3.1018670651e+000,
8.4375000000e-001,3.0657774798e+000,3.8654854251e+000,2.6617076196e+000,3.4550922068e+000,3.0533541589e+000,3.5334065994e+000,3.0137179393e+000,3.7571492501e+000,2.7436049349e+000,3.8349853904e+000,2.6687607862e+000,3.4993372764e+000,2.3556289479e+000,3.1517503621e+000,
9.3750000000e-001,3.1661760857e+000,3.9795754399e+000,2.7236607747e+000,3.7462201016e+000,3.4744048246e+000,3.6225705013e+000,3.2190101441e+000,3.9718400256e+000,2.7617791852e+000,4.0919847426e+000,2.7387043396e+000,3.7049702211e+000,2.4539519551e+000,3.3436955793e+000,
1.0312500000e+000,3.3065448750e+000,4.1046495322e+000,3.2124795243e+000,4.0343613970e+000,3.6575667657e+000,3.7546055452e+000,3.5893810608e+000,4.1704299669e+000,2.9917646546e+000,4.3439658714e+000,2.7336668598e+000,3.9207545662e+000,2.5937898189e+000,3.3645668238e+000,
1.1250000000e+000,3.4217994638e+000,4.1349350089e+000,3.4198287051e+000,4.1753876165e+000,3.9883466710e+000,3.8513967312e+000,3.7505679618e+000,4.5029724183e+000,3.4729634531e+000,4.7639440799e+000,2.8538030396e+000,4.1413583714e+000,2.7389644981e+000,3.5259149556e+000,
1.2187500000e+000,3.5367489375e+000,4.1411012558e+000,3.8196596337e+000,4.2322126717e+000,4.1973369130e+000,3.8152157374e+000,4.1236972865e+000,4.5824585405e+000,3.6904518377e+000,4.9149629348e+000,2.8482335643e+000,4.1868834896e+000,2.8776925030e+000,3.6674365155e+000,
1.3125000000e+000,3.5034740493e+000,4.1154439560e+000,3.9802564362e+000,4.3080941564e+000,4.2030076571e+000,3.7219430275e+000,4.3214079084e+000,4.6368664474e+000,4.0948530562e+000,5.0517120896e+000,2.8432286506e+000,4.3324332816e+000,2.9591009365e+000,3.8010116990e+000,
1.4062500000e+000,3.5047161304e+000,4.2142959477e+000,4.1565001221e+000,4.4759269490e+000,4.4282841499e+000,3.8252871437e+000,4.4739263062e+000,4.7573027558e+000,4.1824588871e+000,5.1776004778e+000,2.9487190265e+000,4.4270944708e+000,3.1824576210e+000,3.9415862914e+000,
1.5000000000e+000,3.5906764896e+000,4.3608297893e+000,4.2458413816e+000,4.6652460474e+000,4.5408139759e+000,3.9225668613e+000,4.5651973299e+000,4.8290951430e+000,4.2473113943e+000,5.2688558016e+000,2.8137826990e+000,4.5940199207e+000,3.2356147683e+000,4.0115014617e+000,
1.5937500000e+000,3.6974403343e+000,4.3707259146e+000,4.2608006018e+000,4.6961853735e+000,4.6158357519e+000,3.9222183767e+000,4.5794598561e+000,4.8791458947e+000,4.2765989408e+000,5.3346874522e+000,2.8773729084e+000,4.6002946596e+000,3.2643588294e+000,4.0459004180e+000,
1.6875000000e+000,3.7276979233e+000,4.3638539173e+000,4.2740387067e+000,4.7037196987e+000,4.6244989554e+000,3.9269780846e+000,4.5966879667e+000,4.8899017660e+000,4.3051946249e+000,5.3557549929e+000,2.8984447129e+000,4.5773118744e+000,3.2705204344e+000,4.0593503607e+000,
1.7812500000e+000,3.7428860761e+000,4.2703125494e+000,4.2925296585e+000,4.7024946340e+000,4.6361489102e+000,3.8128946051e+000,4.5944876673e+000,4.9024863832e+000,4.3818756203e+000,5.4122374767e+000,2.9401148107e+000,4.5657132637e+000,3.2829755825e+000,4.0648991974e+000,
1.8750000000e+000,3.7994352549e+000,4.2375183907e+000,4.3022335619e+000,4.6919586752e+000,4.6764722214e+000,3.7865695462e+000,4.6099431142e+000,4.8809976010e+000,4.4026232377e+000,5.3870246225e+000,2.8904218673e+000,4.5123383775e+000,3.2425755715e+000,4.0522601204e+000,
1.9687500000e+000,3.7889202853e+000,4.2179086992e+000,4.2922708917e+000,4.5782702608e+000,4.6067393604e+000,3.7440433750e+000,4.5812011643e+000,4.8490468801e+000,4.3847336223e+000,5.3791471197e+000,2.8669201003e+000,4.4633183950e+000,3.2447563303e+000,4.0453413352e+000,
2.0625000000e+000,3.7100217866e+000,4.1679874542e+000,4.1856843251e+000,4.4794323459e+000,4.4989029996e+000,3.6413318466e+000,4.4716353190e+000,4.6205118499e+000,4.3211388057e+000,5.2406040299e+000,2.8926524123e+000,4.3053168633e+000,3.1830689032e+000,3.9572845023e+000,
2.1562500000e+000,3.6531908871e+000,4.1762667750e+000,4.1555561489e+000,4.4963183250e+000,4.2935089212e+000,3.7064440310e+000,4.4043320287e+000,4.6600916770e+000,4.1880487804e+000,5.1870246894e+000,2.7085332085e+000,4.3773170965e+000,3.1429957820e+000,3.9581595294e+000,
2.2500000000e+000,3.6122342146e+000,4.1128791052e+000,3.8252123079e+000,4.3777172257e+000,4.2126730926e+000,3.6663353562e+000,4.1204251165e+000,4.5212915156e+000,3.9831786572e+000,5.0311929881e+000,2.6544091173e+000,4.3106970024e+000,3.0544962453e+000,3.8616606392e+000,
2.3437500000e+000,3.6146203424e+000,4.0603631464e+000,3.6272395654e+000,4.2637960423e+000,4.2348463259e+000,3.6152169145e+000,3.9081622715e+000,4.2908017820e+000,3.6771156435e+000,4.8809703694e+000,2.5098372244e+000,4.1542222738e+000,2.9357690979e+000,3.7844262228e+000,
2.4375000000e+000,3.5587539761e+000,3.9784518981e+000,3.3823957050e+000,4.0895668220e+000,3.9028799622e+000,3.5188757550e+000,3.6478915029e+000,4.2250815243e+000,3.5465376044e+000,4.6884304958e+000,2.3591384335e+000,3.9996785953e+000,2.7089937333e+000,3.6770762874e+000,
2.5312500000e+000,3.3858293168e+000,3.7245508457e+000,3.1521504760e+000,3.6888243883e+000,3.7770977431e+000,3.3693272219e+000,3.4924854353e+000,4.0684864803e+000,3.3950479658e+000,4.5120627696e+000,2.3108901974e+000,3.6741408205e+000,2.6792560054e+000,3.5077392254e+000,
2.6250000000e+000,3.3092385644e+000,3.7352274721e+000,3.1008853370e+000,3.5295764910e+000,3.6896734525e+000,3.3129018927e+000,3.4842432559e+000,4.0046881647e+000,3.3600755934e+000,4.4577810305e+000,2.0426096424e+000,3.6966166439e+000,2.6163852250e+000,3.3956994053e+000,
2.7187500000e+000,3.3744400169e+000,3.8254359107e+000,3.0884849802e+000,3.6786802605e+000,3.6503460242e+000,3.4217451672e+000,3.3973772585e+000,4.0641863357e+000,3.3560735137e+000,4.4236975505e+000,2.0246293903e+000,3.7845146729e+000,2.6256223720e+000,3.5090257443e+000,
2.8125000000e+000,3.4219803934e+000,3.8230728045e+000,3.0902296891e+000,3.7695871491e+000,3.7015152849e+000,3.3806616299e+000,3.4485484400e+000,4.0287253416e+000,3.2441549657e+000,4.2601670193e+000,1.8782572353e+000,3.8241296685e+000,2.5823850005e+000,3.4882668959e+000,
2.9062500000e+000,3.3092100511e+000,3.7458301311e+000,3.0889012292e+000,3.7176735030e+000,3.5812865768e+000,3.3359034324e+000,3.3572985442e+000,4.0090360333e+000,3.2122746997e+000,4.1885517078e+000,1.8300720883e+000,3.8528076465e+000,2.5574434602e+000,3.4023010736e+000,
3.0000000000e+000,3.3827675341e+000,3.9674676760e+000,2.9985876134e+000,3.7080558553e+000,3.4781798116e+000,3.5120449176e+000,3.1935858340e+000,3.9930469305e+000,3.0978575003e+000,4.1663290641e+000,1.7997961744e+000,3.7687632024e+000,2.6484503933e+000,3.3631744581e+000,
3.0937500000e+000,3.3910872974e+000,3.8450955350e+000,2.8355459554e+000,3.4631386968e+000,3.4768535648e+000,3.4126746801e+000,3.0291314248e+000,3.6823458835e+000,2.9731466361e+000,3.8885945565e+000,1.8012010909e+000,3.4495282544e+000,2.4684859874e+000,3.2286492763e+000,
3.1875000000e+000,3.4076643320e+000,3.8402032433e+000,2.8476109776e+000,3.4850650088e+000,3.5036346232e+000,3.6233016200e+000,3.0494183905e+000,3.7006592571e+000,2.9632469506e+000,4.0859527245e+000,1.8761617517e+000,3.4988713632e+000,2.5095653438e+000,3.1441765303e+000,
3.2812500000e+000,3.3964860325e+000,3.9863186296e+000,3.0584474657e+000,3.7848704945e+000,3.5541725566e+000,3.8481450345e+000,3.1272824489e+000,3.9346399079e+000,2.8793176903e+000,4.2915137828e+000,1.9490642277e+000,3.7851547928e+000,2.4025944086e+000,3.1810624042e+000,
3.3750000000e+000,3.3833039371e+000,4.0045624120e+000,2.9909521773e+000,3.8030664510e+000,3.3561769056e+000,3.9277799602e+000,2.9583739311e+000,3.9288222305e+000,2.7337166353e+000,4.3344392013e+000,1.9256533680e+000,3.8311248572e+000,2.4402273781e+000,3.2305097694e+000,
3.4687500000e+000,3.3613372665e+000,4.0057027279e+000,3.0064649327e+000,3.8019101306e+000,3.3297858277e+000,3.9357601236e+000,2.9624753195e+000,3.9109190243e+000,2.7648987135e+000,4.3435876776e+000,1.9156173074e+000,3.8378177081e+000,2.3811618232e+000,3.2818201317e+000,
3.5625000000e+000,3.3924772699e+000,4.0155686175e+000,3.0191696300e+000,3.8070922902e+000,3.3178656888e+000,3.9229435616e+000,3.0302850893e+000,3.9097036973e+000,2.8034955196e+000,4.3747991202e+000,1.9326018733e+000,3.8517939336e+000,2.4595416567e+000,3.2907682472e+000,
3.6562500000e+000,3.3747212068e+000,4.0018110520e+000,3.0651755123e+000,3.8036690687e+000,3.3139833687e+000,3.9053644177e+000,3.0309748795e+000,3.8483829146e+000,2.6890454868e+000,4.3444188306e+000,1.9544980579e+000,3.8477388853e+000,2.5690503724e+000,3.2981805681e+000,
3.7500000000e+000,3.2676092159e+000,3.9599619178e+000,3.0538376860e+000,3.7676740927e+000,3.2690955544e+000,3.8500808368e+000,3.0678114044e+000,3.7548969260e+000,2.6277176434e+000,4.3030366923e+000,1.9409734172e+000,3.7786414898e+000,2.5805133973e+000,3.2461696053e+000,
3.8437500000e+000,3.3923832597e+000,4.0319469991e+000,3.1365989627e+000,3.8473431789e+000,3.2789734538e+000,3.8849418464e+000,3.0125732210e+000,3.7859659233e+000,2.5886663349e+000,4.3638323972e+000,2.0570547410e+000,3.7626741823e+000,2.6048101610e+000,3.3505409385e+000,
3.9375000000e+000,3.2942825250e+000,3.8514786738e+000,3.1232576200e+000,3.8025173837e+000,3.2461755614e+000,3.8524288869e+000,2.9972709507e+000,3.7249977492e+000,2.5980839614e+000,4.3096431589e+000,2.0600561020e+000,3.7287096418e+000,2.5001301737e+000,3.3288358738e+000,
4.0312500000e+000,3.2144855613e+000,3.7607559886e+000,3.1647861791e+000,3.7523254002e+000,3.2862647141e+000,3.6796363142e+000,3.0241795656e+000,3.6665920446e+000,2.5586234915e+000,4.3329265610e+000,2.0740507873e+000,3.7387104491e+000,2.4218938103e+000,3.3271610177e+000,
4.1250000000e+000,3.1487433765e+000,3.7631950366e+000,3.1884292767e+000,3.7261085079e+000,3.2318270680e+000,3.6398427100e+000,3.0322670153e+000,3.6841540118e+000,2.5803520622e+000,4.3169469297e+000,1.9550843778e+000,3.7916203554e+000,2.3919834842e+000,3.2638141612e+000,
4.2187500000e+000,3.1183958514e+000,3.7533171909e+000,3.1092058030e+000,3.6278956595e+000,3.1486925236e+000,3.4563914125e+000,3.0101045202e+000,3.5865742493e+000,2.6414556435e+000,4.1016394428e+000,1.9846154473e+000,3.6358495555e+000,2.3736786193e+000,3.1405200805e+000,
4.3125000000e+000,3.3152901546e+000,3.9307265354e+000,3.6125644602e+000,3.4165451361e+000,3.1024620606e+000,3.2483328754e+000,2.8994517571e+000,3.2383730019e+000,2.6318450031e+000,3.7292273232e+000,2.2861305122e+000,3.2019489930e+000,2.3608006805e+000,3.0117082620e+000,
4.4062500000e+000,3.5281761181e+000,4.1456875726e+000,4.1673736599e+000,3.4035799610e+000,3.1550509238e+000,3.2944894773e+000,2.8702859727e+000,3.2710984940e+000,2.6049658340e+000,3.7606128224e+000,2.5999673627e+000,3.2190733808e+000,2.3376667417e+000,2.9508716576e+000,
4.5000000000e+000,3.7081940227e+000,4.2532202091e+000,4.2058924407e+000,3.5121047904e+000,3.1636583082e+000,3.4671679877e+000,2.8897505436e+000,3.3295216880e+000,2.6478499586e+000,3.7807971680e+000,2.6403650835e+000,3.1701768814e+000,2.1831204189e+000,2.9087510113e+000,
4.5937500000e+000,3.7040471369e+000,4.2455664119e+000,4.2121935325e+000,3.5357171026e+000,3.1769568319e+000,3.4265385943e+000,2.8589352887e+000,3.2679178720e+000,2.5907702983e+000,3.7670156165e+000,2.6309088446e+000,3.1549198771e+000,2.1994900488e+000,2.9204415306e+000,
4.6875000000e+000,3.6651096526e+000,4.1966610514e+000,4.1992493295e+000,3.4714406920e+000,3.1779244687e+000,3.4862938633e+000,2.8257233146e+000,3.2105315675e+000,2.5507439959e+000,3.8028738933e+000,2.6153722225e+000,3.2117508620e+000,2.0054015926e+000,2.8964780001e+000,
4.7812500000e+000,3.6277117984e+000,4.1239148556e+000,4.1628686932e+000,3.1979811909e+000,3.0893014107e+000,3.5829697023e+000,2.7173781248e+000,3.1882641581e+000,2.5217524425e+000,3.7154559513e+000,2.6165431023e+000,3.1207974596e+000,2.1085674822e+000,2.7993081327e+000,
4.8750000000e+000,3.6070443692e+000,4.0944490349e+000,4.1826020511e+000,3.1951265067e+000,3.0398466950e+000,3.5451457176e+000,2.8115791640e+000,3.1312062171e+000,2.5224582888e+000,3.6692267046e+000,2.5528823233e+000,3.0535763554e+000,2.1110795407e+000,2.8615113253e+000,
4.9687500000e+000,3.6068144200e+000,4.1316434887e+000,4.1727197491e+000,3.2499670655e+000,3.0231824816e+000,3.7346535222e+000,2.8748938884e+000,3.3842568853e+000,2.5530012597e+000,3.7312113605e+000,2.6101024334e+000,3.1794697777e+000,2.2299387686e+000,2.8949327439e+000,
5.0625000000e+000,3.7322428514e+000,4.1780495695e+000,4.2574503348e+000,3.4512328749e+000,3.1128770556e+000,3.8107510972e+000,2.9801443446e+000,3.5959966004e+000,2.6796829704e+000,3.8807314502e+000,2.5879715062e+000,3.4827923087e+000,2.2367104561e+000,3.0784409742e+000,
5.1562500000e+000,3.7410715500e+000,4.1800579232e+000,4.2743607665e+000,3.4801428534e+000,3.1192786634e+000,3.7860193441e+000,3.0109870546e+000,3.6275992728e+000,2.7631363161e+000,3.9279016551e+000,2.6191181170e+000,3.5403255933e+000,2.3366488690e+000,3.1725140452e+000,
5.2500000000e+000,3.7657774902e+000,4.1696024274e+000,4.2897778402e+000,3.5575857635e+000,3.2040162981e+000,3.7921716420e+000,3.1044351897e+000,3.6438526107e+000,2.8540897346e+000,3.9072395485e+000,2.6120433095e+000,3.5084322329e+000,2.4493606699e+000,3.2363217066e+000,
5.3437500000e+000,3.4882725386e+000,3.7796414435e+000,3.6004279708e+000,3.4721401898e+000,3.0466195114e+000,3.6604888623e+000,3.0843330725e+000,3.5953639044e+000,2.8883820556e+000,3.8915924466e+000,2.1663601230e+000,3.5347009571e+000,2.4533408831e+000,3.1488429813e+000,
5.4375000000e+000,3.0954867601e+000,3.4320515816e+000,3.1480245553e+000,3.3536322254e+000,2.9504923467e+000,3.5109562857e+000,3.0557272247e+000,3.5058040146e+000,2.9010673822e+000,3.8650694173e+000,2.0640765861e+000,3.4945577635e+000,2.4417366227e+000,3.1104266433e+000,
5.5312500000e+000,3.0521526550e+000,3.3977770914e+000,3.0800305093e+000,3.3146212460e+000,2.9239831733e+000,3.4815748298e+000,3.0496692370e+000,3.4797579211e+000,2.8345671009e+000,3.8127429901e+000,1.9992902458e+000,3.4985410913e+000,2.4277732744e+000,3.1315391210e+000,
5.6250000000e+000,3.0707913430e+000,3.4145001299e+000,3.1035079531e+000,3.2859413118e+000,2.9082648944e+000,3.4743536555e+000,3.0940059616e+000,3.5875544295e+000,2.8282022585e+000,3.8749175522e+000,2.0506938844e+000,3.4769884982e+000,2.5043092746e+000,3.1382633934e+000,
5.7187500000e+000,3.1556816468e+000,3.5177361699e+000,3.1149632434e+000,3.4096605310e+000,3.0269467803e+000,3.3323464746e+000,3.1153354181e+000,3.6737593042e+000,2.9391721789e+000,4.0463460021e+000,2.2272406485e+000,3.6033587109e+000,2.5329365641e+000,3.2392040126e+000,
5.8125000000e+000,3.1859349211e+000,3.5439375005e+000,3.1870456091e+000,3.4531333355e+000,3.0990199635e+000,3.3126548445e+000,3.1562984103e+000,3.7143000036e+000,2.9408511107e+000,4.0435186481e+000,2.4375192337e+000,3.6481418821e+000,2.5444086852e+000,3.2323556202e+000,
5.9062500000e+000,3.1868797861e+000,3.5672227449e+000,3.1194821599e+000,3.4781837224e+000,3.0955225509e+000,3.2687647813e+000,3.1154841679e+000,3.7301610685e+000,2.9686035084e+000,4.0856837257e+000,2.5084498292e+000,3.7126043974e+000,2.5570604143e+000,3.2478456223e+000,
6.0000000000e+000,3.0450186546e+000,3.2443094790e+000,2.9270474380e+000,3.3446416042e+000,3.1201242387e+000,2.6292889629e+000,3.1000526263e+000,3.2916017664e+000,2.9464290884e+000,3.9080305814e+000,2.4793520932e+000,3.4176186212e+000,2.5756536590e+000,3.1900310861e+000,
6.0937500000e+000,2.9726359181e+000,3.2231358657e+000,2.5546811752e+000,3.2389738807e+000,3.1102006743e+000,2.6067200326e+000,3.0333401990e+000,3.2226243942e+000,2.8734653467e+000,3.9099363108e+000,2.5182825293e+000,3.2349467198e+000,2.5747861650e+000,3.1007344246e+000,
6.1875000000e+000,3.0135549289e+000,3.2151285561e+000,2.5782014352e+000,3.2555813424e+000,3.1090168831e+000,2.5653786094e+000,3.0575085040e+000,3.2364169198e+000,2.8406086825e+000,3.8574237196e+000,2.4939827240e+000,3.1063364553e+000,2.4521266955e+000,3.1016863483e+000,
6.2812500000e+000,2.9116256345e+000,3.1862132576e+000,2.5421552986e+000,3.1576163241e+000,3.0109599595e+000,2.3601039350e+000,2.9833604771e+000,3.2159453988e+000,2.7330292661e+000,3.8282717729e+000,2.4722136142e+000,3.0758997711e+000,2.3580278657e+000,3.0354619048e+000,
6.3750000000e+000,2.9422892015e+000,3.3869548780e+000,2.5368167712e+000,3.3941172258e+000,3.0250878231e+000,2.7054116850e+000,2.9494101301e+000,3.5463122766e+000,2.7306572657e+000,4.0779353101e+000,2.4190546213e+000,3.2160336294e+000,2.4279972419e+000,3.2398889060e+000,
6.4687500000e+000,2.9743759458e+000,3.4523126999e+000,2.5698031724e+000,3.4511119517e+000,3.0622094900e+000,2.8814506998e+000,3.0041264926e+000,3.6511939640e+000,2.7269958556e+000,4.1533413846e+000,2.4135285615e+000,3.3799814009e+000,2.4963739553e+000,3.3990055193e+000,
6.5625000000e+000,2.8995652930e+000,3.4449661157e+000,2.6392934716e+000,3.4520216451e+000,3.0526814487e+000,2.8860431546e+000,2.9976498016e+000,3.6540975161e+000,2.7787817503e+000,4.1814089496e+000,2.4786694352e+000,3.4845961549e+000,2.5640267487e+000,3.4256710769e+000,
6.6562500000e+000,2.8669889417e+000,3.2978610975e+000,2.5125560164e+000,3.3575969617e+000,3.0124874151e+000,2.7619402654e+000,2.9382776639e+000,3.4903650604e+000,2.8384502892e+000,3.9402410736e+000,2.3804189431e+000,3.3486528723e+000,2.4717487464e+000,3.3511320991e+000,
6.7500000000e+000,3.0209759723e+000,3.5147124303e+000,2.4652585293e+000,3.3933164276e+000,3.1917992492e+000,2.8861116063e+000,3.0141547948e+000,3.5246849309e+000,2.8262504476e+000,3.9617321874e+000,2.2754944406e+000,3.2554057444e+000,2.5616687952e+000,3.2933976112e+000,
6.8437500000e+000,3.1276906378e+000,3.7622386477e+000,2.4177043044e+000,3.5475108635e+000,3.2925353488e+000,3.0048447547e+000,2.9592037871e+000,3.4842947010e+000,2.8165659013e+000,4.0031185371e+000,2.0910818377e+000,3.3201182369e+000,2.6148589810e+000,3.3657957794e+000,
6.9375000000e+000,3.2778566713e+000,3.8274252693e+000,2.4870402357e+000,3.5899578028e+000,3.3618538735e+000,3.0656737234e+000,2.8975166992e+000,3.4497246073e+000,2.7213577480e+000,3.9416735422e+000,1.9514558524e+000,3.2662767596e+000,2.6043536375e+000,3.2915261771e+000,
7.0312500000e+000,3.4385547980e+000,3.9929416726e+000,2.7666516933e+000,3.7415127158e+000,3.3859290290e+000,3.4376180438e+000,2.9530036037e+000,3.7608000597e+000,2.7401548149e+000,4.1447810430e+000,1.9593701173e+000,3.5031340654e+000,2.7127537155e+000,3.3477720431e+000,
7.1250000000e+000,3.4197483023e+000,4.0870947946e+000,2.7920197235e+000,3.7200950312e+000,3.3190438471e+000,3.5173901391e+000,2.9381327715e+000,3.8325300971e+000,2.6489384408e+000,4.1865857463e+000,1.8592148596e+000,3.5848169451e+000,2.7852531125e+000,3.3947079913e+000,
7.2187500000e+000,3.4206618853e+000,4.1450004380e+000,2.8122971806e+000,3.6969977523e+000,3.3653641746e+000,3.5236773210e+000,2.8487120296e+000,3.8239720792e+000,2.6139378349e+000,4.1890572355e+000,1.9391305018e+000,3.6244964696e+000,2.7521519034e+000,3.3662077734e+000,
7.3125000000e+000,3.4444372244e+000,4.1057783908e+000,2.9349894963e+000,3.6506003932e+000,3.4074630804e+000,3.5557010441e+000,2.9039797602e+000,3.7742521030e+000,2.6527211384e+000,4.2085605597e+000,1.8903127554e+000,3.6575043427e+000,2.8353736225e+000,3.3825089699e+000,
7.4062500000e+000,3.4475852051e+000,4.0254095334e+000,2.8950317429e+000,3.4802461527e+000,3.4415985003e+000,3.3688523155e+000,2.9827389046e+000,3.5083804987e+000,2.6792784376e+000,3.9151573040e+000,1.8496519349e+000,3.4714190856e+000,2.7803695671e+000,3.1468372709e+000,
7.5000000000e+000,3.4398807144e+000,4.0354503431e+000,2.9214301458e+000,3.5364834572e+000,3.4722431085e+000,3.3902039186e+000,2.9725308602e+000,3.4947192623e+000,2.7025927022e+000,3.8720802861e+000,1.9937239730e+000,3.3476615707e+000,2.7366955880e+000,2.9891250819e+000,
7.5937500000e+000,3.4424863717e+000,4.0165880339e+000,2.8902242087e+000,3.4973922979e+000,3.4329484706e+000,3.3752164325e+000,2.9991441747e+000,3.4466611685e+000,2.6681252934e+000,3.8676680398e+000,2.0566091456e+000,3.2548609895e+000,2.7129250230e+000,2.9466321728e+000,
7.6875000000e+000,3.5317838517e+000,4.0676905987e+000,2.9681859265e+000,3.6064927592e+000,3.4769039572e+000,3.4498693281e+000,3.0365000698e+000,3.5907736598e+000,2.6616373506e+000,3.9765185765e+000,2.1076007986e+000,3.3558712135e+000,2.7881335935e+000,2.9715438417e+000,
7.7812500000e+000,3.3783185450e+000,3.8889135338e+000,3.0014952448e+000,3.4615899679e+000,3.2405688214e+000,3.3270399255e+000,2.9414819885e+000,3.5730694598e+000,2.7178049959e+000,3.9783749046e+000,2.0916132258e+000,3.2935390813e+000,2.7096387508e+000,2.9427437730e+000,
7.8750000000e+000,3.0438967250e+000,3.6032745743e+000,2.9021031653e+000,3.3111545131e+000,2.9653095483e+000,3.2379074362e+000,2.8947567694e+000,3.5535264127e+000,2.6536334468e+000,3.9061909654e+000,2.0789130122e+000,3.2644399875e+000,2.6899351425e+000,2.8110745369e+000,
7.9687500000e+000,2.9901905290e+000,3.5893775319e+000,2.8545896541e+000,3.2713110962e+000,2.9130554063e+000,3.2010749548e+000,2.8627117091e+000,3.4838534795e+000,2.7210335456e+000,3.8878566711e+000,2.0615068211e+000,3.3153193760e+000,2.6874043656e+000,2.8118891804e+000,
8.0625000000e+000,2.7804930224e+000,3.4120406985e+000,2.6460885802e+000,3.0853520739e+000,2.8273710682e+000,2.6950228915e+000,2.7831939280e+000,3.1442721406e+000,2.7463103346e+000,3.5556426752e+000,2.0634048695e+000,2.9962068613e+000,2.5757287148e+000,2.5094443751e+000,
8.1562500000e+000,2.9914520455e+000,3.2469606801e+000,2.8158618453e+000,3.0873972898e+000,2.9972099804e+000,2.6993424562e+000,2.8879830273e+000,3.1992941794e+000,2.7248991893e+000,3.6157317238e+000,2.0970508766e+000,3.0326402104e+000,2.6540257654e+000,2.5230564106e+000,
8.2500000000e+000,3.0537812123e+000,3.2913808274e+000,2.7443223379e+000,3.1080726224e+000,2.9104884089e+000,3.0095382617e+000,2.9161678791e+000,3.4047960100e+000,2.6891798461e+000,3.6776055709e+000,2.0705851539e+000,3.1039072635e+000,2.6180222203e+000,2.6905342626e+000,
8.3437500000e+000,3.1608065643e+000,3.3146369075e+000,2.8750421637e+000,3.1598445893e+000,3.0503093595e+000,3.1191357864e+000,3.0122466895e+000,3.4195397189e+000,2.7521673658e+000,3.7481885781e+000,2.1745236354e+000,3.3604541776e+000,2.7123032147e+000,3.1936963986e+000,
8.4375000000e+000,3.1887759186e+000,3.2833946682e+000,2.9253708949e+000,3.1228956126e+000,3.0237498802e+000,3.1410064456e+000,2.9545086323e+000,3.4377322755e+000,2.7223691820e+000,3.7687400199e+000,2.1447960146e+000,3.4262436924e+000,2.7130500876e+000,3.2269380514e+000,
8.5312500000e+000,3.1788418728e+000,3.3196355677e+000,2.9529643721e+000,3.1848426416e+000,3.0152240741e+000,3.1470440988e+000,2.8943818239e+000,3.4473822246e+000,2.7297093654e+000,3.8662502890e+000,1.9654933722e+000,3.4854532070e+000,2.7032926517e+000,3.2645206753e+000,
8.6250000000e+000,3.2182085842e+000,3.3367648675e+000,2.8894794650e+000,3.0887666661e+000,2.9809954028e+000,3.0693185656e+000,2.7320339144e+000,3.3508939974e+000,2.7139998543e+000,3.6819934993e+000,1.9469700450e+000,3.4219811131e+000,2.7029069558e+000,3.2928953018e+000,
8.7187500000e+000,3.2427366208e+000,3.3497101734e+000,2.9143771559e+000,3.0441081814e+000,2.9926114179e+000,3.1109938573e+000,2.8150012200e+000,3.2916108100e+000,2.6561399351e+000,3.6710463417e+000,1.9033320743e+000,3.4672867287e+000,2.6164977550e+000,3.2914384137e+000,
8.8125000000e+000,3.2320677568e+000,3.3513619720e+000,2.9001829861e+000,3.0385300612e+000,2.9937672677e+000,3.1405671212e+000,2.8743513669e+000,3.3201479420e+000,2.5697454981e+000,3.5977167310e+000,1.8682258616e+000,3.4333583171e+000,2.6519132453e+000,3.3596311480e+000,
8.9062500000e+000,3.2535633024e+000,3.5334670812e+000,2.9443236191e+000,3.0957884270e+000,3.0178745506e+000,3.1946337108e+000,2.8781058870e+000,3.3199095138e+000,2.5793352123e+000,3.6328714022e+000,2.0109226316e+000,3.4405171356e+000,2.6372860055e+000,3.3795917912e+000,
9.0000000000e+000,3.2819434025e+000,3.6512087097e+000,3.1290055457e+000,3.2271609603e+000,3.2311081452e+000,3.2808572053e+000,2.9910498199e+000,3.5271892947e+000,2.5974853384e+000,3.8622367184e+000,2.4345543026e+000,3.5707477477e+000,2.6659425825e+000,3.4617321783e+000,
9.0937500000e+000,3.2339824035e+000,3.6120475083e+000,3.0685553117e+000,3.2214901905e+000,3.2783909494e+000,3.3003645823e+000,2.9616653916e+000,3.5021801799e+000,2.7220973393e+000,3.8394770286e+000,2.4297038452e+000,3.5826110643e+000,2.5129921725e+000,3.4685918753e+000,
9.1875000000e+000,3.2020751687e+000,4.0260952549e+000,2.9740820722e+000,3.2539080379e+000,3.1716185916e+000,3.4190564356e+000,2.8540959946e+000,3.4922049601e+000,2.8718361510e+000,3.8160929841e+000,2.4234090754e+000,3.5390528080e+000,2.5245518850e+000,3.4835970023e+000,
9.2812500000e+000,3.2450514318e+000,4.2820013179e+000,2.9186011843e+000,3.2476230140e+000,3.1836837001e+000,3.3127042970e+000,2.8533416808e+000,3.3978129832e+000,2.8306964993e+000,3.7429654565e+000,2.4131423774e+000,3.4349480568e+000,2.5593831417e+000,3.3124214114e+000,
9.3750000000e+000,3.1954688266e+000,4.3161278657e+000,2.9002274954e+000,3.2709023940e+000,3.0205974271e+000,3.2928723021e+000,2.7902023943e+000,3.4043582199e+000,2.8036953649e+000,3.6746927854e+000,2.4126728081e+000,3.2480515376e+000,2.4290441092e+000,3.1451361790e+000,
9.4687500000e+000,3.1441698308e+000,4.3011237682e+000,2.7721969057e+000,3.1880964682e+000,2.9524570504e+000,3.2137759832e+000,2.7676581777e+000,3.3482711577e+000,2.8080868499e+000,3.5513358024e+000,2.4195703748e+000,3.1336178526e+000,2.4811715762e+000,3.0255283199e+000,
9.5625000000e+000,3.1499793862e+000,4.3190542352e+000,2.8570380940e+000,3.2555994554e+000,2.9513092976e+000,3.2435542206e+000,2.7981889289e+000,3.4926345413e+000,2.8657796958e+000,3.6683584227e+000,2.3838168667e+000,3.1785004072e+000,2.4255812115e+000,2.9750838677e+000,
9.6562500000e+000,3.1314349656e+000,4.3900104731e+000,2.8893156295e+000,3.4466250240e+000,2.8703688548e+000,3.3716429167e+000,2.8128863518e+000,3.6870070581e+000,2.9306937760e+000,3.8881331927e+000,2.4762097344e+000,3.3956897257e+000,2.4962515181e+000,2.8714747094e+000,
9.7500000000e+000,3.1016697589e+000,4.3787136116e+000,2.8583446656e+000,3.4575777028e+000,2.8257778647e+000,3.3548521890e+000,2.7670566011e+000,3.6949525287e+000,2.9213887258e+000,3.9507948558e+000,2.5349180243e+000,3.3881900595e+000,2.4826351075e+000,2.7754105589e+000,
9.8437500000e+000,3.1783753385e+000,4.3379196263e+000,2.8429442206e+000,3.4388045274e+000,2.8628439128e+000,3.3297099573e+000,2.7754077616e+000,3.6960103208e+000,2.9450987037e+000,4.0137743502e+000,2.5385869237e+000,3.4264190158e+000,2.5793964014e+000,2.7317164191e+000,
9.9375000000e+000,3.1844347251e+000,4.2732498277e+000,2.7403823795e+000,3.4177029158e+000,2.8268846281e+000,3.2558402499e+000,2.8260536977e+000,3.6268664069e+000,2.9320907030e+000,3.9873801471e+000,2.1764602360e+000,3.3515847273e+000,2.6212343538e+000,2.9799609101e+000,
1.0031250000e+001,3.1267756637e+000,4.2277408792e+000,2.5697514016e+000,3.2836961742e+000,2.3500638168e+000,3.1483021574e+000,2.7551702367e+000,3.4885263084e+000,2.9012295720e+000,3.8171271460e+000,2.2562111172e+000,3.1699323356e+000,2.7109811452e+000,2.9579115394e+000,
1.0125000000e+001,3.1796340960e+000,4.2751166807e+000,2.5917473868e+000,3.3375581056e+000,2.3929250257e+000,3.3773808855e+000,2.7863430998e+000,3.5197992759e+000,2.9279932070e+000,3.8571680989e+000,2.2948616186e+000,3.2200136712e+000,2.7304442756e+000,2.8609441868e+000,
1.0218750000e+001,3.1256492703e+000,3.8213495377e+000,2.6422930664e+000,3.2987953848e+000,2.4153810752e+000,3.3233972029e+000,2.9532135403e+000,3.4796041641e+000,2.8556013552e+000,3.8406115353e+000,2.2714312782e+000,3.3279355289e+000,2.7078216745e+000,2.8272428315e+000,
1.0312500000e+001,3.0519902129e+000,3.5745709860e+000,2.7492289488e+000,3.4057285388e+000,2.4135580242e+000,3.1805625450e+000,2.9792637136e+000,3.5453961079e+000,3.0499370042e+000,3.9580491996e+000,2.4160314821e+000,3.5366053994e+000,2.8375059773e+000,3.0877983792e+000,
1.0406250000e+001,3.1335199748e+000,3.5565574148e+000,2.7630762685e+000,3.4383420100e+000,2.4937848578e+000,3.2170002094e+000,2.9617110746e+000,3.5034109608e+000,3.0510648061e+000,3.9396334643e+000,2.4080774206e+000,3.5457906802e+000,2.7491527248e+000,3.0625226043e+000,
1.0500000000e+001,3.1527177706e+000,3.5453945668e+000,2.7784984291e+000,3.4752910311e+000,2.5578791251e+000,3.2704333590e+000,2.9839062378e+000,3.5938086840e+000,3.0335443004e+000,3.8897275743e+000,2.3918224472e+000,3.5795112459e+000,2.7522821937e+000,3.1043660726e+000,
1.0593750000e+001,3.1932675831e+000,3.5097774780e+000,2.7403744444e+000,3.4194746061e+000,2.8329423185e+000,3.2187569403e+000,3.0130889585e+000,3.3611973392e+000,3.0652382982e+000,3.8615596042e+000,2.3568094317e+000,3.5799331507e+000,2.8030820690e+000,3.2471041448e+000,
1.0687500000e+001,3.1646167223e+000,3.2890888907e+000,2.7122493667e+000,3.2341537480e+000,2.8361103775e+000,3.0260945347e+000,2.9371931680e+000,3.0612139529e+000,3.0200384590e+000,3.6907646662e+000,2.2749816893e+000,3.4194116101e+000,2.7309481507e+000,3.2594168058e+000,
1.0781250000e+001,3.1287672861e+000,3.2953711980e+000,2.6922291307e+000,3.2370736323e+000,2.9510040641e+000,3.1021193516e+000,2.9668018048e+000,3.0274607630e+000,3.0138397109e+000,3.6717200601e+000,2.1940075715e+000,3.4321215966e+000,2.7122689418e+000,3.2360909348e+000,
1.0875000000e+001,3.1499252569e+000,3.3763011478e+000,2.7850524143e+000,3.4332799516e+000,3.0849514877e+000,3.2209975261e+000,3.1217854060e+000,3.3281431137e+000,3.0771945772e+000,3.8739929467e+000,2.1881365842e+000,3.6658531290e+000,2.6065481565e+000,3.2040355267e+000,
1.0968750000e+001,3.1417423858e+000,3.4165666265e+000,2.7624154163e+000,3.3938775789e+000,3.2048443315e+000,3.2461254044e+000,3.1487269983e+000,3.3128419719e+000,3.0267086298e+000,3.8397723108e+000,2.1313428769e+000,3.6775627920e+000,2.5524883157e+000,3.0866974831e+000,
1.1062500000e+001,3.2000305963e+000,3.4525083393e+000,2.7802458884e+000,3.4237619967e+000,3.2445191588e+000,3.3150086267e+000,3.1947315942e+000,3.3537241892e+000,3.0603671481e+000,3.8112684897e+000,2.1073680754e+000,3.7363517741e+000,2.5612622724e+000,3.0377813368e+000,
1.1156250000e+001,3.2273748625e+000,3.2427864133e+000,2.7639108889e+000,3.3598986603e+000,3.2592736999e+000,3.1029037934e+000,3.1992001999e+000,3.2717667275e+000,3.0270064382e+000,3.7680427415e+000,2.1253691164e+000,3.7134960937e+000,2.5997394101e+000,3.0849117796e+000,
1.1250000000e+001,3.1770823163e+000,3.1512637641e+000,2.7091297791e+000,3.3455924010e+000,3.2761284497e+000,2.9122123310e+000,3.0809900105e+000,3.2153746014e+000,2.7992372482e+000,3.6310504139e+000,2.1986600330e+000,3.5539366750e+000,2.5085876846e+000,3.1432062487e+000,
1.1343750000e+001,3.0846706128e+000,3.0612138438e+000,2.5901498715e+000,3.3051815520e+000,3.2995209512e+000,2.9005132079e+000,3.0408426476e+000,3.2150343692e+000,2.8974503147e+000,3.7034628177e+000,2.1047339765e+000,3.5072826969e+000,2.2947789102e+000,3.0646191217e+000,
1.1437500000e+001,3.0967499068e+000,3.1898362955e+000,2.6270436690e+000,3.4728256937e+000,3.3479661724e+000,2.9652007365e+000,3.0483497417e+000,3.2763423349e+000,2.9728523179e+000,3.7761822632e+000,2.0349935420e+000,3.4918297919e+000,2.3703757279e+000,2.9607315137e+000,
1.1531250000e+001,3.1064526219e+000,3.3163807162e+000,2.6828417402e+000,3.5263811865e+000,3.3732416447e+000,2.9451312154e+000,3.0035826669e+000,3.3283571559e+000,2.9536445078e+000,3.9766692316e+000,2.2756535672e+000,3.5938643190e+000,2.4806669572e+000,3.0393879152e+000,
1.1625000000e+001,2.9788777702e+000,3.3091211607e+000,2.5953710756e+000,3.4529252710e+000,3.2512545750e+000,3.0226909846e+000,2.9677279543e+000,3.3555033444e+000,2.8483209880e+000,3.9287863293e+000,2.4686720412e+000,3.4850385193e+000,2.6417765279e+000,2.8813511029e+000,
1.1718750000e+001,2.9424201655e+000,3.3119513277e+000,2.5259298314e+000,3.4788337709e+000,3.2862000887e+000,3.0727900340e+000,2.9450343708e+000,3.3622883456e+000,2.9079220241e+000,3.9172322173e+000,2.4780479122e+000,3.4719280798e+000,2.6422354321e+000,2.9094331585e+000,
1.1812500000e+001,2.9395573258e+000,3.2979460843e+000,2.5459103355e+000,3.5086667117e+000,3.2936227272e+000,3.0204076519e+000,2.8717377286e+000,3.3646351751e+000,2.9104643473e+000,3.8955271028e+000,2.4872078722e+000,3.3938796386e+000,2.6916764840e+000,2.9746347732e+000,
1.1906250000e+001,2.8770748036e+000,3.2697317130e+000,2.4983896264e+000,3.3249129314e+000,3.2613501192e+000,3.0629243163e+000,2.6597267867e+000,3.1303554114e+000,2.8207505880e+000,3.5774519502e+000,2.5126638181e+000,3.0788853184e+000,2.6860596740e+000,2.9338678653e+000,
1.2000000000e+001,3.1493421931e+000,3.8192871967e+000,2.7569780996e+000,3.4891831848e+000,3.3289246667e+000,3.4868242346e+000,2.6193669542e+000,3.3216567132e+000,2.8000899800e+000,3.6416046654e+000,2.4522409697e+000,3.0043631217e+000,2.7248008725e+000,3.0485595262e+000,
1.2093750000e+001,3.2589765309e+000,3.9589744122e+000,2.7490924381e+000,3.5559655722e+000,3.4056981568e+000,3.5774869874e+000,2.7237158304e+000,3.4360901922e+000,2.8561462581e+000,3.7088446574e+000,2.4233565104e+000,2.9736449973e+000,2.7876695797e+000,3.0166111771e+000,
1.2187500000e+001,3.2677195808e+000,4.0547952853e+000,2.8382688828e+000,3.6633239931e+000,3.3881238538e+000,3.6772689649e+000,2.6872964895e+000,3.6421431992e+000,2.9503159210e+000,3.9119692916e+000,2.5517495186e+000,3.1343201933e+000,2.8277738949e+000,3.0968621245e+000,
1.2281250000e+001,3.2799307091e+000,4.0586449930e+000,2.8349427900e+000,3.6571229721e+000,3.4302981785e+000,3.7005527705e+000,2.7540706734e+000,3.6503648345e+000,2.9503637131e+000,3.8731845614e+000,2.5992592171e+000,3.0829391018e+000,3.0721100086e+000,2.9665190665e+000,
1.2375000000e+001,3.3016058833e+000,4.0305000323e+000,2.8346049384e+000,3.5718414046e+000,3.4226027894e+000,3.7106540381e+000,2.7315094544e+000,3.5775186175e+000,2.9002500145e+000,3.8298097448e+000,2.6309764909e+000,3.1927052373e+000,3.1631899405e+000,3.0262675966e+000,
1.2468750000e+001,3.3037818629e+000,4.0188368632e+000,2.8167431134e+000,3.4360515777e+000,3.4739387675e+000,3.6940138815e+000,2.7356432346e+000,3.5701242565e+000,2.8005218846e+000,3.8340286851e+000,2.6946524657e+000,3.2569309277e+000,3.1963639870e+000,3.1656238943e+000,
1.2562500000e+001,3.2540311201e+000,3.9400191184e+000,2.7357096918e+000,3.3711034624e+000,3.4534896470e+000,3.6243092159e+000,2.7771235575e+000,3.4430012114e+000,2.8668178699e+000,3.4522782552e+000,2.3738343811e+000,3.0778889827e+000,3.1696273972e+000,3.1613197506e+000,
1.2656250000e+001,3.2759458449e+000,3.9881148510e+000,2.8278312068e+000,3.4649343558e+000,3.4054262477e+000,3.6312941772e+000,2.8491509376e+000,3.5000977964e+000,2.7922559804e+000,3.4642969490e+000,2.4343036527e+000,3.2038264007e+000,3.1296793992e+000,3.1414924514e+000,
1.2750000000e+001,3.2883924779e+000,3.9994244879e+000,2.8364752551e+000,3.4198189399e+000,3.4152130221e+000,3.6835068437e+000,2.9522266826e+000,3.5947709344e+000,2.7628098948e+000,3.5271669872e+000,2.4557646570e+000,3.2337996152e+000,3.1625646658e+000,3.1325059925e+000,
1.2843750000e+001,3.3170714540e+000,4.0470392120e+000,2.8649946742e+000,3.4987724633e+000,3.3731167412e+000,3.7157710749e+000,3.0125611504e+000,3.6724859358e+000,2.8430597998e+000,3.6814838400e+000,2.4568481335e+000,3.3552693768e+000,3.1660769689e+000,3.2544617883e+000,
1.2937500000e+001,3.1606646697e+000,3.8653293009e+000,2.7689683769e+000,3.4472391645e+000,3.2338280756e+000,3.5878976733e+000,2.9588279171e+000,3.6185607784e+000,2.8176402354e+000,3.7523930886e+000,2.5485007514e+000,3.4421830749e+000,3.1999802995e+000,3.3122570750e+000,
1.3031250000e+001,2.9820145099e+000,3.5902355986e+000,2.6189519250e+000,3.3896493920e+000,3.2408420303e+000,3.4160582282e+000,2.9908844765e+000,3.5979077699e+000,2.8339051825e+000,3.7909716930e+000,2.5286128743e+000,3.6704027942e+000,3.0998641176e+000,3.3757954607e+000,
1.3125000000e+001,2.8195302331e+000,3.4038877129e+000,2.5932882080e+000,3.3459296158e+000,3.2321653977e+000,3.2996655683e+000,2.9327788720e+000,3.4994795219e+000,2.7610948189e+000,3.8182428823e+000,2.5114538941e+000,3.7034647746e+000,3.0804365511e+000,3.4085885242e+000,
1.3218750000e+001,2.6031531943e+000,3.1995024519e+000,2.4933297952e+000,3.2341448838e+000,3.1419933264e+000,3.1277592285e+000,2.8972380122e+000,3.2681895491e+000,2.6333928192e+000,3.5648021469e+000,2.2438845188e+000,3.5658695904e+000,3.0562656739e+000,3.3131973342e+000,
1.3312500000e+001,2.5180141588e+000,3.2700102837e+000,2.4450815745e+000,3.2403379206e+000,3.2106873940e+000,3.0937230370e+000,2.8445887198e+000,3.1981923830e+000,2.7231911491e+000,3.5644447180e+000,2.1380066356e+000,3.5286494078e+000,2.8337947778e+000,3.2832582280e+000,
1.3406250000e+001,2.5322201235e+000,3.2597486949e+000,2.3749991208e+000,3.1850990694e+000,3.1742641822e+000,3.0288921355e+000,2.8512835730e+000,3.1672047444e+000,2.7317011603e+000,3.5497596931e+000,2.0129703716e+000,3.4828894805e+000,2.7304466927e+000,3.1980397726e+000,
1.3500000000e+001,2.5644422438e+000,3.2891637476e+000,2.4802127891e+000,3.2175147315e+000,3.1379949302e+000,3.0863132306e+000,2.8715148958e+000,3.2704137539e+000,2.6953112396e+000,3.6400206602e+000,1.9613962708e+000,3.4615102072e+000,2.6347170704e+000,3.0581447380e+000,
1.3593750000e+001,2.7910308043e+000,3.4269979736e+000,2.6379269619e+000,3.4065672439e+000,3.5183655020e+000,3.2261893048e+000,3.0314113692e+000,3.4863149693e+000,2.8712080280e+000,3.9317806806e+000,1.9853857929e+000,3.5512095570e+000,2.6454122922e+000,3.0947365277e+000,
1.3687500000e+001,2.7914312353e+000,3.4014377827e+000,2.5703407186e+000,3.5548580204e+000,3.5633322954e+000,3.2754612538e+000,2.8954964070e+000,3.5762010763e+000,2.8838057628e+000,3.9919396742e+000,1.8449245413e+000,3.6017087079e+000,2.6080176262e+000,3.1232967350e+000,
1.3781250000e+001,2.8428576438e+000,3.4578936168e+000,2.6084755652e+000,3.5873016555e+000,3.4921073433e+000,3.1832754000e+000,2.8649183578e+000,3.5575425899e+000,2.8356441624e+000,4.0486426805e+000,1.8463895745e+000,3.6616342062e+000,2.5141686220e+000,3.2055468699e+000,
1.3875000000e+001,2.7871543410e+000,3.3531046140e+000,2.4944733976e+000,3.4481032158e+000,3.5028280176e+000,3.0950559434e+000,2.8241049404e+000,3.4754041700e+000,2.8435657494e+000,3.9494429849e+000,1.7826380393e+000,3.5644045392e+000,2.5401791575e+000,3.0011010673e+000,
1.3968750000e+001,2.8070397362e+000,3.2632903081e+000,2.4991469075e+000,3.4286807801e+000,3.5223915400e+000,2.9628573521e+000,2.8587425901e+000,3.3945458840e+000,2.9139379757e+000,3.9226246950e+000,1.6547042058e+000,3.5128486338e+000,2.4658198355e+000,2.9569936402e+000,
1.4062500000e+001,2.8016629326e+000,3.2498830168e+000,2.5424094381e+000,3.4009879452e+000,3.5123393553e+000,2.9097671640e+000,2.8918354928e+000,3.3952758646e+000,2.9533504796e+000,3.9379188611e+000,1.7906482035e+000,3.3326370901e+000,2.5959044208e+000,2.9113091752e+000,
1.4156250000e+001,2.8443408815e+000,3.2999763898e+000,2.5637602687e+000,3.3897289946e+000,3.5107591918e+000,2.8763211496e+000,3.0201551633e+000,3.4301170487e+000,2.9307317019e+000,3.9430878900e+000,1.8296162702e+000,3.3741056510e+000,2.4993887361e+000,2.8401342654e+000,
1.4250000000e+001,2.8560510078e+000,3.2983193589e+000,2.5031532024e+000,3.3851118699e+000,3.4834144674e+000,2.8817078357e+000,3.0561958987e+000,3.5128302815e+000,2.8698834569e+000,4.0012857067e+000,1.9878242853e+000,3.4617676962e+000,2.4887664126e+000,2.9284455620e+000,
1.4343750000e+001,2.8848838040e+000,3.2622533402e+000,2.5993806482e+000,3.4363072733e+000,3.4379934361e+000,2.9890359747e+000,3.0381215756e+000,3.5330197220e+000,2.7859696767e+000,4.0209433529e+000,2.0083168408e+000,3.5009560695e+000,2.4884576550e+000,3.0081856950e+000,
1.4437500000e+001,2.8477935218e+000,3.2807639073e+000,2.6081298777e+000,3.4772966075e+000,3.4674075769e+000,3.0220729098e+000,3.0596905058e+000,3.5557920958e+000,2.8223455512e+000,4.0212869908e+000,1.9933729568e+000,3.4311090025e+000,2.4717512338e+000,3.0751125686e+000,
1.4531250000e+001,2.7796715223e+000,3.1505601773e+000,2.4894565930e+000,3.3590098167e+000,3.5441425415e+000,2.8925059405e+000,2.9856769251e+000,3.3814259176e+000,2.8300532081e+000,3.8033951641e+000,1.9838195619e+000,3.3240200449e+000,2.5270207146e+000,3.0878139236e+000,
1.4625000000e+001,2.6188189866e+000,3.0373404814e+000,2.4789146568e+000,3.1849425148e+000,3.2134271008e+000,2.7876002085e+000,2.9300354873e+000,3.2892166849e+000,2.5960784872e+000,3.6874354374e+000,1.9450712531e+000,3.2914986398e+000,2.5863957265e+000,3.1167133812e+000,
1.4718750000e+001,2.6058122692e+000,2.9547419772e+000,2.4325047304e+000,2.9424232557e+000,3.1456263110e+000,2.6915771622e+000,2.9093450771e+000,3.2046685474e+000,2.6378174509e+000,3.6035897942e+000,1.9970809697e+000,3.1756221087e+000,2.5316842752e+000,3.1213235198e+000,
1.4812500000e+001,2.5956683688e+000,3.0270150507e+000,2.4800334901e+000,2.9616409199e+000,3.2303726402e+000,2.8982093825e+000,2.8856563842e+000,3.1861750268e+000,2.6210676911e+000,3.5734511412e+000,1.9277373372e+000,3.1412771062e+000,2.4996166798e+000,3.0789338008e+000,
1.4906250000e+001,2.7081541445e+000,3.3045932906e+000,2.5592649037e+000,3.1706422113e+000,3.2156658835e+000,3.0779327909e+000,3.0053800062e+000,3.3427543901e+000,2.5748371268e+000,3.6666440890e+000,2.0227621385e+000,3.2159919668e+000,2.4895384445e+000,3.1174307049e+000,
1.5000000000e+001,3.5989833378e+000,4.5910395219e+000,2.8773481565e+000,3.6259052990e+000,3.3670928421e+000,3.8819197715e+000,3.1300052442e+000,3.7556972347e+000,2.8284490811e+000,3.6787725362e+000,2.2695770112e+000,3.1922942967e+000,2.7887586101e+000,3.1267702878e+000,
1.5093750000e+001,3.6750841728e+000,4.7592218418e+000,2.8867023283e+000,3.7097443279e+000,3.3381918279e+000,3.9572728509e+000,3.0630212696e+000,3.8283665253e+000,2.7936128863e+000,3.6133159117e+000,2.2006256345e+000,3.1395573462e+000,2.7493692392e+000,3.1169542538e+000,
1.5187500000e+001,3.6739408396e+000,4.7569338727e+000,2.8624211741e+000,3.7655929966e+000,3.2660035626e+000,3.9512818930e+000,2.8921255395e+000,3.8237262211e+000,2.8045937340e+000,3.6388163559e+000,2.1805865537e+000,3.1597416348e+000,2.8144653659e+000,3.2084245604e+000,
1.5281250000e+001,3.6819952607e+000,4.7625013171e+000,2.9313013683e+000,3.7725706388e+000,3.4274525847e+000,3.9423951867e+000,2.9338065981e+000,3.7926525650e+000,2.8067489794e+000,3.6246377112e+000,2.1069913876e+000,3.0852590174e+000,2.8200426413e+000,3.1530098685e+000,
1.5375000000e+001,3.6887980756e+000,4.7836117075e+000,2.9613648860e+000,3.8587061981e+000,3.4302745877e+000,3.9382582045e+000,2.9549800956e+000,3.8828254723e+000,2.8013884806e+000,3.6118404727e+000,2.1223853046e+000,3.0426432693e+000,2.7874103318e+000,3.1829626870e+000,
1.5468750000e+001,3.6709660535e+000,4.7802039313e+000,2.9331146198e+000,3.8618182655e+000,3.2837954275e+000,3.9116718611e+000,2.8990346788e+000,3.8609358025e+000,2.7920546575e+000,3.5427058306e+000,2.1799333545e+000,3.0306935242e+000,2.7838299410e+000,3.1334436183e+000,
1.5562500000e+001,3.6605318445e+000,4.7771822186e+000,2.9198610820e+000,3.8424341217e+000,3.1998028432e+000,3.8920873966e+000,2.9177565345e+000,3.8154881159e+000,2.8085580820e+000,3.5778411708e+000,2.1798987587e+000,2.9565280335e+000,2.7027273506e+000,3.0777212617e+000,
1.5656250000e+001,3.7450666858e+000,5.0709335607e+000,2.9925691061e+000,4.0132289756e+000,3.3161311445e+000,4.2853165787e+000,2.9563370927e+000,4.1031889881e+000,2.8880427225e+000,3.8425065807e+000,2.2046668250e+000,3.2086577934e+000,2.7804056745e+000,3.2175006853e+000,
1.5750000000e+001,3.7688825400e+000,5.1580261723e+000,2.9765953347e+000,4.0946630188e+000,3.2715345983e+000,4.4537888945e+000,2.9951176726e+000,4.2334153680e+000,2.8719538888e+000,3.9172985289e+000,2.1889735335e+000,3.3193157160e+000,2.8907378056e+000,3.1689596636e+000,
1.5843750000e+001,3.7825909936e+000,5.1651969859e+000,3.0078303432e+000,4.1252084661e+000,3.2557733966e+000,4.4580952943e+000,2.9982381702e+000,4.2988758499e+000,2.9246966989e+000,3.9956450503e+000,2.2143369353e+000,3.4311585632e+000,3.0154766219e+000,3.1995905428e+000,
1.5937500000e+001,3.6913170893e+000,4.9798192432e+000,2.9263219687e+000,4.0738719040e+000,3.3233357712e+000,4.3044652870e+000,2.9692808112e+000,4.2133085412e+000,2.8720587853e+000,3.9154851613e+000,2.1191833377e+000,3.3870405778e+000,2.9672199155e+000,3.1974658141e+000,
1.6031250000e+001,3.4816667412e+000,4.5910475955e+000,2.8704643511e+000,3.9477224504e+000,3.3184893581e+000,4.0903720189e+000,2.9141394138e+000,4.0708220330e+000,2.7882494702e+000,3.9270140239e+000,2.0950371813e+000,3.3717658175e+000,2.7936134247e+000,3.1773811478e+000,
1.6125000000e+001,3.4175001562e+000,4.5235876011e+000,2.8446764411e+000,3.9267256769e+000,3.4347594458e+000,4.0683767650e+000,2.9720224987e+000,4.0602740481e+000,2.8061097905e+000,3.9930633702e+000,2.1184226946e+000,3.3911911315e+000,2.8440574635e+000,3.3044293346e+000,
1.6218750000e+001,3.3969255378e+000,4.5741201981e+000,2.8822067780e+000,3.8867799625e+000,3.3796610138e+000,4.0691708866e+000,2.9209060216e+000,4.0633325452e+000,2.8079799388e+000,4.0214182268e+000,2.0923358403e+000,3.3402146981e+000,2.7768105042e+000,3.2526903386e+000,
1.6312500000e+001,3.4787752911e+000,4.6678399792e+000,2.9120549389e+000,3.8919736547e+000,3.3697803197e+000,4.1475246134e+000,2.8757497302e+000,4.1310535529e+000,2.8381542092e+000,4.1487867369e+000,2.1575566692e+000,3.6173932334e+000,2.8240677009e+000,3.3367997127e+000,
1.6406250000e+001,3.5179439563e+000,4.6631736816e+000,2.8381394378e+000,3.8610358225e+000,3.4326597072e+000,4.1500708723e+000,2.8643911474e+000,4.1026606736e+000,2.8458384401e+000,4.1785277431e+000,2.1785082077e+000,3.6924080540e+000,2.8370809828e+000,3.4388812627e+000,
1.6500000000e+001,3.5597933883e+000,4.7093088708e+000,2.8127246035e+000,3.8455757944e+000,3.3756392176e+000,4.1479157555e+000,2.9672268067e+000,4.0990324848e+000,2.8381442992e+000,4.1899936416e+000,2.1209739273e+000,3.7001710924e+000,2.8868135049e+000,3.4251272458e+000,
1.6593750000e+001,3.6620321709e+000,4.6578715380e+000,2.7606500624e+000,3.7877628575e+000,3.3611081921e+000,4.0837561767e+000,2.9570596624e+000,4.0461628404e+000,2.7806767713e+000,4.0284731258e+000,2.1042996434e+000,3.5667860610e+000,2.8639230788e+000,3.3712938665e+000,
1.6687500000e+001,3.5884457064e+000,4.2433910812e+000,2.8204169126e+000,3.6617839977e+000,3.3794598151e+000,3.6451485048e+000,2.9499528800e+000,3.8297482987e+000,2.8241904894e+000,3.9930708474e+000,2.1145397747e+000,3.5586099097e+000,2.8969439522e+000,3.3894237532e+000,
1.6781250000e+001,3.6695936318e+000,4.0416121165e+000,2.8352384596e+000,3.5093214535e+000,3.4663400172e+000,3.3525281019e+000,2.9064901111e+000,3.6282052989e+000,2.8227017877e+000,3.9381860035e+000,2.1070977513e+000,3.4863878242e+000,2.7599524563e+000,3.4204604351e+000,
1.6875000000e+001,3.6403962699e+000,4.0431830209e+000,2.7835371861e+000,3.5031276566e+000,3.4501692009e+000,3.2315707750e+000,2.9362492866e+000,3.5382776977e+000,2.8185400762e+000,3.9677466096e+000,2.1454377072e+000,3.3836063568e+000,2.8381314304e+000,3.4631740701e+000,
1.6968750000e+001,3.5190710847e+000,4.0333894276e+000,2.8299357101e+000,3.3936814884e+000,3.3982494881e+000,3.3607030467e+000,2.8751021929e+000,3.6549709318e+000,2.7405527241e+000,4.0838915598e+000,1.9212425625e+000,3.5529402413e+000,2.7540474224e+000,3.5398075907e+000,
1.7062500000e+001,3.3498836466e+000,3.9063720097e+000,2.6754938363e+000,3.2543042136e+000,3.1414007290e+000,3.1971041420e+000,2.6565020705e+000,3.5981228119e+000,2.7632171370e+000,4.0636183799e+000,1.8714460376e+000,3.5821223582e+000,2.7188065931e+000,3.4884183368e+000,
1.7156250000e+001,3.4323847682e+000,3.8619689475e+000,2.7250406623e+000,3.2633437777e+000,3.1728957594e+000,3.2441463678e+000,2.8353918257e+000,3.6381595079e+000,2.7113756191e+000,4.0473294125e+000,1.8693674903e+000,3.5931740227e+000,2.7400471334e+000,3.4195565343e+000,
1.7250000000e+001,3.4696680994e+000,3.6849733484e+000,2.6869175343e+000,3.2392494363e+000,3.1297590009e+000,3.2312826564e+000,2.7769931282e+000,3.5797798824e+000,2.6400187142e+000,4.0139434873e+000,1.8105883407e+000,3.5568625374e+000,2.7356920268e+000,3.3968978749e+000,
1.7343750000e+001,3.4629442782e+000,3.5264118791e+000,2.5948418091e+000,3.2349920745e+000,2.9172737830e+000,3.1382421519e+000,2.7636484337e+000,3.4455769138e+000,2.6302859129e+000,3.8467244635e+000,1.6371099098e+000,3.2442993303e+000,2.7362811524e+000,3.3133534784e+000,
1.7437500000e+001,3.4079374719e+000,3.5875484064e+000,2.6449824780e+000,3.2511172555e+000,2.8672959177e+000,3.1435533209e+000,2.6458911823e+000,3.5017055853e+000,2.6434867664e+000,3.8914052757e+000,1.7164149172e+000,3.2479943001e+000,2.8346761923e+000,3.1730263395e+000,
1.7531250000e+001,3.4031850973e+000,3.4271745500e+000,2.7187384462e+000,3.2790140236e+000,2.8745879834e+000,3.0851256365e+000,2.6114505431e+000,3.5031062134e+000,2.6764401333e+000,3.9055155436e+000,1.7074106231e+000,3.2500657259e+000,2.8445801746e+000,3.0827039468e+000,
1.7625000000e+001,3.4442323480e+000,3.4992575925e+000,2.7757917126e+000,3.3577637619e+000,2.8936071872e+000,3.2614129982e+000,2.6208091541e+000,3.6240312732e+000,2.6371152747e+000,4.0521824419e+000,1.7498890413e+000,3.4245468855e+000,2.9051978908e+000,3.1722594637e+000,
1.7718750000e+001,3.4414938124e+000,3.4719036197e+000,2.7349895334e+000,3.3462828598e+000,2.8952810206e+000,3.2559357472e+000,2.6747078719e+000,3.6410411693e+000,2.5904796283e+000,4.0328201717e+000,1.7512560219e+000,3.3729409442e+000,2.8313279699e+000,3.1283436386e+000,
1.7812500000e+001,3.4731113537e+000,3.4830098604e+000,2.6985289537e+000,3.3855149378e+000,2.8879923210e+000,3.2647903792e+000,2.7452574299e+000,3.6721290843e+000,2.5384070888e+000,4.0097139436e+000,1.7529477751e+000,3.2889290844e+000,2.6834544503e+000,3.0020396992e+000,
1.7906250000e+001,3.5357827047e+000,3.5909510932e+000,2.6383342590e+000,3.3425179587e+000,2.8495296603e+000,3.1865669356e+000,2.6769907391e+000,3.6149849884e+000,2.5748368863e+000,3.8346930856e+000,1.6668688904e+000,3.2542208726e+000,2.6820393797e+000,2.9613191527e+000,
1.8000000000e+001,3.4891306184e+000,3.6008042932e+000,2.5320532944e+000,3.2606807882e+000,2.7751068552e+000,3.1353493094e+000,2.6459807374e+000,3.4515229356e+000,2.5047727127e+000,3.6735267388e+000,1.7648512840e+000,3.1313200791e+000,2.7191161311e+000,2.9957448520e+000,
1.8093750000e+001,3.5385307071e+000,3.6464165119e+000,2.4535536406e+000,3.2599226211e+000,2.5908503432e+000,3.1083973346e+000,2.5249242850e+000,3.3942309472e+000,2.5502741388e+000,3.6423212047e+000,1.9254182123e+000,3.2210702978e+000,2.7626290584e+000,3.0566268424e+000,
1.8187500000e+001,3.5507806985e+000,3.8303105861e+000,2.4686103635e+000,3.4024968585e+000,2.7200028685e+000,3.1450976257e+000,2.5406688078e+000,3.5524098577e+000,2.5625808448e+000,3.8634358303e+000,2.1146951746e+000,3.4225108862e+000,2.8263686209e+000,3.1542822937e+000,
1.8281250000e+001,3.5433336548e+000,3.8576393174e+000,2.4789191738e+000,3.3835864424e+000,2.7883335653e+000,3.1928928108e+000,2.6939415645e+000,3.6080746625e+000,2.6033425289e+000,3.9718706957e+000,2.2522915848e+000,3.6401484561e+000,2.8803576667e+000,3.2867866585e+000,
1.8375000000e+001,3.4902070670e+000,3.8202227581e+000,2.4709372970e+000,3.2931543678e+000,2.7761190666e+000,3.0608937468e+000,2.8529227439e+000,3.5760419163e+000,2.5770728080e+000,3.9246240116e+000,2.2629567181e+000,3.6066586752e+000,2.8351615482e+000,3.3210575886e+000,
1.8468750000e+001,3.4977078396e+000,3.7345916504e+000,2.4698402538e+000,3.2401376061e+000,2.7628548437e+000,3.0682888946e+000,2.8484624793e+000,3.5130869830e+000,2.5456025722e+000,3.8972818521e+000,2.3054628547e+000,3.6233681121e+000,2.6619006684e+000,3.3507161840e+000,
1.8562500000e+001,3.4678167812e+000,3.6644530017e+000,2.4614064932e+000,3.2352309638e+000,2.6945626754e+000,3.0201124479e+000,2.7434777702e+000,3.5185198608e+000,2.4725170289e+000,3.8263511083e+000,2.2767415217e+000,3.6518518354e+000,2.6081232333e+000,3.3774126470e+000,
1.8656250000e+001,3.4879238557e+000,3.6543373023e+000,2.3488984587e+000,3.1149075444e+000,2.7070013911e+000,2.8918845670e+000,2.7725801593e+000,3.3269460485e+000,2.5355727737e+000,3.7017348887e+000,2.3832969371e+000,3.5444115795e+000,2.6477230688e+000,3.3303649836e+000,
1.8750000000e+001,3.3226351400e+000,3.6343525651e+000,2.2800591521e+000,2.9883165413e+000,2.4259753543e+000,2.9200590115e+000,2.5902051071e+000,3.2366496161e+000,2.5673364759e+000,3.6668318254e+000,2.3754115001e+000,3.5537387990e+000,2.6794412178e+000,3.3485724990e+000,
1.8843750000e+001,3.3123586495e+000,3.6499531622e+000,2.3252201237e+000,3.0882480601e+000,2.7340722517e+000,3.0321320483e+000,2.7626497197e+000,3.2694790508e+000,2.7325272828e+000,3.8599915705e+000,2.3997780588e+000,3.6624745921e+000,2.6770830538e+000,3.3735563608e+000,
1.8937500000e+001,3.3602499220e+000,3.3994956053e+000,2.4178194746e+000,3.1228630807e+000,2.7520340318e+000,3.1274797128e+000,2.6860749591e+000,3.2193975652e+000,2.6543916311e+000,3.8872269740e+000,2.4963755917e+000,3.6476759167e+000,2.7121139696e+000,3.3053826365e+000,
1.9031250000e+001,3.3838509145e+000,3.3425172291e+000,2.4748084865e+000,3.1436728123e+000,2.7702617794e+000,3.0931401432e+000,2.6771632329e+000,3.2198290615e+000,2.6379928518e+000,3.8884598178e+000,2.4659136393e+000,3.6075942493e+000,2.9551070138e+000,3.1963291651e+000,
1.9125000000e+001,3.4908082115e+000,3.5109381509e+000,2.5867864456e+000,3.1993122352e+000,3.0309105908e+000,3.0917940936e+000,2.7617157796e+000,3.2683520577e+000,2.6439130532e+000,3.8434426220e+000,2.3600892043e+000,3.5221610644e+000,2.8345887914e+000,3.0667015423e+000,
1.9218750000e+001,3.4537158709e+000,3.2240178567e+000,2.6701893052e+000,3.0300434009e+000,3.0049889555e+000,2.9686607234e+000,2.7536285024e+000,2.9773166264e+000,2.6831111484e+000,3.4647092922e+000,2.1523021554e+000,3.0162508101e+000,2.7358917032e+000,2.7693542667e+000,
1.9312500000e+001,3.5126666342e+000,3.3915302568e+000,2.7435089733e+000,3.1266662355e+000,3.1049220286e+000,3.0580175275e+000,2.5335516315e+000,3.0751670337e+000,2.6882121170e+000,3.5468611646e+000,2.1344014616e+000,3.0082565295e+000,2.7273375461e+000,2.7678921129e+000,
1.9406250000e+001,3.5269630031e+000,3.4143777936e+000,2.7773864610e+000,3.2376720513e+000,3.1740691869e+000,3.2178646956e+000,2.5593943710e+000,3.1786691721e+000,2.7848427856e+000,3.5326187016e+000,2.1728241422e+000,3.0897824655e+000,2.7527892730e+000,2.7943001164e+000,
1.9500000000e+001,3.5796094038e+000,3.5756692682e+000,2.9046722799e+000,3.4292433752e+000,3.2599104653e+000,3.4175855019e+000,2.7815778952e+000,3.5323795355e+000,2.7973114691e+000,3.9597185911e+000,2.2308393368e+000,3.6283847793e+000,3.0355254417e+000,3.2266840696e+000,
1.9593750000e+001,3.5045999342e+000,3.6364871975e+000,2.9172827340e+000,3.4945871926e+000,3.2522341633e+000,3.4268365482e+000,2.7447528877e+000,3.5586187555e+000,2.8149137451e+000,3.9047194068e+000,2.1170638977e+000,3.6025850000e+000,3.0293091246e+000,3.2005322051e+000,
1.9687500000e+001,3.5957653436e+000,3.6692316952e+000,2.9583269873e+000,3.5143319462e+000,3.3400392179e+000,3.4515708687e+000,2.7851967203e+000,3.5806398083e+000,2.8637358348e+000,3.9390682621e+000,2.0765588253e+000,3.6322203819e+000,3.0332433435e+000,3.2528441827e+000,
1.9781250000e+001,3.5951818167e+000,3.6830487339e+000,2.9857900035e+000,3.4954192000e+000,3.3803199160e+000,3.4032392507e+000,2.8687133116e+000,3.5594481618e+000,2.8487151936e+000,3.9718827931e+000,2.0380965493e+000,3.6370195478e+000,2.9802167715e+000,3.2072584669e+000,
1.9875000000e+001,3.5244517413e+000,3.6484725108e+000,2.9459570909e+000,3.4334878432e+000,3.2729927030e+000,3.3283471404e+000,2.7167973463e+000,3.4861065253e+000,2.7199737694e+000,3.8059833923e+000,1.9990656613e+000,3.5111365869e+000,3.0062542601e+000,3.1720158568e+000,
1.9968750000e+001,3.4576273632e+000,3.7055891105e+000,2.9369892341e+000,3.4412544094e+000,3.2361540283e+000,3.3597251523e+000,2.8199518090e+000,3.5553096714e+000,2.6936455583e+000,3.8015061513e+000,1.8580391558e+000,3.5473247239e+000,2.8932543395e+000,3.1588636484e+000,
2.0062500000e+001,3.4033185240e+000,3.7130891129e+000,2.9199532586e+000,3.4364872217e+000,3.1923867446e+000,3.4120568497e+000,2.8108987115e+000,3.6149001424e+000,2.7335563047e+000,3.7956370106e+000,1.8218529911e+000,3.6139934287e+000,2.7689136194e+000,3.2140464529e+000,
2.0156250000e+001,3.2382720401e+000,3.6001897548e+000,2.8846188026e+000,3.4033198895e+000,3.0520232665e+000,3.4188446597e+000,2.7474177527e+000,3.6019807008e+000,2.7641788047e+000,3.8565659116e+000,1.8687061443e+000,3.6767873250e+000,2.7759846852e+000,3.2915962753e+000,
2.0250000000e+001,3.2797452623e+000,3.7106262295e+000,2.9663660649e+000,3.6468339539e+000,3.3392713287e+000,3.4482787499e+000,2.8117833415e+000,3.7938171347e+000,2.7372216622e+000,4.0161028053e+000,1.8953139373e+000,3.8079278443e+000,2.8019757069e+000,3.3813765542e+000,
2.0343750000e+001,3.2430657393e+000,3.6606034643e+000,3.0301692140e+000,3.7301790217e+000,3.3120531664e+000,3.4394171978e+000,2.9058849147e+000,3.8363131771e+000,2.7427634157e+000,3.9962740135e+000,1.8953029164e+000,3.7605312532e+000,2.9256942651e+000,3.3757787387e+000,
2.0437500000e+001,3.2391049812e+000,3.7095325958e+000,3.0234780406e+000,3.7061429991e+000,3.3915923155e+000,3.4766459796e+000,2.8856710797e+000,3.7910826801e+000,2.8555264506e+000,4.0007137910e+000,1.9028225576e+000,3.7204115031e+000,2.9556437073e+000,3.4020801361e+000,
2.0531250000e+001,3.2152840340e+000,3.6374020372e+000,2.9672611173e+000,3.5627725427e+000,3.3395867554e+000,3.2996830463e+000,2.8723906897e+000,3.6174526493e+000,2.9771739847e+000,3.7422435906e+000,1.8784979736e+000,3.3748116911e+000,2.8297208375e+000,3.2752197724e+000,
2.0625000000e+001,3.3184713469e+000,3.8782234341e+000,2.9911488195e+000,3.6328963532e+000,3.4015708847e+000,3.4626462135e+000,3.0244469520e+000,3.6618092732e+000,2.9950701225e+000,3.7906781707e+000,2.0085675998e+000,3.3939179639e+000,2.7813694405e+000,3.2175942740e+000,
2.0718750000e+001,3.3499706832e+000,3.8907633596e+000,2.9524685059e+000,3.6797623638e+000,3.3429717916e+000,3.4203713965e+000,2.9683783967e+000,3.6382926154e+000,2.9100412775e+000,3.7812660279e+000,2.0301593772e+000,3.4520487630e+000,2.7929656153e+000,3.2142739436e+000,
2.0812500000e+001,3.3683205831e+000,3.8941808782e+000,2.9609792983e+000,3.7003476200e+000,3.2849597914e+000,3.4221050801e+000,2.9934495223e+000,3.6756745367e+000,3.0249093430e+000,3.8794269654e+000,2.0262760259e+000,3.5356109841e+000,2.7605654498e+000,3.2607336369e+000,
2.0906250000e+001,3.4840520013e+000,3.9373677934e+000,3.0657596198e+000,3.8301837742e+000,3.3830759332e+000,3.4919211163e+000,3.1067061290e+000,3.8434412836e+000,3.0510442445e+000,4.0025667000e+000,2.0632710353e+000,3.5900489500e+000,2.7561323993e+000,3.3323913003e+000,
2.1000000000e+001,3.5224210251e+000,3.9365353089e+000,3.0893344484e+000,3.8792623000e+000,3.5486569140e+000,3.4287163772e+000,3.0723201386e+000,3.7672260831e+000,3.0293553128e+000,4.0564086287e+000,2.1233258800e+000,3.5610818168e+000,2.7101040476e+000,3.3333233165e+000,
2.1093750000e+001,3.5625590958e+000,4.0159572393e+000,3.1771741038e+000,3.9554395577e+000,3.7528739850e+000,3.4623977921e+000,3.1895401115e+000,3.8110547672e+000,2.9916017223e+000,4.1154835861e+000,2.1780685329e+000,3.5990267547e+000,2.7143750486e+000,3.3361865366e+000,
2.1187500000e+001,3.5199025126e+000,3.9960524483e+000,3.0608977289e+000,3.7816812917e+000,3.6842351803e+000,3.4842096024e+000,3.1069990438e+000,3.5745433304e+000,2.9185635834e+000,3.9119826605e+000,2.1451103291e+000,3.5444953410e+000,2.7754493135e+000,3.3429573450e+000,
2.1281250000e+001,3.5176169958e+000,3.9394520033e+000,3.0298067724e+000,3.6816174209e+000,3.5727583268e+000,3.4487641600e+000,3.1782078833e+000,3.4456684634e+000,2.9752739281e+000,3.8384338849e+000,2.1415387162e+000,3.5061152343e+000,2.7624475466e+000,3.3189481622e+000,
2.1375000000e+001,3.4982556271e+000,3.9942604133e+000,2.9093862794e+000,3.5080863109e+000,3.6298529008e+000,3.4187445469e+000,3.2181809021e+000,3.3696207478e+000,3.0477187276e+000,3.8112670759e+000,2.2294684067e+000,3.5307406858e+000,2.6876059084e+000,3.2323477638e+000,
2.1468750000e+001,3.4132956673e+000,3.9630321780e+000,2.8605225858e+000,3.4390678860e+000,3.5922251534e+000,3.3835071447e+000,3.2122822507e+000,3.2795403438e+000,2.7693243169e+000,3.7723020204e+000,2.1679865005e+000,3.4090074431e+000,2.5320637571e+000,3.1153397082e+000,
2.1562500000e+001,3.4410789142e+000,4.0377015469e+000,2.9767977014e+000,3.5447791591e+000,3.6664353263e+000,3.5787295257e+000,3.2920149703e+000,3.5346296369e+000,2.8423006190e+000,4.0357015596e+000,2.1692904477e+000,3.6918272950e+000,2.5842252090e+000,3.1061062328e+000,
2.1656250000e+001,3.3426976878e+000,3.9129171341e+000,2.9586539231e+000,3.5547939653e+000,3.7358169446e+000,3.5163907500e+000,3.3441047891e+000,3.5957452395e+000,2.8515653026e+000,4.0419048841e+000,2.1039086003e+000,3.7163955973e+000,2.6113582449e+000,3.1045260630e+000,
2.1750000000e+001,3.2793884037e+000,4.1338937925e+000,2.9423673139e+000,3.5648936121e+000,3.7297880935e+000,3.5065595234e+000,3.3202372503e+000,3.6713567231e+000,2.9080473762e+000,4.1090296737e+000,2.1540161958e+000,3.6655048762e+000,2.6144537975e+000,3.0889422138e+000,
2.1843750000e+001,3.2305021470e+000,4.2516168225e+000,2.8967691485e+000,3.5792921147e+000,3.6862674811e+000,3.4872254498e+000,3.3090015612e+000,3.6701085301e+000,2.7542979720e+000,4.0212739799e+000,2.1232065429e+000,3.6290581071e+000,2.6078698256e+000,3.0020801448e+000,
2.1937500000e+001,3.2198695366e+000,4.2684731696e+000,2.9445511770e+000,3.4838069662e+000,3.7236373679e+000,3.4488915369e+000,3.4197651364e+000,3.5919317525e+000,2.8059125484e+000,3.9000894610e+000,2.1423951760e+000,3.6404536773e+000,2.6919119597e+000,3.0856833049e+000,
2.2031250000e+001,3.2205160294e+000,4.2614217658e+000,2.9382134065e+000,3.4399086778e+000,3.4542440917e+000,3.3966215033e+000,3.3768642076e+000,3.6472089588e+000,2.8892294895e+000,3.8902508378e+000,2.0221871554e+000,3.6660050980e+000,2.7332206227e+000,3.0476318711e+000,
2.2125000000e+001,3.2746840197e+000,4.1456780049e+000,2.8796163421e+000,3.4185311548e+000,3.4800812458e+000,3.3572572211e+000,3.3576042412e+000,3.6436908335e+000,2.8852638607e+000,3.8888670689e+000,2.0424511833e+000,3.5776234322e+000,2.7632915435e+000,3.0676806206e+000,
2.2218750000e+001,3.3166248389e+000,4.1354960628e+000,2.9513915849e+000,3.4629306976e+000,3.4642100880e+000,3.2964043083e+000,3.3103564372e+000,3.6796805668e+000,2.9412530316e+000,4.0390411184e+000,2.0284572758e+000,3.6728063051e+000,2.7490315872e+000,3.1755824463e+000,
2.2312500000e+001,3.3161269521e+000,4.1095611002e+000,2.9860731634e+000,3.5290116727e+000,3.3379459056e+000,3.3858712756e+000,3.2272622558e+000,3.7676834324e+000,2.7876745214e+000,4.1207855571e+000,2.0598827505e+000,3.8030782886e+000,2.8042734747e+000,3.2794562047e+000,
2.2406250000e+001,3.2949943769e+000,4.1018923025e+000,2.9778252804e+000,3.5388813416e+000,3.2493424975e+000,3.3953737252e+000,3.2454611417e+000,3.8001005093e+000,2.7556640925e+000,4.1284142164e+000,1.9298425061e+000,3.7967859622e+000,2.7224906854e+000,3.2813249887e+000,
2.2500000000e+001,3.3046369975e+000,4.1011432637e+000,2.9742191304e+000,3.5297294337e+000,3.2173949304e+000,3.3802659752e+000,3.1357520005e+000,3.8015805453e+000,2.7404899508e+000,4.1144170674e+000,1.9607075310e+000,3.8368302191e+000,2.6838872979e+000,3.3545799479e+000,
2.2593750000e+001,3.2624659674e+000,3.8930322339e+000,2.8045376852e+000,3.3104636849e+000,3.0497594353e+000,3.0240281481e+000,3.0181046465e+000,3.4924069522e+000,2.6099003045e+000,3.8127143467e+000,1.9466859688e+000,3.5524924684e+000,2.7360916941e+000,3.3159188069e+000,
2.2687500000e+001,3.2305208947e+000,3.9140987099e+000,2.7675988692e+000,3.2905124953e+000,3.0279033419e+000,3.0238945708e+000,2.9207141505e+000,3.4366999731e+000,2.5864600032e+000,3.7507589913e+000,1.9933411857e+000,3.5879183128e+000,2.7851257133e+000,3.3317371263e+000,
2.2781250000e+001,3.2717911216e+000,3.5224038456e+000,2.7490500234e+000,3.2132088590e+000,3.1014977089e+000,3.0853071558e+000,2.9449769366e+000,3.4349771581e+000,2.6960461096e+000,3.5981682734e+000,1.8951134619e+000,3.4956607703e+000,2.7139372768e+000,3.2260521974e+000,
2.2875000000e+001,3.3113961811e+000,3.4727140150e+000,2.6648054306e+000,3.0865768217e+000,3.0941513061e+000,3.1131580457e+000,2.9038922235e+000,3.4127254576e+000,2.7109353514e+000,3.5676401815e+000,1.9051963874e+000,3.4445037548e+000,2.6284037810e+000,3.2517875084e+000,
2.2968750000e+001,3.2989129969e+000,3.4402456848e+000,2.7120080542e+000,3.2114722703e+000,3.0914441545e+000,3.3333649379e+000,2.8439533436e+000,3.5069590504e+000,2.8587053194e+000,3.7802158170e+000,2.0345005668e+000,3.4427576300e+000,2.5127462748e+000,3.3022503892e+000,
2.3062500000e+001,3.4074199032e+000,3.8848984774e+000,2.7525141648e+000,3.2875592202e+000,3.1589685769e+000,3.7221661378e+000,2.9181749055e+000,3.6779175145e+000,2.8570036384e+000,3.7745923473e+000,2.3200875105e+000,3.4618801640e+000,2.4112898612e+000,3.2691225005e+000,
2.3156250000e+001,3.3492832910e+000,3.9812169730e+000,2.6892117437e+000,3.2783317503e+000,3.0351823067e+000,3.8991490534e+000,2.9154138473e+000,3.7731698158e+000,2.9163334571e+000,3.7745175099e+000,2.3155584847e+000,3.4035683579e+000,2.4270550255e+000,3.2221910711e+000,
2.3250000000e+001,3.2763573372e+000,3.9931454325e+000,2.5257747978e+000,3.2118300133e+000,3.1054112909e+000,3.8567422448e+000,3.0036840958e+000,3.7002288989e+000,2.8372990619e+000,3.5877291678e+000,2.3579595962e+000,3.1400216359e+000,2.2756089476e+000,3.2008039419e+000,
2.3343750000e+001,3.3626066215e+000,4.0493659775e+000,2.5512469646e+000,3.3188304512e+000,3.1477241806e+000,3.8775658995e+000,2.9894376589e+000,3.7022657376e+000,2.9116752195e+000,3.5920886186e+000,2.4001321399e+000,3.0471339581e+000,2.2193540931e+000,3.2167072809e+000,
2.3437500000e+001,3.4152083050e+000,4.0782771676e+000,2.5502806217e+000,3.3900462660e+000,3.3265335322e+000,3.8619584098e+000,3.1026450058e+000,3.6682999466e+000,2.9052232160e+000,3.6143040737e+000,2.5290508967e+000,3.1431313614e+000,2.2136651913e+000,3.2212351344e+000,
2.3531250000e+001,3.5177080278e+000,4.3640553686e+000,2.6572964903e+000,3.5178614602e+000,3.3851204425e+000,4.0014054028e+000,3.1066260588e+000,3.7060211085e+000,2.9221167359e+000,3.6217359861e+000,2.5448721085e+000,3.1004059122e+000,2.1299893420e+000,3.1146829933e+000,
2.3625000000e+001,3.5884521495e+000,4.5718156905e+000,2.7572539219e+000,3.6534919525e+000,3.5012750640e+000,4.1153219940e+000,3.2011767620e+000,3.8137985511e+000,2.9646012521e+000,3.6509940922e+000,2.5425726785e+000,3.1745576603e+000,2.0639140059e+000,3.0428336880e+000,
2.3718750000e+001,3.5966891843e+000,4.6246176873e+000,2.9495148172e+000,3.8110235607e+000,3.4906992250e+000,4.2183842791e+000,3.2964509997e+000,4.0187253822e+000,2.9827457948e+000,3.9770231553e+000,2.5931447903e+000,3.4252916749e+000,2.0449018316e+000,3.2018858868e+000,
2.3812500000e+001,3.5938440406e+000,4.6196057851e+000,3.0189096737e+000,3.8449339988e+000,3.4786499480e+000,4.1659332971e+000,3.3180096243e+000,4.0257209287e+000,3.0021551935e+000,4.0442415934e+000,2.5753728667e+000,3.5204075380e+000,2.1373274922e+000,3.3013971065e+000,
2.3906250000e+001,3.6159916409e+000,4.6038974791e+000,2.9892864116e+000,3.8310709239e+000,3.4130510481e+000,4.1267004731e+000,3.2694886085e+000,4.0022563433e+000,2.9227190513e+000,4.0655758351e+000,2.5720942715e+000,3.5750822183e+000,2.1850303960e+000,3.2466779856e+000,
2.4000000000e+001,3.5649895100e+000,4.5633225696e+000,2.9252955687e+000,3.7942284645e+000,3.3691609423e+000,4.0005771965e+000,3.2249293636e+000,3.9447056781e+000,2.7877658673e+000,3.9394114128e+000,2.4175126138e+000,3.5690028456e+000,2.3262426405e+000,3.2804284335e+000,
2.4093750000e+001,3.5537131149e+000,4.3815591332e+000,2.8188640168e+000,3.6137021638e+000,3.6161159410e+000,3.6633982725e+000,3.2083344871e+000,3.6891601590e+000,2.7847461609e+000,3.8873520166e+000,2.2976644127e+000,3.5405746739e+000,2.4223416781e+000,3.2889549131e+000,
2.4187500000e+001,3.6362234090e+000,4.3664672117e+000,2.8647299399e+000,3.6772116188e+000,3.6176902324e+000,3.6923123729e+000,3.2699073744e+000,3.7660686330e+000,2.7928936962e+000,3.8775576634e+000,2.3534789562e+000,3.5764189614e+000,2.4970829767e+000,3.2228869036e+000,
2.4281250000e+001,3.6433127137e+000,4.3578299037e+000,2.8681751793e+000,3.6882543677e+000,3.6475356399e+000,3.6918104945e+000,3.3073792140e+000,3.7994310622e+000,2.8983466758e+000,3.8663066498e+000,2.3322810784e+000,3.5745074987e+000,2.6239773697e+000,3.1856093334e+000,
2.4375000000e+001,3.6463787369e+000,4.3897006673e+000,2.9557438622e+000,3.7792143623e+000,3.6286039979e+000,3.6438101492e+000,3.2857674815e+000,3.9241664686e+000,2.8903727776e+000,4.0107584074e+000,2.3117397093e+000,3.7614569236e+000,2.6420936640e+000,3.1671328023e+000,
2.4468750000e+001,3.5675641362e+000,4.1922971994e+000,2.9233718447e+000,3.6858087430e+000,3.4587567573e+000,3.5061829380e+000,3.1893417301e+000,3.9031133793e+000,2.8706304844e+000,3.9423000355e+000,2.1706820246e+000,3.7018195260e+000,2.6346241826e+000,3.1603118858e+000,
2.4562500000e+001,3.5250246727e+000,4.0161562763e+000,2.8867181310e+000,3.6062788959e+000,3.4110057173e+000,3.3572083471e+000,3.1052277267e+000,3.8500854717e+000,2.8950375279e+000,3.9234633261e+000,2.0692098687e+000,3.6870153947e+000,2.7121284749e+000,3.1943991289e+000,
2.4656250000e+001,3.3939076374e+000,3.6953690394e+000,2.6902535598e+000,3.3818311955e+000,3.2263842220e+000,2.8512666580e+000,2.9692837275e+000,3.6096600593e+000,2.8428106413e+000,3.7643746250e+000,2.0102921293e+000,3.5397509102e+000,2.7125549301e+000,3.2031915289e+000,
2.4750000000e+001,3.4075325673e+000,3.6511365007e+000,2.6712505998e+000,3.2996180654e+000,3.1439179329e+000,2.8177625440e+000,2.9063169694e+000,3.4783243787e+000,2.9442076582e+000,3.6332715664e+000,1.9596606324e+000,3.4440565318e+000,2.6627498250e+000,3.1227301109e+000,
2.4843750000e+001,3.3501854624e+000,3.6390149572e+000,2.7100576800e+000,3.2595046969e+000,3.1705120731e+000,2.8709547609e+000,2.8263484394e+000,3.3841469474e+000,2.9480007209e+000,3.6697817602e+000,2.0210749462e+000,3.4335736893e+000,2.7145781456e+000,3.0707110896e+000,
2.4937500000e+001,3.4383482687e+000,3.6658792652e+000,2.7881248889e+000,3.2495839498e+000,3.1873710446e+000,3.1114429298e+000,2.8652911522e+000,3.3730646966e+000,2.9349555480e+000,3.7196513533e+000,2.0005172413e+000,3.4644122491e+000,2.7558756506e+000,3.0932444899e+000,
2.5031250000e+001,3.4669203570e+000,3.8030049618e+000,2.7614810901e+000,3.2405712664e+000,3.0737129815e+000,3.3638806503e+000,2.9141380069e+000,3.4854679224e+000,2.9380989687e+000,3.8677175449e+000,2.1039895929e+000,3.4720172179e+000,2.5913923293e+000,3.0521145015e+000,
2.5125000000e+001,3.3569454832e+000,3.7259774017e+000,2.7737741363e+000,3.2162609414e+000,2.5345218743e+000,3.3667169756e+000,2.7982741694e+000,3.4477290299e+000,3.0811888680e+000,3.8622160079e+000,2.0478482067e+000,3.5231906296e+000,2.5037008794e+000,3.0061294743e+000,
2.5218750000e+001,3.2805716546e+000,3.7863624778e+000,2.7583878528e+000,3.1360632383e+000,2.7487721077e+000,3.3270608750e+000,2.8843335119e+000,3.3304908673e+000,3.1554504197e+000,3.8420460673e+000,1.9940069704e+000,3.4872327180e+000,2.4558876140e+000,2.9401120664e+000,
2.5312500000e+001,3.2480713725e+000,3.6638981994e+000,2.7755781661e+000,3.0230609911e+000,2.7867101477e+000,3.3295619502e+000,2.7450755683e+000,3.1537436797e+000,3.1263582139e+000,3.7421979966e+000,1.8630164118e+000,3.3292738488e+000,2.2927781395e+000,2.8046274449e+000,
2.5406250000e+001,3.3243277703e+000,3.6410467266e+000,2.7686583970e+000,2.8403078228e+000,2.9257439733e+000,3.3758612452e+000,2.7984212319e+000,3.0552587451e+000,3.1727996672e+000,3.6831155276e+000,1.8656000515e+000,3.2380666771e+000,2.2955370331e+000,2.8355179548e+000,
2.5500000000e+001,3.6470708203e+000,4.0445083001e+000,2.8813575924e+000,3.1020540006e+000,4.7987022365e+000,3.5745784077e+000,2.9667427382e+000,3.3527058370e+000,3.1979361715e+000,3.8219233882e+000,1.9314034714e+000,3.3562891887e+000,2.3192224743e+000,2.8486502087e+000,
2.5593750000e+001,3.6924229539e+000,4.1096876152e+000,2.8984337774e+000,3.1476540866e+000,5.0989185333e+000,3.6557040485e+000,3.0618632577e+000,3.4472294099e+000,3.2053098648e+000,3.8768112491e+000,1.9355304994e+000,3.4214898591e+000,2.4555097840e+000,2.8594845136e+000,
2.5687500000e+001,3.7213121933e+000,4.1352854851e+000,2.9398366575e+000,3.2997421773e+000,5.1508762285e+000,3.7310940841e+000,3.1913106444e+000,3.5459236124e+000,3.2070518366e+000,4.1304312366e+000,2.0522178893e+000,3.5581623068e+000,2.6305017594e+000,2.9830286530e+000,
2.5781250000e+001,3.6790617849e+000,4.1853638965e+000,2.9098108431e+000,3.3284694685e+000,5.1537458131e+000,3.7929057230e+000,3.1425762513e+000,3.5633290183e+000,3.0434001359e+000,4.0451032284e+000,2.0316118843e+000,3.4335986981e+000,2.5547645723e+000,2.9207316655e+000,
2.5875000000e+001,3.6479847727e+000,4.1726006867e+000,2.8224607995e+000,3.3684418776e+000,5.1496839653e+000,3.7934139656e+000,3.1327107571e+000,3.5560309272e+000,3.1286952927e+000,4.0243557089e+000,2.2379985222e+000,3.3652172386e+000,2.4790947953e+000,2.8880622683e+000,
2.5968750000e+001,3.5015005522e+000,4.0656082655e+000,2.7831658259e+000,3.3527944980e+000,5.1462859217e+000,3.5703115624e+000,3.1549218875e+000,3.3745893645e+000,3.0989452921e+000,3.8921243328e+000,2.2180478682e+000,3.2495059559e+000,2.4459820657e+000,2.6989191282e+000,
2.6062500000e+001,3.5208189043e+000,4.0828673893e+000,2.7947794764e+000,3.3852394597e+000,5.1478361894e+000,3.5379285793e+000,3.0963288474e+000,3.3631457976e+000,3.0834184384e+000,3.8111573152e+000,2.1938907032e+000,3.2311172249e+000,2.4899856320e+000,2.7713574811e+000,
2.6156250000e+001,3.8068046056e+000,4.4973159379e+000,2.9372519443e+000,3.5169912611e+000,5.1615600794e+000,3.6350516641e+000,3.1072786613e+000,3.4703619471e+000,2.8690305567e+000,3.8181604712e+000,2.2122494739e+000,3.1876148510e+000,2.4966875289e+000,2.7951219482e+000,
2.6250000000e+001,3.9167925358e+000,4.5912964150e+000,2.9703743392e+000,3.6009020610e+000,5.1617243274e+000,3.6958386485e+000,3.0970210210e+000,3.5995631639e+000,2.7286341321e+000,3.9959439322e+000,2.2395708761e+000,3.4009985906e+000,2.5913486792e+000,2.8111294178e+000,
2.6343750000e+001,3.8929309614e+000,4.6155721932e+000,2.9284437346e+000,3.6413143329e+000,5.1439988591e+000,3.6826526910e+000,3.1949915841e+000,3.6336435709e+000,2.7072871264e+000,4.0216195728e+000,2.2931252411e+000,3.4549141936e+000,2.7321713551e+000,2.9862548266e+000,
2.6437500000e+001,3.7851096843e+000,4.5676230908e+000,2.9336371420e+000,3.6075137066e+000,5.1294866322e+000,3.6454196332e+000,3.1803973515e+000,3.5804099887e+000,2.6972390810e+000,4.0296936865e+000,2.3461060706e+000,3.4259565329e+000,2.8143217094e+000,3.0885570371e+000,
2.6531250000e+001,3.7107762565e+000,4.4135838550e+000,2.9092228874e+000,3.5259054712e+000,4.0720554798e+000,3.4981213565e+000,3.1556899361e+000,3.5009999057e+000,2.6451762048e+000,4.0238372902e+000,2.3334035322e+000,3.4090073069e+000,2.8050352315e+000,3.1535261143e+000,
2.6625000000e+001,3.6450551860e+000,4.3288698827e+000,2.8871349679e+000,3.4104566930e+000,3.4179777801e+000,3.3944556280e+000,3.0715300933e+000,3.4380412752e+000,2.5435076684e+000,3.7706870205e+000,2.2852928258e+000,3.3210607215e+000,2.6469868232e+000,3.1427425162e+000,
2.6718750000e+001,3.6254142429e+000,4.3619708148e+000,2.8757633449e+000,3.4320138573e+000,3.3873734062e+000,3.3864273276e+000,2.9810483308e+000,3.4943910847e+000,2.4698874292e+000,3.6867296797e+000,2.2371761522e+000,3.3769113097e+000,2.7661512106e+000,3.1425798915e+000,
2.6812500000e+001,3.6493136991e+000,4.3354386851e+000,2.9584003099e+000,3.4667055728e+000,3.4675770992e+000,3.3357751999e+000,3.0739296438e+000,3.5445024301e+000,2.4439063852e+000,3.7467620387e+000,2.3018757543e+000,3.3846706646e+000,2.7500289607e+000,3.0896981234e+000,
2.6906250000e+001,3.6927257579e+000,4.3294814834e+000,3.0033413885e+000,3.4477040014e+000,3.5136081186e+000,3.3663451418e+000,3.0834264725e+000,3.5996278502e+000,2.3065234260e+000,3.7665857296e+000,2.1612513094e+000,3.4253290625e+000,2.8684486735e+000,3.1217285831e+000,
2.7000000000e+001,3.7452264594e+000,4.4526856222e+000,3.2515617300e+000,3.8418314176e+000,3.5859700058e+000,3.5710375776e+000,3.2637276701e+000,3.9804416933e+000,2.2856862912e+000,4.2251350101e+000,2.2290268387e+000,3.7437537333e+000,3.0111148024e+000,3.3223874496e+000,
2.7093750000e+001,3.6682747119e+000,4.3383170871e+000,3.1996292494e+000,3.8564111188e+000,3.6078332980e+000,3.5630710149e+000,3.3273814624e+000,4.0135318500e+000,2.3149741313e+000,4.2586910223e+000,2.2727271404e+000,3.7845557542e+000,3.0502915100e+000,3.3180492854e+000,
2.7187500000e+001,3.4228797489e+000,3.9404443197e+000,3.3168441808e+000,3.8694437597e+000,3.5950711354e+000,3.5695337847e+000,3.3605886983e+000,4.0680260614e+000,2.4345556668e+000,4.3017753044e+000,2.3063192199e+000,3.8214975215e+000,3.1571118163e+000,3.3340527181e+000,
2.7281250000e+001,3.3372250991e+000,3.8681875929e+000,3.2476837242e+000,3.7925027819e+000,3.5100809955e+000,3.6315731789e+000,3.3166918211e+000,4.0208174327e+000,2.3018566489e+000,4.1266477165e+000,2.3173593906e+000,3.6548241458e+000,3.1225959956e+000,3.2250508819e+000,
2.7375000000e+001,3.6334567796e+000,4.3485479191e+000,3.2767288549e+000,3.8974951213e+000,3.5476732672e+000,3.9187716428e+000,3.3101340164e+000,4.1461982841e+000,2.2511131734e+000,4.1653227776e+000,2.3283167723e+000,3.6675624367e+000,3.0444638300e+000,3.2018841609e+000,
2.7468750000e+001,3.8253801494e+000,4.4970402946e+000,3.3578730078e+000,4.0348392997e+000,3.5527740201e+000,4.0549450934e+000,3.3018829581e+000,4.1946634762e+000,2.2261240028e+000,4.1758701369e+000,2.3540194364e+000,3.7217425496e+000,3.0261783160e+000,3.1337173339e+000,
2.7562500000e+001,3.8419070336e+000,4.5857472578e+000,3.3625963741e+000,4.1057348229e+000,3.4464370707e+000,4.1596957067e+000,3.3706661814e+000,4.3103693354e+000,2.3211588187e+000,4.2558907872e+000,2.4388189022e+000,3.8332351193e+000,3.0253335083e+000,3.1491532790e+000,
2.7656250000e+001,3.8223258765e+000,4.5700764624e+000,3.4092070201e+000,4.1177355138e+000,3.4332765526e+000,4.1502463764e+000,3.5195677781e+000,4.2819660775e+000,2.6525191457e+000,4.3290074226e+000,2.4940748029e+000,3.8562505425e+000,2.9877568273e+000,3.0603077460e+000,
2.7750000000e+001,3.8674626077e+000,4.5233134481e+000,3.3827919451e+000,4.0864667750e+000,3.4981404662e+000,4.1345496562e+000,3.5386504510e+000,4.2652890966e+000,2.7901058205e+000,4.3060200885e+000,2.4662017798e+000,3.8377477700e+000,2.8576302168e+000,3.0706083676e+000,
2.7843750000e+001,3.8479892472e+000,4.5352236327e+000,3.3538867174e+000,4.0885933353e+000,3.5197874126e+000,4.1431311917e+000,3.5643208292e+000,4.2572151875e+000,2.7760317706e+000,4.2799314645e+000,2.3643727642e+000,3.8317670797e+000,2.8483691390e+000,3.0698946829e+000,
2.7937500000e+001,3.7969375222e+000,4.5549365794e+000,3.2727400413e+000,4.0437798821e+000,3.4680193762e+000,4.0990025855e+000,3.5407631196e+000,4.1609016336e+000,2.7850175257e+000,4.1483900865e+000,2.3498379537e+000,3.7219802041e+000,2.7119568039e+000,3.0634891545e+000,
2.8031250000e+001,3.7815999285e+000,4.4912025612e+000,3.1810161322e+000,3.8670592773e+000,3.3924924898e+000,4.0119722561e+000,3.3904360842e+000,3.9869264430e+000,2.8562525640e+000,3.8206184177e+000,2.3557458588e+000,3.4970010122e+000,2.7086930704e+000,2.9856850325e+000,
2.8125000000e+001,3.7946220147e+000,4.5062306462e+000,3.2057876843e+000,3.8640914532e+000,3.4272466535e+000,4.0092107520e+000,3.4298912295e+000,3.9923005878e+000,2.8190022611e+000,3.8162426462e+000,2.3101801886e+000,3.4608820243e+000,2.6308749082e+000,2.9723315742e+000,
2.8218750000e+001,3.8639045591e+000,4.4909634451e+000,3.1216774969e+000,3.8610380320e+000,3.5525128493e+000,4.0149976492e+000,3.3777985138e+000,3.9956903991e+000,2.8709189948e+000,3.8748360501e+000,2.3102455442e+000,3.4740209822e+000,2.5936706148e+000,3.1285790524e+000,
2.8312500000e+001,3.9016863559e+000,4.5106115550e+000,3.2004164554e+000,3.9984140173e+000,3.6311335257e+000,4.0652312163e+000,3.3921494937e+000,4.1523172463e+000,2.8752935169e+000,4.2236604086e+000,2.1598879080e+000,3.7280990136e+000,2.5136781580e+000,3.3672887616e+000,
2.8406250000e+001,3.4346401622e+000,3.8667458315e+000,3.0391584999e+000,3.7443648359e+000,3.5332180585e+000,3.6742161046e+000,3.2905352020e+000,3.9520718412e+000,2.8944785311e+000,4.1586453646e+000,2.1472481639e+000,3.6693150894e+000,2.6392445655e+000,3.3782873356e+000,
2.8500000000e+001,3.5570450733e+000,3.8018538335e+000,3.0916703149e+000,3.7659382760e+000,3.6418711565e+000,3.5993747613e+000,3.4017529624e+000,3.9609546345e+000,2.9489880539e+000,4.1532555147e+000,2.1449830433e+000,3.6759262212e+000,2.7205448487e+000,3.4035881910e+000,
2.8593750000e+001,3.5757830198e+000,3.6630351631e+000,3.0395985285e+000,3.7072449893e+000,3.6197513822e+000,3.4560854309e+000,3.3194145167e+000,3.8285844983e+000,2.7956379556e+000,4.0263581505e+000,1.9818692051e+000,3.4299247946e+000,2.7563644064e+000,3.3391083161e+000,
2.8687500000e+001,3.5267021679e+000,3.6021954666e+000,2.9028531856e+000,3.6261866996e+000,3.5500306795e+000,3.3134113228e+000,3.1628163915e+000,3.7500747002e+000,2.6463610716e+000,3.9266989416e+000,1.9853810199e+000,3.2806496418e+000,2.7646046020e+000,3.3415700818e+000,
2.8781250000e+001,3.5474495936e+000,3.6179978685e+000,2.8568650435e+000,3.5440465717e+000,3.4870678389e+000,3.2931604691e+000,3.0944057631e+000,3.7143959972e+000,2.5105759855e+000,3.9372041060e+000,2.0747667793e+000,3.2541647074e+000,2.9486703439e+000,3.3720942647e+000,
2.8875000000e+001,3.7011857467e+000,3.9476461422e+000,2.8663291371e+000,3.5689833193e+000,3.5134362702e+000,3.7425637871e+000,3.0578488436e+000,3.8369096525e+000,2.5510911706e+000,3.9989415056e+000,2.1176305747e+000,3.2354412530e+000,3.0681028249e+000,3.3590969277e+000,
2.8968750000e+001,4.2697478052e+000,5.0192893363e+000,3.2212750383e+000,4.1126683214e+000,3.6557060230e+000,4.4880431336e+000,3.1656850403e+000,4.3085492956e+000,2.6059286028e+000,4.2172823264e+000,2.1530409162e+000,3.5186427421e+000,3.1025580240e+000,3.4577100357e+000,
2.9062500000e+001,4.3197074393e+000,5.1973451847e+000,3.3480393696e+000,4.2579414911e+000,3.8191461375e+000,4.6794471493e+000,3.3109997839e+000,4.4491696657e+000,2.8381711409e+000,4.3683730936e+000,2.2291384999e+000,3.7266609422e+000,3.3830470482e+000,3.6803245377e+000,
2.9156250000e+001,4.3317756031e+000,5.2025918626e+000,3.3988917143e+000,4.3337895076e+000,3.8868269658e+000,4.6960364077e+000,3.4205372464e+000,4.4687554876e+000,3.2433672070e+000,4.4409017935e+000,2.5033575314e+000,3.9568564285e+000,3.5135633796e+000,3.7782646962e+000,
2.9250000000e+001,4.2531960188e+000,5.1740402594e+000,3.3699100686e+000,4.2825553181e+000,3.7801882434e+000,4.6366328298e+000,3.4000459184e+000,4.4148046145e+000,3.2498781874e+000,4.2947528347e+000,2.4985663851e+000,3.8119714533e+000,3.5381239145e+000,3.6030120447e+000,
2.9343750000e+001,4.2576791071e+000,5.1687380579e+000,3.4483717729e+000,4.2840440857e+000,3.8023153520e+000,4.5935865313e+000,3.4887390823e+000,4.3634409585e+000,3.3408595791e+000,4.1946794443e+000,2.5137872041e+000,3.7726968774e+000,3.5616325002e+000,3.6595319876e+000,
2.9437500000e+001,4.2836173471e+000,5.1791974132e+000,3.4032448555e+000,4.2702171446e+000,3.7630264748e+000,4.6037770473e+000,3.4825845978e+000,4.3449268576e+000,3.3185568801e+000,4.1988460551e+000,2.5313449131e+000,3.7853751561e+000,3.4746731046e+000,3.6357877559e+000,
2.9531250000e+001,4.2120620830e+000,5.1824498270e+000,3.3838676130e+000,4.2347937968e+000,3.6807052044e+000,4.6247805341e+000,3.3994527482e+000,4.3248930660e+000,3.3673831521e+000,4.1981015782e+000,2.6609196009e+000,3.7838831880e+000,3.4865586709e+000,3.6028367070e+000,
2.9625000000e+001,4.2340151735e+000,5.2755237890e+000,3.5608652342e+000,4.3604803284e+000,3.7806650032e+000,4.7411572128e+000,3.5168785285e+000,4.4856552420e+000,3.4207114710e+000,4.4138471331e+000,2.6625869853e+000,4.0950865011e+000,3.4975650660e+000,3.7944252937e+000,
2.9718750000e+001,4.2687066022e+000,5.3128422365e+000,3.6506130938e+000,4.3919290577e+000,3.7356887712e+000,4.7733874364e+000,3.5477035475e+000,4.5186395820e+000,3.4199727378e+000,4.4385354240e+000,2.6695144370e+000,4.1352856800e+000,3.4787478918e+000,3.8243794913e+000,
2.9812500000e+001,4.2745368119e+000,5.3132245514e+000,3.6682786692e+000,4.3846655629e+000,3.7390848050e+000,4.7755303097e+000,3.5497249986e+000,4.5084576172e+000,3.4329239432e+000,4.4286868060e+000,2.6410831373e+000,4.1302098223e+000,3.3489849861e+000,3.7764391936e+000,
2.9906250000e+001,4.1499325423e+000,5.0929413763e+000,3.6254802397e+000,4.2775070196e+000,3.6453564667e+000,4.4844199577e+000,3.4826787968e+000,4.3734016433e+000,3.4595277726e+000,4.3709271570e+000,2.6594610449e+000,4.0812669838e+000,3.3455182320e+000,3.7495099427e+000,
3.0000000000e+001,3.8421977637e+000,4.5410800234e+000,3.3966205751e+000,3.8629310797e+000,3.5243235505e+000,3.9384980847e+000,3.4060003460e+000,3.9257530341e+000,3.4665691005e+000,4.1634893271e+000,2.6828429408e+000,3.9470207651e+000,3.2268459604e+000,3.6596225469e+000,
3.0093750000e+001,3.7535984639e+000,4.3509119365e+000,3.2694053174e+000,3.6503752718e+000,3.2375213519e+000,3.7376598030e+000,3.1777046340e+000,3.7058018604e+000,3.1103027400e+000,4.0059127226e+000,2.4632947680e+000,3.6794014413e+000,2.8919212916e+000,3.3364956078e+000,
3.0187500000e+001,3.7335698546e+000,4.3199323008e+000,3.2050818504e+000,3.5526051161e+000,3.1318328314e+000,3.6897242666e+000,3.1210970377e+000,3.6254644390e+000,2.9567205955e+000,3.9466147760e+000,2.4008956541e+000,3.5510530558e+000,2.7593110444e+000,3.2958240795e+000,
3.0281250000e+001,3.7204272465e+000,4.3090065675e+000,3.1402553821e+000,3.5316754577e+000,3.2213002656e+000,3.7154556931e+000,3.0977639159e+000,3.7161944431e+000,2.9632257120e+000,4.0384253829e+000,2.5130987471e+000,3.7175882164e+000,2.8139090033e+000,3.3030961657e+000,
3.0375000000e+001,3.6782612983e+000,4.3139777660e+000,3.1257369451e+000,3.4938841970e+000,3.1612734188e+000,3.6920510505e+000,3.0756438559e+000,3.7203970263e+000,2.9193353144e+000,4.0239687385e+000,2.5654841477e+000,3.7363109139e+000,2.8543199961e+000,3.2661795794e+000,
3.0468750000e+001,3.6696472180e+000,4.3019385914e+000,3.1765459152e+000,3.5254938145e+000,3.1218209155e+000,3.6840146391e+000,3.0976819283e+000,3.8023690550e+000,2.8483196330e+000,4.0742850627e+000,2.4620258643e+000,3.7617028501e+000,2.8063344220e+000,3.4220833175e+000,
3.0562500000e+001,3.6311621366e+000,4.2297271068e+000,3.1116855136e+000,3.4558987093e+000,3.0732872094e+000,3.5243162017e+000,3.1090386376e+000,3.7059401647e+000,2.8305230435e+000,3.8965771554e+000,2.3531472715e+000,3.5064123175e+000,2.7355842007e+000,3.3427337801e+000,
3.0656250000e+001,3.5282098338e+000,3.9723198259e+000,2.7603124384e+000,3.2339115809e+000,2.8729068942e+000,3.1525778901e+000,2.7986467184e+000,3.3899940516e+000,2.7700576998e+000,3.6845039004e+000,2.4236215239e+000,3.2457610464e+000,2.7111361754e+000,3.2052561245e+000,
3.0750000000e+001,3.6515155058e+000,4.1592279007e+000,2.7747999391e+000,3.4453178033e+000,2.9426874113e+000,3.4291977655e+000,2.8007915259e+000,3.5175668003e+000,2.8045308119e+000,3.7380362287e+000,2.4551844237e+000,3.3096020020e+000,2.7543987916e+000,3.1952108369e+000,
3.0843750000e+001,3.5947994331e+000,4.1924055045e+000,2.7778119348e+000,3.5277491166e+000,2.8983805026e+000,3.5364630221e+000,2.7715984805e+000,3.5570052379e+000,2.8447144400e+000,3.7021255166e+000,2.4380945304e+000,3.3162214996e+000,2.7412692609e+000,3.2444456608e+000,
3.0937500000e+001,3.3630697921e+000,4.0089347847e+000,2.7921154238e+000,3.5742385958e+000,2.8518826078e+000,3.5703299117e+000,2.7489498808e+000,3.6726947815e+000,2.7995918357e+000,3.7923641440e+000,2.3887961464e+000,3.4356155922e+000,2.8420362768e+000,3.2388383442e+000,
3.1031250000e+001,3.2971359759e+000,3.9638297064e+000,2.8281610519e+000,3.5886079516e+000,2.8438036261e+000,3.5451445071e+000,2.7252366299e+000,3.6921297249e+000,2.7018326523e+000,3.7771658160e+000,2.3440562000e+000,3.4849567813e+000,2.8462781685e+000,3.3930291842e+000,
3.1125000000e+001,3.2862373112e+000,3.9331596503e+000,2.6803330173e+000,3.5111679334e+000,2.8346457065e+000,3.5501373102e+000,2.7145593909e+000,3.6484526128e+000,2.6531132844e+000,3.7812160999e+000,2.3745278166e+000,3.5010360276e+000,2.9476487486e+000,3.4185532915e+000,
3.1218750000e+001,3.3155316636e+000,3.9145169243e+000,2.6193846150e+000,3.5266917185e+000,2.6344328950e+000,3.5354232613e+000,2.7055608107e+000,3.6826331706e+000,2.6852232296e+000,3.7642458121e+000,2.3181507564e+000,3.5146931952e+000,2.9308455389e+000,3.3671985932e+000,
3.1312500000e+001,3.3345651562e+000,3.8844556469e+000,2.6923599043e+000,3.4735097990e+000,2.7162049597e+000,3.4921159243e+000,2.7033704213e+000,3.4626387551e+000,2.5639795366e+000,3.5321239208e+000,2.1735274633e+000,3.2660024927e+000,2.7485774843e+000,3.3384273485e+000,
3.1406250000e+001,3.3177869783e+000,3.8853135674e+000,2.5720637067e+000,3.3978799545e+000,2.7156831299e+000,3.4996211544e+000,2.5385486197e+000,3.3900821423e+000,2.5652744824e+000,3.4221285087e+000,2.0944931436e+000,3.1637577901e+000,2.6582838225e+000,3.1423410908e+000,
3.1500000000e+001,3.2504487606e+000,3.8742929331e+000,2.5288231796e+000,3.3977877119e+000,2.7612724380e+000,3.5327455244e+000,2.4252156826e+000,3.3244460775e+000,2.4767626824e+000,3.3186274104e+000,2.1036146378e+000,3.1309938282e+000,2.7078416091e+000,3.0014710731e+000,
3.1593750000e+001,3.3202070007e+000,4.0505557463e+000,2.6020220399e+000,3.4306946679e+000,2.8816451769e+000,3.6319121176e+000,2.4361090589e+000,3.3632859699e+000,2.5791320222e+000,3.6171042800e+000,2.2120680233e+000,3.2509182247e+000,2.8207421987e+000,3.0152105208e+000,
3.1687500000e+001,3.1816747697e+000,4.4317458013e+000,2.5059938067e+000,3.3627874227e+000,2.8129759925e+000,3.6804718342e+000,2.4118289736e+000,3.4296484273e+000,2.5637705110e+000,3.7978359529e+000,2.1228380725e+000,3.3879579042e+000,2.8965321497e+000,3.1764892806e+000,
3.1781250000e+001,3.0554678939e+000,4.2404979052e+000,2.5926461989e+000,3.3180923032e+000,2.7860417709e+000,3.4879165430e+000,2.4570123254e+000,3.4381827183e+000,2.4759848916e+000,3.8048500440e+000,2.2150649447e+000,3.3277114003e+000,2.9501486301e+000,3.2177599533e+000,
3.1875000000e+001,3.1479394679e+000,4.1540477945e+000,2.6744190195e+000,3.3101372894e+000,2.8754748042e+000,3.3464927461e+000,2.5404150884e+000,3.4219207768e+000,2.5036970270e+000,3.7846910081e+000,2.1950465192e+000,3.2933007139e+000,2.8958160258e+000,3.1938137090e+000,
3.1968750000e+001,3.1854579241e+000,4.0303243107e+000,2.6294823165e+000,3.1750393374e+000,2.8841288401e+000,3.1291173753e+000,2.5336019382e+000,3.2948294346e+000,2.4991116654e+000,3.7009169052e+000,2.2332188787e+000,3.1151751657e+000,2.8688230331e+000,3.0477430161e+000,
3.2062500000e+001,3.2497512082e+000,4.0580427441e+000,2.6343779224e+000,3.1664592280e+000,2.9198190856e+000,3.0952708740e+000,2.5182847892e+000,3.3445551557e+000,2.6166636183e+000,3.6656623005e+000,2.2821935728e+000,3.0551061675e+000,2.8561697762e+000,3.0633468627e+000,
3.2156250000e+001,3.2768415299e+000,4.0776921634e+000,2.6275174554e+000,3.1446059508e+000,2.8514039766e+000,3.0655096488e+000,2.5132966511e+000,3.3438475622e+000,2.6715906496e+000,3.7264077299e+000,2.3125010286e+000,3.1422362111e+000,2.6833652206e+000,3.1230600994e+000,
3.2250000000e+001,3.3249017335e+000,4.1279552780e+000,2.7210599141e+000,3.3934836065e+000,2.9624168402e+000,3.3026933508e+000,2.4882047504e+000,3.6164150581e+000,2.6817979177e+000,3.9150046381e+000,2.2944229722e+000,3.4187409704e+000,2.8557160841e+000,3.2955198833e+000,
3.2343750000e+001,3.4957831655e+000,4.2355804628e+000,2.8917225565e+000,3.6499974244e+000,3.1760679761e+000,3.4171622637e+000,2.8204832136e+000,3.8170621607e+000,2.8222935285e+000,4.2520969587e+000,2.3644276446e+000,3.6714142816e+000,2.9418806017e+000,3.4926772589e+000,
3.2437500000e+001,3.4854990676e+000,4.2155177383e+000,2.9078641466e+000,3.6561720930e+000,3.2249603748e+000,3.4133586866e+000,2.8262374014e+000,3.8334449857e+000,2.8482017262e+000,4.2858802263e+000,2.3860865486e+000,3.6812243814e+000,3.0019050110e+000,3.6098355328e+000,
3.2531250000e+001,3.4466308742e+000,4.2267969476e+000,2.9502632491e+000,3.6936685581e+000,3.2017141548e+000,3.3869316933e+000,2.9338628200e+000,3.8566855182e+000,2.8367308158e+000,4.3177138497e+000,2.3611685860e+000,3.6501434134e+000,3.0038090660e+000,3.6194035141e+000,
3.2625000000e+001,3.4820065548e+000,3.7572150390e+000,2.9273287139e+000,3.6900323860e+000,3.2068644970e+000,3.3326014146e+000,3.0324840366e+000,3.8732336267e+000,2.8182068078e+000,4.2368507010e+000,2.3064336930e+000,3.6054509512e+000,2.9950481061e+000,3.5653567900e+000,
3.2718750000e+001,3.5302585918e+000,3.4314716792e+000,2.9501156816e+000,3.7129220347e+000,3.3194860088e+000,3.4180539422e+000,3.0470963687e+000,3.9734547478e+000,2.7985880680e+000,4.1594906861e+000,2.2125748139e+000,3.6911509791e+000,3.0358719039e+000,3.5850610430e+000,
3.2812500000e+001,3.4684945553e+000,3.4931914789e+000,2.9177764464e+000,3.6945912738e+000,3.4050050046e+000,3.4382705048e+000,2.9861629911e+000,3.9530576771e+000,2.8521388817e+000,4.1843378373e+000,2.2299107620e+000,3.7223719778e+000,2.9686799042e+000,3.5966083193e+000,
3.2906250000e+001,3.4686646827e+000,3.5661801319e+000,3.0006731708e+000,3.8031319073e+000,3.4284275851e+000,3.5441591419e+000,2.9993166660e+000,4.0378491923e+000,2.8850897338e+000,4.3097486534e+000,2.2229543668e+000,3.7682068394e+000,3.0165549761e+000,3.6257696968e+000,
3.3000000000e+001,3.4524192273e+000,3.7668361040e+000,3.0728553121e+000,3.9232437206e+000,3.5177130718e+000,3.6606891771e+000,3.0780969010e+000,4.1423558913e+000,2.9086816357e+000,4.4381976646e+000,2.2165789158e+000,3.9572414305e+000,3.0413559086e+000,3.7040651421e+000,
3.3093750000e+001,3.4754027337e+000,3.7331260537e+000,3.0690060072e+000,3.9315688879e+000,3.4660092088e+000,3.6493979600e+000,3.1217499890e+000,4.1356086174e+000,2.9421792241e+000,4.4285837576e+000,2.1247197905e+000,3.9827198956e+000,3.0765939201e+000,3.6607659824e+000,
3.3187500000e+001,3.4819146851e+000,3.6973507237e+000,3.1180756406e+000,3.9159757002e+000,3.4470908062e+000,3.6882327869e+000,3.1292713527e+000,4.1303532779e+000,2.8901928407e+000,4.4382371567e+000,2.0297120693e+000,3.9511654701e+000,3.0286665119e+000,3.6157136730e+000,
3.3281250000e+001,3.4395189023e+000,3.6726979667e+000,3.0944785116e+000,3.8092167808e+000,3.4145355590e+000,3.5358461047e+000,3.0832527960e+000,3.9953070949e+000,2.9407996904e+000,4.2879965773e+000,2.0875440273e+000,3.7563461263e+000,2.8791960808e+000,3.5261194166e+000,
3.3375000000e+001,3.3501051324e+000,3.5366017758e+000,3.0147438105e+000,3.7102907785e+000,3.3247708969e+000,3.4316757350e+000,2.9704632718e+000,3.9041383690e+000,2.7937477269e+000,4.0926407930e+000,1.9630975163e+000,3.7051836881e+000,3.2384547895e+000,3.3833583339e+000,
3.3468750000e+001,3.3683314743e+000,3.5914303521e+000,3.0404785766e+000,3.7065534302e+000,3.3215007034e+000,3.4931977525e+000,3.0356291647e+000,3.8790360313e+000,2.7530922551e+000,4.0844433634e+000,1.9223364306e+000,3.7116375458e+000,3.3346309686e+000,3.3659731148e+000,
3.3562500000e+001,3.4600386070e+000,3.7198334691e+000,3.1033680097e+000,3.6761236835e+000,3.5297452608e+000,3.4829360535e+000,3.1302936257e+000,3.9085302040e+000,2.9342313918e+000,4.0286801022e+000,1.9217823477e+000,3.7256411242e+000,3.3379696588e+000,3.4088301749e+000,
3.3656250000e+001,3.3939778659e+000,3.7515398121e+000,3.1039408919e+000,3.7135473736e+000,3.4934085720e+000,3.4915921952e+000,3.1223496588e+000,3.8925393480e+000,2.9597651142e+000,4.1068332393e+000,1.9852657008e+000,3.8283096272e+000,3.2780159485e+000,3.4393349812e+000,
3.3750000000e+001,3.3667194375e+000,3.6669168675e+000,3.0805686409e+000,3.6499151542e+000,3.4396674442e+000,3.3367261719e+000,3.1077593455e+000,3.7871637810e+000,2.9579681143e+000,4.0458305701e+000,1.9647626616e+000,3.7233757180e+000,3.2606554834e+000,3.3622300823e+000,
3.3843750000e+001,3.2784062503e+000,3.5876552117e+000,2.9669842040e+000,3.5655616637e+000,3.3788611701e+000,3.2467252587e+000,3.1077451622e+000,3.7221620964e+000,2.8903251084e+000,3.9847881725e+000,1.9836792975e+000,3.6721365281e+000,3.2734530898e+000,3.3548531358e+000,
3.3937500000e+001,3.2286737668e+000,3.4422082603e+000,2.9116787256e+000,3.2610479871e+000,3.2882438048e+000,3.0436898629e+000,3.0207867699e+000,3.4557609517e+000,2.9442529721e+000,3.7362880318e+000,2.1171234976e+000,3.5726781907e+000,3.2379380658e+000,3.3199789495e+000,
3.4031250000e+001,3.2183548041e+000,3.5654416277e+000,2.9261118393e+000,3.1987745161e+000,3.2546006577e+000,3.0066954439e+000,3.0601262287e+000,3.3406858514e+000,2.9374424548e+000,3.6809801294e+000,2.1123212055e+000,3.4163457962e+000,3.1687530979e+000,3.2518882938e+000,
3.4125000000e+001,3.2922627546e+000,3.7912119693e+000,2.9989970703e+000,3.3615741275e+000,3.3837884379e+000,3.0660348127e+000,3.0884507099e+000,3.4652300794e+000,2.8247506316e+000,3.6964649362e+000,2.1495236984e+000,3.3921150937e+000,3.1742483410e+000,3.2520368571e+000,
3.4218750000e+001,3.3928375843e+000,3.7986497866e+000,3.0265469905e+000,3.3878637734e+000,3.4363422446e+000,3.1002300925e+000,3.0918255081e+000,3.4060752545e+000,2.8147828410e+000,3.6528085044e+000,2.1948487554e+000,3.4578356691e+000,3.2611432188e+000,3.2553837480e+000,
3.4312500000e+001,3.3431984856e+000,3.8219090536e+000,2.9598164943e+000,3.3878591850e+000,3.3203568419e+000,3.1202355366e+000,3.0671681532e+000,3.4128172372e+000,2.9940363641e+000,3.7712893780e+000,2.2592554398e+000,3.4017982821e+000,3.2791127239e+000,3.1554571607e+000,
3.4406250000e+001,3.3574974427e+000,3.8219281312e+000,2.9122586610e+000,3.3726118261e+000,3.3575790326e+000,3.0943182738e+000,3.0362032514e+000,3.3345587663e+000,3.0610317391e+000,3.6492698644e+000,2.2966309988e+000,3.2952737654e+000,2.7996386299e+000,3.0676218350e+000,
3.4500000000e+001,3.2788036507e+000,3.7612169534e+000,2.9142311786e+000,3.3586793844e+000,3.3198477717e+000,3.0497659013e+000,2.9166184815e+000,3.3101373901e+000,3.0750346059e+000,3.6722115750e+000,2.3677382586e+000,3.3336280747e+000,2.7810784005e+000,3.0815687869e+000,
3.4593750000e+001,3.2472451874e+000,3.6299224787e+000,2.7269410404e+000,3.1869192132e+000,3.1597620945e+000,2.9430320263e+000,2.7437696673e+000,3.0436689277e+000,2.9797710917e+000,3.4556851265e+000,2.4482144247e+000,3.0578647798e+000,2.7241763918e+000,2.8293334348e+000,
3.4687500000e+001,3.4775377787e+000,3.8438979609e+000,3.0146025116e+000,3.3265226171e+000,3.4843138733e+000,3.2641955536e+000,3.0437827367e+000,3.2100752860e+000,3.0726940377e+000,3.7244463761e+000,2.4136505369e+000,3.2208400053e+000,2.6592498994e+000,2.9919980149e+000,
3.4781250000e+001,3.5451007038e+000,3.9861023603e+000,3.1360165238e+000,3.4753732589e+000,3.5698495889e+000,3.3166840320e+000,3.1252441606e+000,3.3265657383e+000,3.1579389802e+000,3.7997439737e+000,2.4534596687e+000,3.2784566008e+000,2.6487360775e+000,2.8581191250e+000,
3.4875000000e+001,3.5713214264e+000,3.9605772688e+000,3.1364308631e+000,3.5068692014e+000,3.5636187021e+000,3.2910288947e+000,3.1514036061e+000,3.4081047890e+000,3.1584421452e+000,3.7775424542e+000,2.4470360724e+000,3.2873624137e+000,2.5534281471e+000,2.7738252284e+000,
3.4968750000e+001,3.5739600486e+000,4.0745111529e+000,3.2116323597e+000,3.6536616909e+000,3.6268772056e+000,3.4727773120e+000,3.1951709485e+000,3.5853371682e+000,3.0925539075e+000,4.1065649953e+000,2.3987298313e+000,3.5722599820e+000,2.6137661257e+000,2.9610289225e+000,
3.5062500000e+001,3.5125444248e+000,3.7858666283e+000,3.1378672005e+000,3.5896898341e+000,3.5280202353e+000,3.4432688622e+000,3.0862273112e+000,3.5626401167e+000,3.1323022780e+000,4.1199601104e+000,2.4645219433e+000,3.6704843119e+000,2.7190763333e+000,2.9625208113e+000,
3.5156250000e+001,3.4566939759e+000,3.8258963292e+000,3.0706315287e+000,3.5641663912e+000,3.4855961392e+000,3.4836454473e+000,3.1142762062e+000,3.5692916893e+000,3.1191893784e+000,4.0926956361e+000,2.4683710950e+000,3.6469714222e+000,2.7087462920e+000,2.8906776611e+000,
3.5250000000e+001,3.2830698035e+000,3.8338946888e+000,2.9899609095e+000,3.4609031431e+000,3.4863481881e+000,3.5241013649e+000,3.1255656708e+000,3.6144046290e+000,3.1172683312e+000,4.0402797171e+000,2.4550172316e+000,3.6719959790e+000,2.6079540352e+000,2.9479071363e+000,
3.5343750000e+001,3.2833230366e+000,3.8042164856e+000,3.0092747785e+000,3.4585551959e+000,3.5571894984e+000,3.4901655387e+000,3.1093350340e+000,3.6595851540e+000,2.9820453439e+000,4.0013625819e+000,2.3995641436e+000,3.6855020193e+000,2.7839988718e+000,3.0527465559e+000,
3.5437500000e+001,3.2639209608e+000,3.9128563775e+000,3.0319111797e+000,3.4722498768e+000,3.5899463782e+000,3.8391296079e+000,3.1133346783e+000,3.8833839592e+000,2.9821498244e+000,4.1585356182e+000,2.4017443935e+000,3.7869023760e+000,2.7423658724e+000,3.1654116031e+000,
3.5531250000e+001,3.3489908075e+000,3.9777769021e+000,3.0450773005e+000,3.5707136068e+000,3.6300999660e+000,3.9495669992e+000,3.1059018840e+000,3.9890558253e+000,2.9621692349e+000,4.1874611249e+000,2.2816642507e+000,3.7973142884e+000,2.8758172425e+000,3.2635605318e+000,
3.5625000000e+001,3.3120655249e+000,4.0337655151e+000,3.0794563988e+000,3.7087181020e+000,3.5688558412e+000,3.9943697065e+000,3.0524055066e+000,4.1005195307e+000,2.9003911666e+000,4.3320893928e+000,2.1611449004e+000,4.0381125702e+000,3.0561671954e+000,3.4771622631e+000,
3.5718750000e+001,3.1279139359e+000,3.8524965075e+000,2.7997085656e+000,3.6132391591e+000,3.3492395578e+000,3.9338615322e+000,2.8658368742e+000,4.0093081072e+000,2.8405255114e+000,4.2502079711e+000,2.1314430482e+000,3.9815365128e+000,3.0509182792e+000,3.4781251002e+000,
3.5812500000e+001,3.0428486560e+000,3.7810840288e+000,2.7183721607e+000,3.5527952302e+000,3.2390074823e+000,3.9265072401e+000,2.8174448605e+000,3.9941178998e+000,2.7882033695e+000,4.2538221731e+000,2.0734983928e+000,4.0143728978e+000,3.0723415721e+000,3.5952373226e+000,
3.5906250000e+001,3.0936390561e+000,3.7869292207e+000,2.6288014617e+000,3.5708910217e+000,3.1506211531e+000,3.9420074765e+000,2.7880797641e+000,4.0264850028e+000,2.8107054805e+000,4.2655438903e+000,1.9629689893e+000,4.0433100223e+000,3.0833608901e+000,3.6255461653e+000,
3.6000000000e+001,3.0255180856e+000,3.6305605583e+000,2.6688846462e+000,3.4172616788e+000,3.1592008753e+000,3.7626807369e+000,2.7485554139e+000,3.8948016006e+000,2.7213531812e+000,3.9071315743e+000,1.9991914281e+000,3.7973363325e+000,3.0858547719e+000,3.5036928222e+000,
3.6093750000e+001,2.9695333177e+000,3.6486433326e+000,2.6525504171e+000,3.3960830307e+000,3.4805744199e+000,3.7291415282e+000,2.7791489146e+000,3.8368788671e+000,2.7199160415e+000,3.8908012738e+000,1.8357435285e+000,3.7423879916e+000,3.0115599729e+000,3.5068200201e+000,
3.6187500000e+001,3.0143715859e+000,3.6193094491e+000,2.6507745701e+000,3.3973304044e+000,3.5904662657e+000,3.6993474445e+000,2.7472388674e+000,3.8098328605e+000,2.6861898517e+000,3.9468830981e+000,1.8906307016e+000,3.7743428703e+000,2.9998591936e+000,3.5752152062e+000,
3.6281250000e+001,3.2429546761e+000,3.6099415449e+000,2.7084274893e+000,3.4210746875e+000,3.6515208850e+000,3.6504440601e+000,2.9829015285e+000,3.7662511408e+000,2.6524775465e+000,4.0143040783e+000,2.0140226486e+000,3.7548088919e+000,2.9089505283e+000,3.4900426041e+000,
3.6375000000e+001,3.2864934203e+000,3.6233000176e+000,2.6243498641e+000,3.4098220730e+000,3.5406780414e+000,3.5169788693e+000,2.9489638073e+000,3.6829711591e+000,2.6265996459e+000,3.9996628336e+000,1.9386620438e+000,3.8319011558e+000,2.8994707871e+000,3.5194919747e+000,
3.6468750000e+001,3.3247965682e+000,3.4428119733e+000,2.6085597082e+000,3.2872488578e+000,3.4720927363e+000,3.0946105525e+000,2.9258765467e+000,3.4587644986e+000,2.5162038514e+000,3.8491132797e+000,1.8785774802e+000,3.7411404223e+000,2.8648495147e+000,3.4512048593e+000,
3.6562500000e+001,3.5073270552e+000,4.0564491838e+000,2.6952749912e+000,3.3236158269e+000,3.4975146307e+000,3.3830473691e+000,2.9826930225e+000,3.5170893746e+000,2.5679026364e+000,3.7772628466e+000,2.2572421017e+000,3.6895311487e+000,2.7476183453e+000,3.3485094974e+000,
3.6656250000e+001,3.6395437392e+000,4.3133654229e+000,2.5002297107e+000,3.1634720747e+000,3.5145587013e+000,3.4411740203e+000,2.9173514542e+000,3.4513552394e+000,2.6125234003e+000,3.5160843499e+000,2.3188112325e+000,3.4163843758e+000,2.6274522589e+000,3.1028432793e+000,
3.6750000000e+001,3.7085838770e+000,4.3868047885e+000,2.5630634842e+000,3.1819343059e+000,3.5294623816e+000,3.5659039322e+000,2.8924697343e+000,3.5351742332e+000,2.6698681579e+000,3.4595925722e+000,2.3618529990e+000,3.4874475780e+000,2.6332352480e+000,3.1611068094e+000,
3.6843750000e+001,3.6545986730e+000,4.4193969532e+000,2.5798127691e+000,3.2028977061e+000,3.6092638156e+000,3.7536680114e+000,2.8946636532e+000,3.6149969871e+000,2.7266796945e+000,3.5447246087e+000,2.4717245674e+000,3.3970196611e+000,2.6893351307e+000,3.0357668438e+000,
3.6937500000e+001,3.7372972238e+000,4.4067777189e+000,2.5677903119e+000,3.1067364197e+000,3.6027940139e+000,3.7687580710e+000,2.8495109219e+000,3.4998032353e+000,2.6877077496e+000,3.5470299660e+000,2.4607153248e+000,3.4521085728e+000,2.6785063262e+000,3.1182785375e+000,
3.7031250000e+001,3.7605843712e+000,4.4403064787e+000,2.5191404885e+000,3.2033994964e+000,3.6175226423e+000,3.9036515132e+000,2.8852382749e+000,3.7203387340e+000,2.7074781565e+000,4.0095395676e+000,2.6178486186e+000,3.8334343437e+000,2.7975544542e+000,3.4766416941e+000,
3.7125000000e+001,3.7652298941e+000,4.4336994805e+000,2.6498847921e+000,3.1966326028e+000,3.4569001265e+000,3.9341890179e+000,2.9092511718e+000,3.7945034287e+000,2.7107337524e+000,4.1309983955e+000,2.6472670198e+000,3.9032757010e+000,2.8242084511e+000,3.6093229066e+000,
3.7218750000e+001,3.6470688961e+000,4.4591121450e+000,2.6538000149e+000,3.1801828233e+000,3.2468154230e+000,3.9297677063e+000,2.7270332135e+000,3.7603641614e+000,2.7279607762e+000,4.0643584603e+000,2.6014309080e+000,3.8642910828e+000,2.7822927155e+000,3.5570536548e+000,
3.7312500000e+001,3.6432270601e+000,4.4355963331e+000,2.6457523162e+000,3.2271287862e+000,3.1948322275e+000,3.9222733995e+000,2.6061261641e+000,3.7231519385e+000,2.8154941539e+000,4.0464755663e+000,2.5817980290e+000,3.8204919714e+000,2.7562506883e+000,3.5752084130e+000,
3.7406250000e+001,3.6852344588e+000,4.4085279871e+000,2.6423837935e+000,3.2664165696e+000,3.1895005884e+000,3.8915647547e+000,2.5866287359e+000,3.6869253894e+000,2.7821378326e+000,4.0368788966e+000,2.6818783710e+000,3.7678568408e+000,2.6380250425e+000,3.5281502548e+000,
3.7500000000e+001,3.5902507887e+000,4.3979121523e+000,2.6231310490e+000,3.2912662851e+000,3.1977015390e+000,3.8797689300e+000,2.6410144558e+000,3.6848384745e+000,2.8500003612e+000,4.0054429885e+000,2.5713536765e+000,3.6946155439e+000,2.6532484483e+000,3.5131461681e+000,
3.7593750000e+001,3.2992008095e+000,3.7380742316e+000,2.5737488572e+000,3.1744386973e+000,3.1924882650e+000,3.5688609973e+000,2.6857404329e+000,3.4362828186e+000,2.8132405393e+000,4.0050467713e+000,2.4742103538e+000,3.6487044101e+000,2.7341643836e+000,3.5054411829e+000,
3.7687500000e+001,3.0888341902e+000,3.4802121942e+000,2.7652822630e+000,3.3070570033e+000,3.2315296596e+000,3.5177778813e+000,2.9685995361e+000,3.4884507470e+000,2.8208343693e+000,4.1123269865e+000,2.6169167441e+000,3.7763119674e+000,3.0062925758e+000,3.5701356319e+000,
3.7781250000e+001,3.1534651346e+000,3.4209517761e+000,2.8855839326e+000,3.3067511065e+000,3.2860591336e+000,3.3868397388e+000,3.1117798213e+000,3.4162653001e+000,2.9588842586e+000,4.1153352154e+000,2.6856762398e+000,3.7187318816e+000,3.1773689462e+000,3.4776990089e+000,
3.7875000000e+001,3.2302725033e+000,3.3260133063e+000,2.8873705932e+000,3.3135349493e+000,3.2449431950e+000,3.1952511117e+000,3.1091950506e+000,3.3473278092e+000,2.9181007871e+000,4.0553869435e+000,2.6406273041e+000,3.7034268145e+000,3.1175856968e+000,3.4601871578e+000,
3.7968750000e+001,3.0861033161e+000,3.2540635396e+000,2.8251432817e+000,3.2449616618e+000,3.1947303687e+000,2.9842392493e+000,3.0613327024e+000,3.2109287234e+000,2.9251973310e+000,3.8111745033e+000,2.5930317871e+000,3.4583725969e+000,3.0757490538e+000,3.1824958945e+000,
3.8062500000e+001,3.2115064065e+000,3.3008608860e+000,2.8224105793e+000,3.2614574076e+000,3.0884526573e+000,2.7890048377e+000,3.0944905686e+000,2.9554018698e+000,2.9512012097e+000,3.6186147171e+000,2.5110317854e+000,3.1563971293e+000,3.1028385459e+000,2.9262833611e+000,
3.8156250000e+001,3.2184930013e+000,3.2759740484e+000,2.7308073971e+000,3.3407230222e+000,3.0057188931e+000,2.6929328085e+000,3.0353993478e+000,3.0610646933e+000,2.9609649393e+000,3.5042861542e+000,2.4816798218e+000,3.1073946733e+000,3.0380171440e+000,2.8657130690e+000,
3.8250000000e+001,3.1977660247e+000,3.2229553272e+000,2.7112140654e+000,3.3788950092e+000,3.1938655314e+000,2.7247698154e+000,3.0095088003e+000,3.0683830047e+000,2.9924572715e+000,3.5079513728e+000,2.4873825469e+000,3.1348936015e+000,3.0274262972e+000,2.8859902523e+000,
3.8343750000e+001,3.3155379845e+000,3.4201462981e+000,2.8439410645e+000,3.5410109726e+000,3.2728666057e+000,2.8336569123e+000,3.0769765840e+000,3.3514001731e+000,2.9696254099e+000,3.5824954364e+000,2.3823091425e+000,3.2084713826e+000,2.9949783252e+000,2.8996858146e+000,
3.8437500000e+001,3.2854583723e+000,3.4970076397e+000,2.9633454244e+000,3.6669950158e+000,3.3400143903e+000,2.9387407063e+000,3.1236586636e+000,3.5285893468e+000,2.9952124543e+000,3.6777480363e+000,2.4620724279e+000,3.3234830310e+000,3.0437766319e+000,3.0032047832e+000,
3.8531250000e+001,3.3403318884e+000,3.5686998195e+000,3.0250277238e+000,3.7030149026e+000,3.3494405928e+000,3.0684113840e+000,3.1303177442e+000,3.6058830902e+000,3.0120743186e+000,3.7282156636e+000,2.4940347641e+000,3.3716880507e+000,3.0111282649e+000,3.0547418634e+000,
3.8625000000e+001,3.4056540624e+000,3.5784021994e+000,3.0185349263e+000,3.6658518153e+000,3.2902834840e+000,2.8964802480e+000,3.0483073500e+000,3.6027719356e+000,3.0055416888e+000,3.6735962368e+000,2.4397310782e+000,3.3709026511e+000,3.0224851535e+000,3.0535255495e+000,
3.8718750000e+001,3.3887242452e+000,3.4371530441e+000,2.7965374264e+000,3.4943742807e+000,3.0834885935e+000,2.7096444150e+000,2.7073718125e+000,3.4643584004e+000,2.9545162863e+000,3.4871608686e+000,2.2568657953e+000,3.2256059313e+000,2.8773090194e+000,3.0111076301e+000,
3.8812500000e+001,3.4341737917e+000,3.4233789642e+000,2.7184011367e+000,3.5216806209e+000,3.0845196859e+000,2.6763895499e+000,2.7700397577e+000,3.4426739762e+000,2.7696808006e+000,3.4731742424e+000,2.1209862477e+000,3.2539427416e+000,2.6099729941e+000,3.0437545093e+000,
3.8906250000e+001,3.4103537259e+000,3.4825050472e+000,2.7211570545e+000,3.5738565360e+000,3.1034190550e+000,2.8313118824e+000,2.8090740909e+000,3.4555750583e+000,2.8088512644e+000,3.5187049328e+000,2.1154446807e+000,3.1999279406e+000,2.6001707707e+000,3.1112609278e+000,
3.9000000000e+001,3.5274722900e+000,3.9356467561e+000,2.8785998548e+000,3.8039403895e+000,3.2684623964e+000,3.4530931484e+000,2.8362929799e+000,3.8056791158e+000,2.7918598220e+000,3.9205416478e+000,2.0768887629e+000,3.5639022508e+000,2.5952392076e+000,3.2690732269e+000,
3.9093750000e+001,3.4580752022e+000,3.9058773222e+000,2.8366305542e+000,3.7532701446e+000,3.2458086883e+000,3.4535774375e+000,2.7661785539e+000,3.7727196006e+000,2.7666463029e+000,3.9713935555e+000,2.1518912839e+000,3.6301049873e+000,2.5531412914e+000,3.2660730502e+000,
3.9187500000e+001,3.4431295979e+000,3.8932754974e+000,2.8228697702e+000,3.6904035004e+000,3.1673077683e+000,3.4533719082e+000,2.7043707671e+000,3.7053876263e+000,2.7488531563e+000,3.9252517846e+000,2.1226537005e+000,3.6003180188e+000,2.6066222130e+000,3.1819223971e+000,
3.9281250000e+001,3.3243767797e+000,3.8386676490e+000,2.8125258732e+000,3.6131929396e+000,2.9557456869e+000,3.4362760457e+000,2.7454513351e+000,3.7189485620e+000,2.7696786120e+000,3.9067890031e+000,2.1503013152e+000,3.6343339951e+000,2.6485629562e+000,3.2972449024e+000,
3.9375000000e+001,3.2596180526e+000,3.6898027560e+000,2.5890900260e+000,3.3252706261e+000,2.8098154307e+000,3.3260743939e+000,2.6431286161e+000,3.3977875432e+000,2.7353548261e+000,3.7470603337e+000,2.1886683653e+000,3.4945525838e+000,2.6176144526e+000,3.2340553467e+000,
3.9468750000e+001,3.3356819758e+000,3.6439468965e+000,2.5394653742e+000,3.2492847529e+000,2.6922597493e+000,3.3544939742e+000,2.6372949052e+000,3.3589808333e+000,2.7005959584e+000,3.7410302928e+000,2.2274201455e+000,3.4447827511e+000,2.5765680498e+000,3.1243072950e+000,
3.9562500000e+001,3.7604184544e+000,4.3318835994e+000,2.8450771413e+000,3.4051068411e+000,3.0019521369e+000,3.7337654013e+000,2.6950184692e+000,3.4468548088e+000,2.7364031559e+000,3.8009640849e+000,2.2863649481e+000,3.4704324257e+000,2.5284407701e+000,3.1295366181e+000,
3.9656250000e+001,3.9684361266e+000,4.5175898531e+000,2.8854198378e+000,3.4382315444e+000,3.2096280877e+000,3.7910966824e+000,2.7246971752e+000,3.4577357189e+000,2.7358933710e+000,3.8334943069e+000,2.3819951842e+000,3.5057231378e+000,2.5624420969e+000,3.1690931809e+000,
3.9750000000e+001,4.0641547336e+000,4.5588034845e+000,3.0146221461e+000,3.6437554870e+000,3.2409425128e+000,3.8761551633e+000,2.7412182784e+000,3.6863340543e+000,2.7237440957e+000,4.0823933731e+000,2.3270518004e+000,3.6861519681e+000,2.4028394344e+000,3.4895281057e+000,
3.9843750000e+001,4.0445076884e+000,4.5484000219e+000,3.0328555319e+000,3.6579529413e+000,3.2017363176e+000,3.8667745627e+000,2.6464557422e+000,3.6856671877e+000,2.6929409782e+000,4.1296671161e+000,2.3227685086e+000,3.7460155601e+000,2.3694164246e+000,3.6615763795e+000,
3.9937500000e+001,4.1169566144e+000,4.5086973064e+000,3.0665430303e+000,3.6576850360e+000,3.2153002027e+000,3.7723125228e+000,2.6825940344e+000,3.6588739631e+000,2.7364068750e+000,4.1054211353e+000,2.3667735895e+000,3.7463047168e+000,2.4593144575e+000,3.5804851167e+000,
4.0031250000e+001,4.0629011803e+000,4.3043054736e+000,2.9668418107e+000,3.4681043888e+000,3.1057636540e+000,3.4932502221e+000,2.6541511392e+000,3.2858155780e+000,2.7341530797e+000,3.7538052439e+000,2.3542456038e+000,3.3903923131e+000,2.5245541266e+000,3.5574236317e+000,
4.0125000000e+001,4.0581220410e+000,4.2804545911e+000,2.9885302528e+000,3.4651500493e+000,3.1421386711e+000,3.5059396610e+000,2.7929472985e+000,3.2634354641e+000,2.7781135776e+000,3.8233385635e+000,2.3913700509e+000,3.4764103112e+000,2.5031165981e+000,3.6425016326e+000,
4.0218750000e+001,4.0901742093e+000,4.2896169452e+000,3.0399635621e+000,3.4798922169e+000,3.2083337779e+000,3.5483527630e+000,2.9661373123e+000,3.3142491755e+000,2.7910133499e+000,3.8669532814e+000,2.3867136521e+000,3.4534374358e+000,2.5666437039e+000,3.6294695624e+000,
4.0312500000e+001,4.0886893576e+000,4.2785700605e+000,3.0293908537e+000,3.4770973165e+000,3.2531107403e+000,3.5235185244e+000,2.9427859569e+000,3.3175772020e+000,2.7455717927e+000,3.8676210971e+000,2.3154875220e+000,3.4379676201e+000,2.5860125098e+000,3.5971679392e+000,
4.0406250000e+001,4.0690810567e+000,4.2967794557e+000,3.0603025463e+000,3.4686535035e+000,3.3372146183e+000,3.5744664263e+000,2.9542420879e+000,3.3456913433e+000,2.7360613032e+000,3.9285914604e+000,2.2891369838e+000,3.5991325355e+000,2.6699364515e+000,3.6746712947e+000,
4.0500000000e+001,4.0062270557e+000,4.2816221169e+000,2.9657497885e+000,3.4537410763e+000,3.3158692632e+000,3.5103401730e+000,3.0186343669e+000,3.3581904818e+000,2.7538331703e+000,3.9088644776e+000,2.3093731392e+000,3.6214280044e+000,2.7570495733e+000,3.7033212207e+000,
4.0593750000e+001,3.6649410136e+000,3.4465762925e+000,2.7681420168e+000,3.4047050945e+000,2.9716596081e+000,2.9956923139e+000,2.9685590097e+000,3.3250181088e+000,2.6477775291e+000,3.8905320442e+000,2.2418207153e+000,3.6722988716e+000,2.7511486570e+000,3.7555586592e+000,
4.0687500000e+001,3.4901593485e+000,3.1558927892e+000,2.8053992576e+000,3.5452724121e+000,2.9793197000e+000,2.9337390989e+000,2.9927246453e+000,3.3364532336e+000,2.6109858738e+000,3.8073082948e+000,2.1769912484e+000,3.5823403990e+000,2.6662405452e+000,3.5838621078e+000,
4.0781250000e+001,3.4608253851e+000,3.1205432619e+000,2.8463258061e+000,3.4694539286e+000,3.1006928994e+000,2.7800760970e+000,3.0404544210e+000,3.2687579266e+000,2.7429021047e+000,3.6631367734e+000,2.3159730267e+000,3.4885307744e+000,2.8313230204e+000,3.3738644073e+000,
4.0875000000e+001,3.5540390784e+000,3.3655886253e+000,2.8494172318e+000,3.5027220403e+000,3.0831220206e+000,2.9764820996e+000,3.0188587674e+000,3.4088307949e+000,2.7920855071e+000,3.7183105637e+000,2.3279727328e+000,3.4993312771e+000,2.8577880340e+000,3.3489944561e+000,
4.0968750000e+001,3.6030858620e+000,3.9448751198e+000,2.8867930555e+000,3.6099823536e+000,3.0500047959e+000,3.3638743332e+000,3.1551075485e+000,3.6110180325e+000,2.8289211258e+000,3.7590555413e+000,2.2811579976e+000,3.4658666432e+000,2.7595714926e+000,3.4311521121e+000,
4.1062500000e+001,3.5903147799e+000,4.0543728113e+000,2.8919693377e+000,3.5963666115e+000,3.0976816352e+000,3.3858337929e+000,3.1746016679e+000,3.6861940119e+000,2.8210843607e+000,3.7305856672e+000,2.2629489186e+000,3.5165279589e+000,2.6972930089e+000,3.3859306375e+000,
4.1156250000e+001,3.6344500390e+000,4.1106192564e+000,2.9610954324e+000,3.7485099814e+000,3.1477163105e+000,3.5481264778e+000,3.1856862785e+000,3.8263127699e+000,2.7420221471e+000,4.0557395319e+000,2.2085117787e+000,3.7111219710e+000,2.6417455455e+000,3.3104256606e+000,
