Time (s),AF3,AF4,F3,F4,F7,F8,FC5,FC6,T7,T8,P7,P8,O1,O2,Sampling Rate
0.0000000000e+000,3.4616775683e+000,4.2586685524e+000,3.2620149905e+000,3.9865790212e+000,3.8580137921e+000,4.4554310558e+000,3.4022693146e+000,4.5064172283e+000,5.2732828624e+000,4.5557509934e+000,3.3567950581e+000,4.4453918828e+000,3.0253350328e+000,3.9280787523e+000,1
9.3750000000e-002,3.4735014012e+000,4.2728863924e+000,3.2748856209e+000,4.0239351580e+000,3.8848670664e+000,4.4775535332e+000,3.3675158519e+000,4.5432660015e+000,4.9316823039e+000,4.5861722209e+000,3.3528856376e+000,4.4782319828e+000,3.0456664473e+000,3.9804235598e+000,
1.8750000000e-001,3.3194347246e+000,4.0974779120e+000,3.0802084048e+000,3.8488773341e+000,3.7071904362e+000,4.2106261267e+000,3.1357647523e+000,4.4077630074e+000,4.8728417117e+000,4.4484715251e+000,3.3270788157e+000,4.4415043241e+000,2.9907280895e+000,3.9627627546e+000,
2.8125000000e-001,3.3138432952e+000,4.0795395534e+000,3.0900876670e+000,3.8711828323e+000,3.7420198607e+000,4.2215283426e+000,3.1864177281e+000,4.4061543342e+000,3.7054374075e+000,4.4368500846e+000,3.3291830664e+000,4.4872774826e+000,2.9770275297e+000,3.9926035321e+000,
3.7500000000e-001,3.4281229825e+000,4.3593840048e+000,3.2807196126e+000,4.0243144365e+000,3.8014696172e+000,4.6099268628e+000,3.2171269990e+000,4.5322363164e+000,3.1983516945e+000,4.4840229459e+000,3.2310248483e+000,4.4778219925e+000,2.9548979122e+000,3.9656401955e+000,
4.6875000000e-001,3.5155921832e+000,4.3946224954e+000,3.2950390906e+000,4.0412327793e+000,3.8228045285e+000,4.6512583574e+000,3.2317506264e+000,4.5588921863e+000,3.1407764508e+000,4.5028862987e+000,3.1359500687e+000,4.5265315387e+000,2.9641879453e+000,3.9813833040e+000,
5.6250000000e-001,3.6284432918e+000,4.4328837476e+000,3.3665306234e+000,4.1292696652e+000,3.8855894766e+000,4.6759281873e+000,3.4133894070e+000,4.6196940644e+000,3.1478393554e+000,4.5328311155e+000,3.0927541091e+000,4.4957621677e+000,2.9612938685e+000,3.9905856475e+000,
6.5625000000e-001,3.6232197034e+000,4.4786985195e+000,3.4867086784e+000,4.1977176767e+000,3.9219710163e+000,4.6733983551e+000,3.3631711111e+000,4.6343397955e+000,3.0104095118e+000,4.5243882528e+000,2.9762453998e+000,4.5908075363e+000,2.8335501825e+000,4.0058025204e+000,
7.5000000000e-001,3.4639647755e+000,4.3049234525e+000,3.4514854148e+000,4.0361870956e+000,3.8425476720e+000,4.4840443583e+000,3.3806017155e+000,4.3611741736e+000,2.9513950330e+000,4.3509777897e+000,3.0139116072e+000,4.6116801487e+000,2.8886639114e+000,4.0201062124e+000,
8.4375000000e-001,3.5002816358e+000,4.2120646432e+000,3.3895033507e+000,3.9828299761e+000,3.7886432684e+000,4.4107694227e+000,3.4028695905e+000,4.2568843104e+000,3.0288658509e+000,4.1940811550e+000,2.9285232322e+000,4.5839281094e+000,2.9121368668e+000,4.0325588033e+000,
9.3750000000e-001,3.5748195502e+000,4.3534159557e+000,3.5123039880e+000,4.1148954271e+000,3.8919538263e+000,4.4782878170e+000,3.5086745409e+000,4.3171035749e+000,3.0338071532e+000,4.1565930471e+000,2.9013176711e+000,4.4640228804e+000,2.9715553103e+000,3.9230865196e+000,
1.0312500000e+000,3.6172871072e+000,4.4871101371e+000,3.6400096597e+000,4.2782402859e+000,3.8530858386e+000,4.6310758857e+000,3.5858760917e+000,4.4271877123e+000,3.1760899195e+000,4.2662271295e+000,2.9571932162e+000,4.5333211708e+000,3.1397348216e+000,3.9701494789e+000,
1.1250000000e+000,3.6635251613e+000,4.5232975840e+000,3.6994141590e+000,4.3044164894e+000,3.8764381224e+000,4.6322454180e+000,3.6139532505e+000,4.4178272535e+000,3.2894515854e+000,4.2897248709e+000,2.9834872012e+000,4.5635137520e+000,3.2153929122e+000,3.9373398683e+000,
1.2187500000e+000,3.7082211293e+000,4.5341993599e+000,3.7586967465e+000,4.3283965718e+000,3.8860751503e+000,4.6789936533e+000,3.6306288239e+000,4.4561281016e+000,3.6805386883e+000,4.3432465961e+000,3.1287072364e+000,4.5275550723e+000,3.2479761317e+000,3.8918510207e+000,
1.3125000000e+000,3.7162163466e+000,4.5355663213e+000,3.8738278383e+000,4.3895909653e+000,3.9793855294e+000,4.6873607913e+000,3.6787914538e+000,4.4638425619e+000,3.8153050473e+000,4.3711723170e+000,3.0982538522e+000,4.5336862897e+000,3.2608965311e+000,3.9414491282e+000,
1.4062500000e+000,3.5397883825e+000,4.3669050259e+000,3.7910782311e+000,4.3624098020e+000,3.9114835851e+000,4.3199591214e+000,3.6402407344e+000,4.2972770922e+000,4.2644552665e+000,4.2440460735e+000,3.0434486970e+000,4.4435667047e+000,3.3580031239e+000,3.9300542900e+000,
1.5000000000e+000,3.5204283467e+000,4.3169149646e+000,3.7634906920e+000,4.3536297493e+000,3.8212955450e+000,4.2992390015e+000,3.6272001907e+000,4.3021918088e+000,4.3358790498e+000,4.2683180326e+000,3.1057855834e+000,4.4585010583e+000,3.3804466755e+000,3.9130813910e+000,
1.5937500000e+000,3.3881726086e+000,4.2735358661e+000,3.7068530045e+000,4.2741005933e+000,3.8519083652e+000,4.2851373333e+000,3.5378746768e+000,4.3166048505e+000,4.3546706785e+000,4.3543823063e+000,3.2598161711e+000,4.4597420205e+000,3.3911860805e+000,3.9410431083e+000,
1.6875000000e+000,3.3481482356e+000,4.1965879894e+000,3.6256044990e+000,4.2165001152e+000,3.7793199176e+000,4.2794414222e+000,3.4682837617e+000,4.2546990629e+000,4.3293856622e+000,4.3170542329e+000,3.2413975161e+000,4.3749342416e+000,3.4073047182e+000,3.9505385424e+000,
1.7812500000e+000,3.3512123938e+000,4.2021495291e+000,3.6563903134e+000,4.1844176576e+000,3.8438658854e+000,4.2755586462e+000,3.3711980899e+000,4.2836990181e+000,4.3191177075e+000,4.2725318973e+000,3.2072428006e+000,4.3042047790e+000,3.3757249458e+000,3.9793037700e+000,
1.8750000000e+000,3.3356040753e+000,4.3387253624e+000,3.6960730338e+000,4.3203454208e+000,3.9018223158e+000,4.3885064244e+000,3.3577888668e+000,4.3866079227e+000,4.3294045795e+000,4.3438961809e+000,3.2329060955e+000,4.4086060703e+000,3.3360162344e+000,3.9538269351e+000,
1.9687500000e+000,3.1714372116e+000,4.1198054316e+000,3.5972889140e+000,4.1958209326e+000,3.7797659838e+000,4.1231433813e+000,3.1521347761e+000,4.1626679198e+000,4.3148050177e+000,4.2454431812e+000,3.3023942406e+000,4.4093589828e+000,3.3197350326e+000,3.9335892910e+000,
2.0625000000e+000,3.1744274573e+000,4.0409085844e+000,3.5993137462e+000,4.1486974486e+000,3.7848723588e+000,4.0487664167e+000,3.1697788976e+000,4.1316751212e+000,4.2537950698e+000,4.1894033103e+000,3.2237988419e+000,4.3337730619e+000,3.3027622665e+000,3.8783203541e+000,
2.1562500000e+000,3.1523365828e+000,3.9846186258e+000,3.5083143032e+000,4.1003470223e+000,3.8164327936e+000,4.1121745331e+000,3.2689231195e+000,4.1506586627e+000,4.3159255307e+000,4.2366337408e+000,3.2988210868e+000,4.3748544926e+000,3.3753140436e+000,3.9886790500e+000,
2.2500000000e+000,3.2716417778e+000,4.0799495097e+000,3.4623687583e+000,4.1521565897e+000,3.9090608402e+000,4.1939418299e+000,3.2757020451e+000,4.2399440663e+000,5.6802099683e+000,4.2732516335e+000,3.3549433065e+000,4.3995858977e+000,3.3866818079e+000,4.0075769742e+000,
2.3437500000e+000,3.3382209822e+000,4.0416874658e+000,3.3373553839e+000,4.0263833345e+000,3.7834627840e+000,4.1638613810e+000,3.1914010194e+000,4.2102527654e+000,5.6641958982e+000,4.2150929910e+000,3.4330217657e+000,4.3914865449e+000,3.3829936006e+000,3.9776395314e+000,
2.4375000000e+000,3.3322824477e+000,4.0217933510e+000,3.3370372389e+000,3.9670606266e+000,3.8624191873e+000,4.1459369926e+000,3.2394100975e+000,4.2014040488e+000,5.6111227602e+000,4.2126586097e+000,3.4928340048e+000,4.4211219124e+000,3.3049879118e+000,4.0547477482e+000,
2.5312500000e+000,3.2535103418e+000,4.1781797753e+000,3.3182376574e+000,3.9616092651e+000,3.9134964189e+000,4.0863398247e+000,3.2494824331e+000,4.0671940167e+000,5.5775671536e+000,4.0344248927e+000,3.4536223313e+000,4.3307060472e+000,3.1969873349e+000,4.0013854311e+000,
2.6250000000e+000,3.3756981074e+000,4.3287653448e+000,3.3983266019e+000,4.0832849300e+000,4.0224007778e+000,4.0844120345e+000,3.3919454208e+000,4.0794291244e+000,5.5930324757e+000,3.9401442740e+000,3.4222710136e+000,4.2179221412e+000,3.1940795984e+000,3.9003239450e+000,
2.7187500000e+000,3.4450051337e+000,4.4022711350e+000,3.4219831900e+000,4.1764826649e+000,3.9851458492e+000,4.1540835404e+000,3.4290991725e+000,4.1020812188e+000,5.5967331728e+000,3.9712040221e+000,3.4875595581e+000,4.3677640354e+000,3.2832944649e+000,3.9523685818e+000,
2.8125000000e+000,3.5399432646e+000,4.4096243961e+000,3.4093007928e+000,4.1539519242e+000,3.9547818003e+000,4.1659759057e+000,3.4238168524e+000,4.1094888817e+000,5.5980168440e+000,4.0334107551e+000,3.5304105285e+000,4.5119855658e+000,3.3639310537e+000,4.1045856255e+000,
2.9062500000e+000,3.5052336932e+000,4.3383504190e+000,3.3906837230e+000,4.0235916422e+000,3.9209122602e+000,4.1034494872e+000,3.4874618395e+000,3.9977746684e+000,5.5914060187e+000,4.0151706782e+000,3.5540460607e+000,4.4338237034e+000,3.3707873286e+000,4.0855779227e+000,
3.0000000000e+000,3.5686652209e+000,4.3453821383e+000,3.4006956636e+000,3.9987003278e+000,3.9409019424e+000,4.1470262847e+000,3.4627737201e+000,4.0222229571e+000,5.5938353912e+000,4.0429346041e+000,3.5223289457e+000,4.4532899055e+000,3.2596705004e+000,4.0561656887e+000,
3.0937500000e+000,3.6131279912e+000,4.4448565004e+000,3.3807623082e+000,4.0805946201e+000,3.9531991139e+000,4.2566183772e+000,3.4511772945e+000,4.1002124038e+000,5.5940992924e+000,4.0653278125e+000,3.5309857351e+000,4.3508037392e+000,3.2881268061e+000,3.9467561738e+000,
3.1875000000e+000,3.5210553944e+000,4.4267036911e+000,3.3107897879e+000,4.0558494703e+000,3.8413331547e+000,4.1271795877e+000,3.3365917471e+000,4.0172343702e+000,5.4286916236e+000,3.8298206491e+000,3.3999718489e+000,4.1911474413e+000,3.2090832915e+000,3.7914200414e+000,
3.2812500000e+000,3.5069448313e+000,4.4001515335e+000,3.2995317564e+000,4.0078196564e+000,3.8511076753e+000,4.1006947640e+000,3.3192407610e+000,3.9873320388e+000,3.2292564279e+000,3.8262741852e+000,3.2858783235e+000,4.2530352788e+000,3.1406165250e+000,3.8585259474e+000,
3.3750000000e+000,3.6264170706e+000,4.4738747888e+000,3.3306712715e+000,4.1707977920e+000,3.9801943979e+000,4.2800679128e+000,3.3554547264e+000,4.0696603409e+000,2.9851668956e+000,3.9746242364e+000,3.3043804921e+000,4.2847570441e+000,3.1721452094e+000,3.9464790186e+000,
3.4687500000e+000,3.6718968011e+000,4.5478970627e+000,3.3625275733e+000,4.2639086608e+000,3.9365748276e+000,4.3852485454e+000,3.3700255365e+000,4.1400364780e+000,3.0400235799e+000,4.0059319240e+000,3.2884453382e+000,4.2957221060e+000,3.2149408576e+000,3.8703948127e+000,
3.5625000000e+000,3.6597765610e+000,4.3507532230e+000,3.3279699170e+000,4.2242339466e+000,3.7556748910e+000,4.3070729463e+000,3.2907983749e+000,4.0842252455e+000,2.9832836254e+000,3.9886506880e+000,3.2239293693e+000,4.3489872036e+000,3.1873414408e+000,3.8944302422e+000,
3.6562500000e+000,3.7851716225e+000,4.5541799263e+000,3.3812005273e+000,4.3545681051e+000,3.8323805195e+000,4.5591914114e+000,3.5043301224e+000,4.2897910538e+000,3.0586084456e+000,4.0834404875e+000,3.1629195557e+000,4.3033614928e+000,3.1820584339e+000,3.8941543297e+000,
3.7500000000e+000,3.8239116217e+000,4.5670233571e+000,3.3454329588e+000,4.3794763036e+000,3.8619107965e+000,4.5991521277e+000,3.4772017636e+000,4.3215347132e+000,3.7124788371e+000,4.1259283724e+000,3.0293624220e+000,4.1737922941e+000,3.1562789170e+000,3.7076803367e+000,
3.8437500000e+000,3.7605475720e+000,4.4540063589e+000,3.1980970693e+000,4.2631052386e+000,3.8116853316e+000,4.5149251199e+000,3.4954991849e+000,4.2492564485e+000,3.8003620242e+000,4.0483921529e+000,3.0570495904e+000,4.0463254977e+000,3.1121198527e+000,3.5536846036e+000,
3.9375000000e+000,3.7290931841e+000,4.4329912892e+000,3.1621110656e+000,4.2626843980e+000,3.8189834456e+000,4.5160266762e+000,3.4857322353e+000,4.2401243540e+000,3.7956075359e+000,4.0197087143e+000,2.9936477078e+000,4.0070296954e+000,3.0911103225e+000,3.5653352396e+000,
4.0312500000e+000,3.6523410396e+000,4.4175558007e+000,3.1546389109e+000,4.3212284223e+000,3.8082871788e+000,4.5064958164e+000,3.5222373938e+000,4.2884323500e+000,3.8200548396e+000,4.0378995559e+000,3.1407950923e+000,4.0752228472e+000,3.1577337147e+000,3.6484010466e+000,
4.1250000000e+000,3.6360140115e+000,4.4024342450e+000,3.1585365399e+000,4.2938767115e+000,3.7536253253e+000,4.5508561126e+000,3.4592561951e+000,4.4071266035e+000,3.8590868836e+000,4.1656796453e+000,3.2627462279e+000,4.2618162807e+000,3.0708464829e+000,3.7640011804e+000,
4.2187500000e+000,3.6014421775e+000,4.3834911914e+000,3.1259863114e+000,4.2574367330e+000,3.7505062496e+000,4.5630802851e+000,3.4363071716e+000,4.4041182876e+000,7.3807275747e+000,4.2257421048e+000,3.3633913476e+000,4.2874076123e+000,3.1380110090e+000,3.8612017987e+000,
4.3125000000e+000,3.6216237061e+000,4.3411129769e+000,3.0781107676e+000,4.2212365578e+000,3.6482974545e+000,4.4597071914e+000,3.4904338964e+000,4.3548405970e+000,7.7575189732e+000,4.1171488937e+000,3.2821626925e+000,4.1973433046e+000,3.0699429144e+000,3.7554601544e+000,
4.4062500000e+000,3.5533315070e+000,4.2430326029e+000,3.0467259751e+000,4.1084944394e+000,3.5736845895e+000,4.3847372422e+000,3.4718090442e+000,4.3723153344e+000,7.7658979848e+000,4.1652728933e+000,3.2740249235e+000,4.1932750687e+000,2.9723116231e+000,3.6252216197e+000,
4.5000000000e+000,3.5219548445e+000,4.2593207407e+000,3.1227676640e+000,4.2046776261e+000,3.6362326082e+000,4.4287474408e+000,3.5111545812e+000,4.4337446652e+000,7.7665952236e+000,4.2304736737e+000,3.2173013654e+000,4.2374595801e+000,3.0854201953e+000,3.6969055506e+000,
4.5937500000e+000,3.4171544225e+000,4.2977566208e+000,3.2073873550e+000,4.3150586676e+000,3.6328319756e+000,4.4347337637e+000,3.4784198456e+000,4.4788648123e+000,7.7667891581e+000,4.2626186648e+000,3.3348072668e+000,4.2430141956e+000,3.1664964354e+000,3.6070075663e+000,
4.6875000000e+000,3.3607920774e+000,4.1224605801e+000,3.3562319441e+000,4.2867777446e+000,3.6795890216e+000,4.2889412399e+000,3.3795803129e+000,4.4242470035e+000,7.7662992377e+000,4.3290254060e+000,3.3456423671e+000,4.3177626459e+000,3.0540665205e+000,3.6628011890e+000,
4.7812500000e+000,3.2107006399e+000,4.0668763993e+000,3.3998381081e+000,4.2411020639e+000,3.6420504644e+000,4.2660070645e+000,3.4383041572e+000,4.3922443698e+000,7.7565346609e+000,4.2933928401e+000,3.3993180891e+000,4.3570626299e+000,3.1514795524e+000,3.7523999700e+000,
4.8750000000e+000,3.2971035271e+000,4.2234006281e+000,3.3749221603e+000,4.3566976657e+000,3.7081969547e+000,4.3996505680e+000,3.4060460261e+000,4.4549055968e+000,7.7558820138e+000,4.3183323186e+000,3.4325370054e+000,4.3410711547e+000,3.2120070988e+000,3.7160923334e+000,
4.9687500000e+000,3.3948973501e+000,4.3394288865e+000,3.5176338523e+000,4.4299540075e+000,3.8168724565e+000,4.4432052577e+000,3.4675537932e+000,4.4579904775e+000,7.7558988204e+000,4.3302605559e+000,3.4448362771e+000,4.3792088796e+000,3.3006821894e+000,3.7405989657e+000,
5.0625000000e+000,3.5426212410e+000,4.3583235213e+000,3.5611734812e+000,4.4285126648e+000,3.7855544853e+000,4.4056953269e+000,3.4479333742e+000,4.3165980389e+000,7.7558757867e+000,4.2621207799e+000,3.3880127020e+000,4.3243586933e+000,3.2755650360e+000,3.7032048492e+000,
5.1562500000e+000,3.6343952626e+000,4.4460255652e+000,3.6664137233e+000,4.5069262671e+000,3.8198675456e+000,4.4157228490e+000,3.5502996235e+000,4.3112131175e+000,7.6412916733e+000,4.1554787835e+000,3.2720434934e+000,4.2208542881e+000,3.2445237616e+000,3.6560374417e+000,
5.2500000000e+000,3.7387358583e+000,4.5469349397e+000,3.8227014719e+000,4.6699728520e+000,3.9442321029e+000,4.4301952681e+000,3.6390368145e+000,4.3640177895e+000,5.3453026335e+000,4.2148245750e+000,3.4057481251e+000,4.2546006042e+000,3.1973783635e+000,3.5752617568e+000,
5.3437500000e+000,3.7532627680e+000,4.5881135740e+000,3.8789788829e+000,4.7236694049e+000,3.9969080103e+000,4.4143907464e+000,3.6302872492e+000,4.3507562842e+000,3.6928469017e+000,4.1939045552e+000,3.3659512642e+000,4.3026314832e+000,3.1863149736e+000,3.6884916180e+000,
5.4375000000e+000,3.8118228903e+000,4.6353803374e+000,3.9070172507e+000,4.7240331158e+000,4.1243246201e+000,4.4077664559e+000,3.6785553648e+000,4.2658906396e+000,3.1852347336e+000,4.1129788202e+000,3.4956480123e+000,4.4110224067e+000,3.2235488144e+000,3.7244517439e+000,
5.5312500000e+000,3.9082440892e+000,4.6445595596e+000,3.9466826519e+000,4.6542995302e+000,4.1131396407e+000,4.3584142994e+000,3.6844391798e+000,4.1893907490e+000,3.1231692689e+000,4.0591240141e+000,3.4666727368e+000,4.3999034497e+000,3.0159152500e+000,3.7569397233e+000,
5.6250000000e+000,3.9381126299e+000,4.6545405715e+000,3.8712745318e+000,4.5746036257e+000,4.1320869243e+000,4.3738292978e+000,3.6948340697e+000,4.1660552973e+000,3.5796503361e+000,4.2058289122e+000,3.4021307631e+000,4.6202506112e+000,3.0767739849e+000,3.9519128050e+000,
5.7187500000e+000,4.0767260044e+000,4.7393324977e+000,3.8488010226e+000,4.5800910506e+000,4.2033281722e+000,4.3040966720e+000,3.7840735569e+000,4.0493777594e+000,4.3969727845e+000,4.0387632936e+000,3.4750510659e+000,4.5159668997e+000,3.0678969896e+000,3.8414140397e+000,
5.8125000000e+000,4.1423263113e+000,4.7739298946e+000,3.9566013804e+000,4.5976239276e+000,4.2812855348e+000,4.2574985981e+000,3.8046102621e+000,4.0652272738e+000,4.5626588125e+000,4.1563372132e+000,3.4426133789e+000,4.5040213249e+000,3.0216705594e+000,3.7809295739e+000,
5.9062500000e+000,4.1367717752e+000,4.7516867781e+000,4.0453727237e+000,4.6294302755e+000,4.2804084186e+000,4.2794060437e+000,3.8020989267e+000,4.0482638224e+000,7.4397785571e+000,4.2063596851e+000,3.4143904696e+000,4.5041557414e+000,2.8998475182e+000,3.8052884097e+000,
6.0000000000e+000,4.1189100748e+000,4.6931641564e+000,3.9427020837e+000,4.5728531033e+000,4.2545415186e+000,4.1883488880e+000,3.6976647205e+000,3.9949125539e+000,7.4724721430e+000,4.2053823066e+000,3.4392883196e+000,4.5441289192e+000,2.9270693328e+000,3.7721795535e+000,
6.0937500000e+000,4.1500852026e+000,4.7858532635e+000,3.9719865481e+000,4.6358384655e+000,4.3564055720e+000,4.3349388740e+000,3.7884902044e+000,4.1174776738e+000,7.5329803879e+000,4.2989708989e+000,3.4587699596e+000,4.5646392584e+000,3.0522701844e+000,3.7309451194e+000,
6.1875000000e+000,4.0335408676e+000,4.6842002984e+000,3.8169457364e+000,4.4236868742e+000,4.3325679722e+000,4.2307280212e+000,3.7284124137e+000,3.9256998932e+000,7.5407635223e+000,4.2909343658e+000,3.4386894314e+000,4.5889843594e+000,3.2367349553e+000,3.7556593941e+000,
6.2812500000e+000,3.9945332057e+000,4.6785808928e+000,3.8268361709e+000,4.3857471735e+000,4.2726254632e+000,4.2162161754e+000,3.6962014813e+000,3.9447966614e+000,7.5401277586e+000,4.3014862410e+000,3.3626761852e+000,4.5678011529e+000,3.1793493665e+000,3.7652268752e+000,
6.3750000000e+000,4.0038205129e+000,4.6802103620e+000,3.8505319517e+000,4.3765482971e+000,4.2310976499e+000,4.3144754177e+000,3.6909156372e+000,3.9674393924e+000,7.5400601533e+000,4.3247125828e+000,3.3831430298e+000,4.4752617954e+000,3.2150814744e+000,3.6865741974e+000,
6.4687500000e+000,3.9103533759e+000,4.5861556491e+000,3.7974424485e+000,4.3437270091e+000,4.1551785052e+000,4.2434086655e+000,3.6360174969e+000,3.9532538508e+000,7.5418484079e+000,4.2773039314e+000,3.2664173992e+000,4.3520144310e+000,3.2343226266e+000,3.6884300656e+000,
6.5625000000e+000,3.9324975379e+000,4.6235527836e+000,3.8858661368e+000,4.4176886440e+000,4.2636364535e+000,4.2221115491e+000,3.7655335061e+000,3.8706674036e+000,7.5943376686e+000,4.1704613715e+000,3.2802806921e+000,4.1412734130e+000,3.1858482271e+000,3.5644886773e+000,
6.6562500000e+000,3.8012906331e+000,4.6262738214e+000,3.8665616144e+000,4.5455262080e+000,4.2100461031e+000,4.3025094030e+000,3.6737685017e+000,4.0774275537e+000,7.5947994946e+000,4.2897035605e+000,3.2613592164e+000,4.1761896971e+000,3.1643852099e+000,3.5452569078e+000,
6.7500000000e+000,3.7712586443e+000,4.6831257797e+000,3.8556443410e+000,4.5769068518e+000,4.2193223803e+000,4.4027809495e+000,3.6516263879e+000,4.2837740882e+000,7.5914006069e+000,4.4654541694e+000,3.1580378183e+000,4.2998151622e+000,3.2467511446e+000,3.5986892907e+000,
6.8437500000e+000,3.6393322943e+000,4.6106881483e+000,3.6965056967e+000,4.4908281456e+000,4.1321377211e+000,4.3385628620e+000,3.5833153477e+000,4.2521689740e+000,6.4142157130e+000,4.3783166909e+000,3.1259246445e+000,4.2336399825e+000,3.2611438815e+000,3.5615570913e+000,
6.9375000000e+000,3.6997745458e+000,4.6549364790e+000,3.7594461495e+000,4.5304439253e+000,4.1202332043e+000,4.3435319755e+000,3.6308238021e+000,4.3660277176e+000,5.8616920529e+000,4.3865152503e+000,3.0083443981e+000,4.2806965382e+000,3.2703511916e+000,3.6226162200e+000,
7.0312500000e+000,3.6533358117e+000,4.5875932366e+000,3.7067159053e+000,4.5008768104e+000,4.0189139042e+000,4.2699886400e+000,3.6530129799e+000,4.3534131071e+000,5.7331255367e+000,4.3877934336e+000,2.9831686064e+000,4.2683430045e+000,3.3201965186e+000,3.6871905693e+000,
7.1250000000e+000,3.6209405841e+000,4.5308172908e+000,3.6694735871e+000,4.4720349152e+000,4.0214190138e+000,4.1767054437e+000,3.6102512251e+000,4.3001170647e+000,5.2799205865e+000,4.2963436816e+000,2.9734003891e+000,4.1728642337e+000,3.1055037283e+000,3.6453975835e+000,
7.2187500000e+000,3.7637863983e+000,4.4915081543e+000,3.7657598657e+000,4.4735151095e+000,4.0336069635e+000,4.1889602274e+000,3.6290641303e+000,4.3606026658e+000,5.2266098211e+000,4.3522081278e+000,3.1283476855e+000,4.1852501040e+000,3.0541155852e+000,3.7865726893e+000,
7.3125000000e+000,3.8772300761e+000,4.5673351891e+000,3.8965002966e+000,4.4789835267e+000,4.0095020174e+000,4.2088302188e+000,3.6827629980e+000,4.3664759846e+000,5.2670113842e+000,4.2742767725e+000,3.4732835949e+000,4.1320620152e+000,3.1710050600e+000,3.7480421138e+000,
7.4062500000e+000,3.9638800411e+000,4.6588684220e+000,3.9863119056e+000,4.5306467779e+000,4.1230890745e+000,4.2839181641e+000,3.6963525662e+000,4.4642532031e+000,5.2719650602e+000,4.3410546159e+000,3.5127782232e+000,4.2022346074e+000,3.2183360096e+000,3.9052813386e+000,
7.5000000000e+000,3.9536272444e+000,4.6588550024e+000,3.9279256590e+000,4.5266467347e+000,4.0566958051e+000,4.4334169147e+000,3.6152107122e+000,4.5294648367e+000,5.2339167317e+000,4.4731897355e+000,3.5576098942e+000,4.3010123579e+000,3.2611679681e+000,3.9280262519e+000,
7.5937500000e+000,3.8615577786e+000,4.5591491099e+000,3.8550444501e+000,4.4347135251e+000,4.0046859145e+000,4.3900302432e+000,3.5168023757e+000,4.4805459520e+000,4.0184621437e+000,4.4364806967e+000,3.5811619532e+000,4.2387538892e+000,3.2752203814e+000,3.9048196892e+000,
7.6875000000e+000,3.9761646068e+000,4.5110367356e+000,3.9668570012e+000,4.3942999151e+000,4.0199085903e+000,4.3754343434e+000,3.5412922435e+000,4.3898472184e+000,3.5004965595e+000,4.2694431574e+000,3.5704011278e+000,4.0800945645e+000,3.1898706416e+000,3.8502917275e+000,
7.7812500000e+000,4.0232028976e+000,4.4171946046e+000,3.9079499712e+000,4.3350819136e+000,3.9719403280e+000,4.3731022885e+000,3.5026233140e+000,4.3580667228e+000,3.6339568646e+000,4.1559831583e+000,3.5758646415e+000,3.9984569073e+000,3.1355986977e+000,3.8423056574e+000,
7.8750000000e+000,4.0741572119e+000,4.4084631106e+000,3.8729886735e+000,4.3422702821e+000,3.9791214519e+000,4.4145843062e+000,3.5382362544e+000,4.3682525846e+000,3.6721445765e+000,4.1825900166e+000,3.6058839476e+000,4.0410555598e+000,3.1406584705e+000,3.8120576815e+000,
7.9687500000e+000,3.9682003711e+000,4.3310831420e+000,3.8693244952e+000,4.2358820762e+000,4.0150953987e+000,4.3749892345e+000,3.6236588752e+000,4.2681692121e+000,6.9795781484e+000,4.1639584860e+000,3.7265053900e+000,3.9004302305e+000,3.1157908437e+000,3.8681247237e+000,
8.0625000000e+000,3.9608690107e+000,4.3599405999e+000,3.8977359557e+000,4.2539050782e+000,4.0536066187e+000,4.3771913393e+000,3.6657473523e+000,4.3029631247e+000,7.3056868441e+000,4.2284140980e+000,3.7358469364e+000,4.0035250693e+000,3.1839335116e+000,3.9246604842e+000,
8.1562500000e+000,4.0544489111e+000,4.3872876562e+000,3.9605462822e+000,4.3137273143e+000,4.0204230735e+000,4.3560365653e+000,3.6847462964e+000,4.2662733907e+000,7.3275375369e+000,4.1951749376e+000,3.7600763558e+000,4.0502756576e+000,3.2716200801e+000,4.0304383873e+000,
8.2500000000e+000,3.9033089831e+000,4.3949717974e+000,3.7390163119e+000,4.3228008648e+000,4.0408974108e+000,4.3686138804e+000,3.6430218692e+000,4.2686397545e+000,7.3249979558e+000,4.1435073579e+000,3.5177518217e+000,3.9506798194e+000,3.2620067959e+000,3.9044595977e+000,
8.3437500000e+000,3.9803325320e+000,4.4641152637e+000,3.6950903175e+000,4.5461960282e+000,4.0459091610e+000,4.4910889147e+000,3.6162393055e+000,4.3166123043e+000,7.3225978509e+000,4.1594774157e+000,3.3414897214e+000,4.0138237513e+000,3.2104700247e+000,3.9372261341e+000,
8.4375000000e+000,4.0666632598e+000,4.5804850749e+000,3.6914944298e+000,4.6325485363e+000,4.0403089794e+000,4.5348783347e+000,3.6529188147e+000,4.3393774683e+000,7.3233823115e+000,4.2419464471e+000,3.3099686720e+000,4.1431542458e+000,3.2806946450e+000,3.8982210850e+000,
8.5312500000e+000,4.1087469887e+000,4.6625037909e+000,3.7541516993e+000,4.7153882671e+000,4.1180742752e+000,4.4477656702e+000,3.6814955278e+000,4.2956462176e+000,7.3233665880e+000,4.0886470618e+000,3.1967578064e+000,4.0731447548e+000,3.3623089268e+000,3.8905478999e+000,
8.6250000000e+000,4.0326963366e+000,4.6497207040e+000,3.6973444264e+000,4.6995665613e+000,4.0604603035e+000,4.3900589957e+000,3.6500435651e+000,4.2156829691e+000,7.3237966284e+000,4.0073035532e+000,3.4132606522e+000,4.0030590102e+000,3.3851477635e+000,3.8647823923e+000,
8.7187500000e+000,4.1165907049e+000,4.7531988212e+000,3.9485897652e+000,4.8613887235e+000,4.2145102632e+000,4.3473558903e+000,3.7973727926e+000,4.1833532779e+000,7.3227091810e+000,3.9877526915e+000,3.5401122551e+000,4.1003451532e+000,3.4884443126e+000,3.8556804699e+000,
8.8125000000e+000,4.1150237910e+000,4.8283114476e+000,4.0285488287e+000,4.9402806551e+000,4.2245300561e+000,4.3110323848e+000,3.8611118426e+000,4.2077458152e+000,8.5938398855e+000,3.9507315008e+000,3.5809376620e+000,4.1341386830e+000,3.5687551448e+000,3.9011226837e+000,
8.9062500000e+000,4.1133720358e+000,4.8431642249e+000,4.0269100617e+000,4.9355943938e+000,4.1595282553e+000,4.2943992839e+000,3.7949201457e+000,4.2333435607e+000,9.2042453284e+000,4.0023877826e+000,3.5163023949e+000,4.1650091709e+000,3.7044931968e+000,3.9309964777e+000,
9.0000000000e+000,4.1829455894e+000,4.9067058887e+000,4.0663104801e+000,4.9960584263e+000,4.1276667245e+000,4.3996925701e+000,3.7676677032e+000,4.3059797796e+000,9.0983493268e+000,4.0013337349e+000,3.3568184045e+000,4.1931579587e+000,3.6332755433e+000,3.8389912883e+000,
9.0937500000e+000,4.2331708191e+000,4.9648568121e+000,4.1611493949e+000,5.0115855492e+000,4.1460988623e+000,4.4901720620e+000,3.8060210240e+000,4.3747518905e+000,9.0759071968e+000,3.9562487944e+000,3.3657725244e+000,4.1563904085e+000,3.6764196659e+000,3.8636440753e+000,
9.1875000000e+000,4.1837240336e+000,4.9648649309e+000,4.1984948423e+000,5.0315396661e+000,4.1619674165e+000,4.5275592026e+000,3.7797714666e+000,4.4071942840e+000,9.1095437507e+000,4.0069222207e+000,3.4693622051e+000,4.2015144883e+000,3.6990423787e+000,3.8484272907e+000,
9.2812500000e+000,4.1645274898e+000,4.9045135912e+000,4.1898389312e+000,5.0119883322e+000,4.1655615610e+000,4.4674964251e+000,3.7762008058e+000,4.3164144726e+000,9.1189944345e+000,4.0644289704e+000,3.4455871212e+000,4.2466041024e+000,3.6881622901e+000,3.9282182440e+000,
9.3750000000e+000,4.0330303708e+000,4.7665332922e+000,4.2182023693e+000,4.8713469696e+000,4.0945094955e+000,4.3041028554e+000,3.7156132595e+000,4.2098963124e+000,9.1231610738e+000,4.0547152420e+000,3.4836884548e+000,4.2675242082e+000,3.7237014822e+000,3.9278166621e+000,
9.4687500000e+000,4.0275798231e+000,4.7378644836e+000,4.2772039965e+000,4.8829023498e+000,4.0706171837e+000,4.3388221325e+000,3.7697929245e+000,4.2262826345e+000,9.1279337957e+000,3.9074168322e+000,3.5743651035e+000,4.1232788401e+000,3.7184720984e+000,3.9796796591e+000,
9.5625000000e+000,3.9999417644e+000,4.7071995302e+000,4.2795159564e+000,4.8449606765e+000,4.0109711981e+000,4.3989861370e+000,3.7453569050e+000,4.3559748921e+000,9.1289561472e+000,4.0904553957e+000,3.5523798287e+000,4.2118155252e+000,3.6775118867e+000,3.9985805279e+000,
9.6562500000e+000,4.0300488935e+000,4.6274777121e+000,4.1973085667e+000,4.7703758116e+000,3.8957604238e+000,4.4933126128e+000,3.7190822559e+000,4.5626859779e+000,9.1287739241e+000,4.3529742489e+000,3.4309928965e+000,4.4184999404e+000,3.6517779768e+000,4.0252447836e+000,
9.7500000000e+000,3.9461309996e+000,4.6072503114e+000,4.0826548038e+000,4.6855107029e+000,3.7975807859e+000,4.5743577876e+000,3.5686044079e+000,4.6430290710e+000,9.1282305526e+000,4.5303613126e+000,3.1862088883e+000,4.4290180309e+000,3.5393838641e+000,4.0347741107e+000,
9.8437500000e+000,3.8616606614e+000,4.5430900630e+000,4.0221576592e+000,4.6401034574e+000,3.7569805587e+000,4.5921353840e+000,3.4349477137e+000,4.6369671552e+000,7.7933643370e+000,4.6180744119e+000,3.1217893983e+000,4.5498009586e+000,3.4810077042e+000,4.2355962329e+000,
9.9375000000e+000,3.8536416884e+000,4.5428524076e+000,4.0120218730e+000,4.6772731126e+000,3.8277820720e+000,4.6469435728e+000,3.4860570220e+000,4.6783447269e+000,6.4285746879e+000,4.8004619941e+000,3.2507129112e+000,4.6866702739e+000,3.2722550163e+000,4.3029110368e+000,
1.0031250000e+001,3.7761047609e+000,4.4532499233e+000,3.9166029379e+000,4.6681047673e+000,3.8720595219e+000,4.6405539289e+000,3.3896528390e+000,4.6938646093e+000,6.2307376151e+000,4.9262807130e+000,3.3844147387e+000,4.7864257798e+000,3.3301650451e+000,4.3141562174e+000,
1.0125000000e+001,3.7613418148e+000,4.5508304249e+000,3.9527289226e+000,4.8311927404e+000,3.9498648480e+000,4.7656016998e+000,3.3833050395e+000,4.8194391526e+000,6.0842641907e+000,5.0347501502e+000,3.3812683221e+000,4.7896892795e+000,3.2472630919e+000,4.2190614350e+000,
1.0218750000e+001,3.9385809759e+000,4.6608903786e+000,4.0447497639e+000,4.9092227234e+000,4.1188126901e+000,4.8641260294e+000,3.5418948312e+000,4.9190079114e+000,4.9444082316e+000,5.0883177224e+000,3.3696319339e+000,4.8112171534e+000,3.3302507543e+000,4.2750829779e+000,
1.0312500000e+001,3.9157544460e+000,4.6544343395e+000,4.0077276609e+000,4.8964631078e+000,4.0738208272e+000,4.8939897225e+000,3.5001785120e+000,4.9738842929e+000,4.6792342247e+000,5.1974821626e+000,3.3951486722e+000,5.0343246018e+000,3.5548816437e+000,4.4937572100e+000,
1.0406250000e+001,3.9124767949e+000,4.6009876030e+000,3.9669621666e+000,4.8313970969e+000,4.0463380248e+000,4.8362970303e+000,3.5024203083e+000,4.9892354987e+000,4.2803760559e+000,5.2625785120e+000,3.4636874136e+000,5.2459724962e+000,3.7093582356e+000,4.7095251133e+000,
1.0500000000e+001,3.8613341105e+000,4.5746823431e+000,3.9447001152e+000,4.8651666581e+000,3.9981167829e+000,4.8537007785e+000,3.3331252731e+000,5.0241684852e+000,3.1931873136e+000,5.2968661094e+000,3.4130476225e+000,5.2731345783e+000,3.6311317286e+000,4.7411038792e+000,
1.0593750000e+001,3.7598668062e+000,4.5794534962e+000,3.8508332594e+000,4.8489658992e+000,4.0408377602e+000,4.8770518389e+000,3.3434702707e+000,4.9983862423e+000,3.1900622869e+000,5.3096582690e+000,3.4359885579e+000,5.2781062303e+000,3.6572490617e+000,4.7723818251e+000,
1.0687500000e+001,3.7247133057e+000,4.7040164898e+000,3.8543918937e+000,4.9589479339e+000,4.1057286052e+000,4.9931469468e+000,3.4019477196e+000,5.1008900890e+000,3.4105815041e+000,5.4290428546e+000,3.4694865802e+000,5.2839101229e+000,3.7127809059e+000,4.7750036269e+000,
1.0781250000e+001,3.7487287998e+000,4.7026555341e+000,3.8701374035e+000,4.9931026742e+000,4.1388328508e+000,5.0503413514e+000,3.4435993122e+000,5.1654821112e+000,3.4589950165e+000,5.5321058105e+000,3.5939877953e+000,5.3186195990e+000,3.7589547649e+000,4.7526973133e+000,
1.0875000000e+001,3.7610616189e+000,4.6951371120e+000,3.8741844897e+000,5.0190191994e+000,4.1118940974e+000,5.0423112349e+000,3.4198623215e+000,5.1991973199e+000,3.4266385829e+000,5.4718669525e+000,3.6311822538e+000,5.2697714238e+000,3.7413065972e+000,4.6976852285e+000,
1.0968750000e+001,3.7612291998e+000,4.6936266554e+000,3.9098493805e+000,5.0135983869e+000,4.0822702585e+000,4.9854438604e+000,3.4567783329e+000,5.2132504948e+000,3.3163784457e+000,5.4017733323e+000,3.5746195350e+000,5.2750670138e+000,3.7969350011e+000,4.8258052417e+000,
1.1062500000e+001,3.7652290583e+000,4.6759291339e+000,3.8856978357e+000,4.9563422090e+000,4.0400213949e+000,5.0218315984e+000,3.5356268442e+000,5.2711466537e+000,3.4400764128e+000,5.4491963832e+000,3.6284481206e+000,5.3433158838e+000,3.7943078715e+000,4.8777193347e+000,
1.1156250000e+001,3.6450207034e+000,4.6599787960e+000,3.7524220619e+000,4.9079270452e+000,3.8800061509e+000,4.9689599211e+000,3.3760749581e+000,5.1932030768e+000,3.4148127516e+000,5.3984551400e+000,3.6394111025e+000,5.3483960035e+000,3.7514563289e+000,4.8796062263e+000,
1.1250000000e+001,3.5062357963e+000,4.7441823160e+000,3.7779339572e+000,4.9763208565e+000,3.8862531855e+000,4.9816327586e+000,3.3473399372e+000,5.2284122299e+000,3.4728113528e+000,5.4452234061e+000,3.5883212597e+000,5.3733357694e+000,3.6498997838e+000,4.8916781472e+000,
1.1343750000e+001,3.4608356927e+000,4.7433185702e+000,3.7246824164e+000,4.9733859162e+000,3.8868439117e+000,4.9579804407e+000,3.3549336421e+000,5.2121778267e+000,3.5048893484e+000,5.3508582038e+000,3.5460582179e+000,5.1212516344e+000,3.2124356187e+000,4.6662897133e+000,
1.1437500000e+001,3.5861125039e+000,4.8510016777e+000,3.5801224485e+000,5.0065228772e+000,3.9166376360e+000,5.0399514785e+000,3.3019067389e+000,5.2477542911e+000,3.5256973175e+000,5.4002733189e+000,3.5177648806e+000,5.1013610174e+000,3.1308864584e+000,4.6302781816e+000,
1.1531250000e+001,3.7863672382e+000,4.8401943148e+000,3.6043694915e+000,4.9933253156e+000,3.9095735410e+000,4.9973813470e+000,3.3883772587e+000,5.2108338378e+000,3.5048234664e+000,5.3653078054e+000,3.4442306742e+000,5.1189826510e+000,3.2432594763e+000,4.5857499937e+000,
1.1625000000e+001,3.8462421170e+000,4.7324949522e+000,3.6299755198e+000,4.9068634763e+000,3.8109930715e+000,4.9145535182e+000,3.4087552418e+000,5.1220625562e+000,3.2926798610e+000,5.2839326828e+000,3.4751747427e+000,5.0458254423e+000,3.2026701863e+000,4.5320521427e+000,
1.1718750000e+001,3.8479739291e+000,4.6364522834e+000,3.6141362904e+000,4.8004676305e+000,3.7074012791e+000,4.7182718259e+000,3.3801162220e+000,4.9289883421e+000,3.1743415141e+000,5.0263245331e+000,3.5231548423e+000,4.9266995999e+000,3.1606069137e+000,4.4950271237e+000,
1.1812500000e+001,3.8567910256e+000,4.6175755761e+000,3.6131987205e+000,4.7166785768e+000,3.6978719313e+000,4.6397254212e+000,3.4198590998e+000,4.8147715574e+000,3.1217246971e+000,4.8734061018e+000,3.4472464535e+000,4.8368178652e+000,3.0893974993e+000,4.4770420535e+000,
1.1906250000e+001,3.8341660673e+000,4.6048214858e+000,3.6039143713e+000,4.6461433030e+000,3.6399006720e+000,4.6273029028e+000,3.4346788915e+000,4.7184496956e+000,3.2121233442e+000,4.8490776756e+000,3.5221622480e+000,4.8179746001e+000,3.1453504827e+000,4.4368530737e+000,
1.2000000000e+001,3.8092891111e+000,4.5287356296e+000,3.4496863646e+000,4.5555027101e+000,3.5198354514e+000,4.5837533911e+000,3.2437980900e+000,4.6385167605e+000,3.1682439920e+000,4.7876189456e+000,3.5817498054e+000,4.7353842218e+000,2.9231927410e+000,4.3138675639e+000,
1.2093750000e+001,3.7580592018e+000,4.4259812088e+000,3.4227724187e+000,4.5121337804e+000,3.4229714639e+000,4.3309436630e+000,3.2195789352e+000,4.4378225725e+000,3.0713436083e+000,4.6165321307e+000,3.5325180601e+000,4.5834489278e+000,2.9263929063e+000,4.3039344675e+000,
1.2187500000e+001,3.6984307177e+000,4.2831980883e+000,3.4843472531e+000,4.3859366056e+000,3.4298996843e+000,4.3027068893e+000,3.2118907266e+000,4.4006979100e+000,3.0426521659e+000,4.5584107336e+000,3.5169829949e+000,4.5782411787e+000,2.9559632956e+000,4.4077406925e+000,
1.2281250000e+001,3.7713690845e+000,4.1963220901e+000,3.6331025291e+000,4.1986726238e+000,3.4509927099e+000,4.1688509195e+000,3.1434030998e+000,4.1826808673e+000,3.0281534187e+000,4.3619322455e+000,3.5603584625e+000,4.4199301310e+000,3.0188271652e+000,4.2652939167e+000,
1.2375000000e+001,3.8677071980e+000,4.1947915850e+000,3.7303223365e+000,4.2244134807e+000,3.7207576165e+000,4.1116702573e+000,3.5444966565e+000,4.0626613975e+000,3.2759494731e+000,4.3263247378e+000,3.6103984485e+000,4.4396308365e+000,3.1395766500e+000,4.2275311390e+000,
1.2468750000e+001,3.6345363540e+000,4.0032845668e+000,3.6995477564e+000,4.0563932195e+000,3.6471254034e+000,3.9108808483e+000,3.5111435622e+000,3.9067544097e+000,3.3570718398e+000,4.2998681412e+000,3.6349232844e+000,4.5145570846e+000,3.1926769334e+000,4.2798826582e+000,
1.2562500000e+001,3.7446380831e+000,4.1850573436e+000,3.8574458299e+000,4.0713278949e+000,3.6736515595e+000,3.8900726479e+000,3.4940535622e+000,3.8420370759e+000,3.3508881264e+000,4.1902380074e+000,3.6127867880e+000,4.5084641715e+000,3.2020854706e+000,4.3139354981e+000,
1.2656250000e+001,3.8935275882e+000,4.3735568597e+000,3.9749337628e+000,4.3009267748e+000,3.7969784049e+000,3.9718665093e+000,3.5369485056e+000,3.9940974429e+000,3.3598379091e+000,4.1900956564e+000,3.5197165236e+000,4.5172578930e+000,3.2344883728e+000,4.3037008003e+000,
1.2750000000e+001,3.8386473728e+000,4.4137329088e+000,3.9585988453e+000,4.3430233140e+000,3.8331928247e+000,4.0119710131e+000,3.5312803795e+000,4.0374810617e+000,3.4211590747e+000,4.2170061252e+000,3.5570838385e+000,4.5602019774e+000,3.3044004363e+000,4.3484818742e+000,
1.2843750000e+001,3.8269586079e+000,4.4440499643e+000,3.9608774029e+000,4.4212131126e+000,3.8440647112e+000,4.0107478696e+000,3.5160704641e+000,4.0830766667e+000,3.4191456751e+000,4.2178351580e+000,3.4910110892e+000,4.5784635885e+000,3.3370934589e+000,4.3455049160e+000,
1.2937500000e+001,3.8991523141e+000,4.4951637764e+000,3.9691636100e+000,4.4591837434e+000,3.8683164983e+000,4.0441079135e+000,3.5714722124e+000,4.1654800176e+000,3.5204119103e+000,4.3370356322e+000,3.4718869777e+000,4.6284023096e+000,3.3213342297e+000,4.3399442111e+000,
1.3031250000e+001,3.9750840202e+000,4.5510018151e+000,3.9829275211e+000,4.5384122852e+000,3.9329000539e+000,4.1140499310e+000,3.6252970687e+000,4.1881933773e+000,3.6896750044e+000,4.3886587714e+000,3.4411615728e+000,4.6754501382e+000,3.4635440340e+000,4.2439835402e+000,
1.3125000000e+001,4.0130807535e+000,4.5984829176e+000,4.0616483357e+000,4.6110155454e+000,3.9842417718e+000,4.2327574143e+000,3.6857303294e+000,4.1625585402e+000,3.6668506823e+000,4.3135105717e+000,3.3758239541e+000,4.6871044227e+000,3.5067090419e+000,4.2108383303e+000,
1.3218750000e+001,4.0167912142e+000,4.5226147343e+000,3.9732071513e+000,4.5426409854e+000,3.9118225477e+000,4.1882306526e+000,3.6959689218e+000,4.1953163263e+000,3.6518366804e+000,4.3031967463e+000,3.3875576461e+000,4.6437409798e+000,3.5542964444e+000,4.0519513795e+000,
1.3312500000e+001,3.9792194351e+000,4.5321501762e+000,3.8839954632e+000,4.5502485269e+000,3.8980686565e+000,4.2248529505e+000,3.7251598946e+000,4.2407431512e+000,3.6321982589e+000,4.3056957052e+000,3.3924108118e+000,4.5782995688e+000,3.6330276704e+000,4.0971118517e+000,
1.3406250000e+001,3.9569750988e+000,4.7463882798e+000,4.1096100819e+000,4.7592106199e+000,3.9767201424e+000,4.6136957657e+000,3.6031790316e+000,4.6456640498e+000,3.5310701719e+000,4.5270706391e+000,3.3087297486e+000,4.6510567652e+000,3.6267169155e+000,4.1775066108e+000,
1.3500000000e+001,3.8628835825e+000,4.7615280036e+000,4.0630987262e+000,4.7482786854e+000,4.0074133553e+000,4.6276376195e+000,3.6019250200e+000,4.6426391463e+000,3.5989284642e+000,4.4840195600e+000,3.2332402300e+000,4.5583159674e+000,3.5887746899e+000,4.0946457148e+000,
1.3593750000e+001,3.7549187283e+000,4.6394774675e+000,4.0025313692e+000,4.6468631256e+000,3.9636970939e+000,4.5498206637e+000,3.5997728643e+000,4.5824037792e+000,3.7322735676e+000,4.4376340374e+000,3.3072304910e+000,4.5422770038e+000,3.5895445953e+000,4.1157574988e+000,
1.3687500000e+001,3.6593308191e+000,4.5121960763e+000,3.8919608961e+000,4.5145426513e+000,3.8809167284e+000,4.4962817774e+000,3.5436090754e+000,4.5310384010e+000,3.7635010397e+000,4.3980957440e+000,3.3619777977e+000,4.5459204447e+000,3.5981854682e+000,4.1216452023e+000,
1.3781250000e+001,3.6722208581e+000,4.4874366476e+000,3.9063138648e+000,4.4883538565e+000,3.8682148538e+000,4.4895017270e+000,3.5328993394e+000,4.5567796433e+000,3.7597179633e+000,4.4258883651e+000,3.2443551945e+000,4.5302457492e+000,3.4892708744e+000,4.0791319402e+000,
1.3875000000e+001,3.7272354786e+000,4.5015370769e+000,4.0033987901e+000,4.5183969352e+000,3.9081954828e+000,4.5203898184e+000,3.5581481601e+000,4.5500143734e+000,3.7252284895e+000,4.4029473481e+000,3.2662918178e+000,4.4947284559e+000,3.5743797281e+000,4.0788185404e+000,
1.3968750000e+001,3.6717829751e+000,4.6086988515e+000,4.0843057322e+000,4.6655490147e+000,3.9779709276e+000,4.6470755314e+000,3.6511768465e+000,4.6599595350e+000,3.6268895486e+000,4.4643027183e+000,3.3095738057e+000,4.4632059390e+000,3.5791144891e+000,4.0016395757e+000,
1.4062500000e+001,3.6494123769e+000,4.6518142884e+000,4.1637772564e+000,4.6646015894e+000,4.0137231710e+000,4.7256157862e+000,3.7525654752e+000,4.7207577598e+000,3.4488029394e+000,4.4667096040e+000,3.3799347522e+000,4.3534363043e+000,3.4680755267e+000,4.0029095639e+000,
1.4156250000e+001,3.7562416409e+000,4.7891851743e+000,4.2681753008e+000,4.7219707005e+000,4.1788143282e+000,4.7973717386e+000,3.8425092550e+000,4.7535217982e+000,3.6567580601e+000,4.4963367634e+000,3.3717921517e+000,4.2986271812e+000,3.4717465356e+000,4.0739544171e+000,
1.4250000000e+001,3.8720644923e+000,4.8908496181e+000,4.3368564707e+000,4.8070204447e+000,4.2872961452e+000,4.9025514563e+000,3.9544974444e+000,4.8322534072e+000,3.7000978771e+000,4.5340341018e+000,3.2988817613e+000,4.3776542113e+000,3.4761701339e+000,4.0185730124e+000,
1.4343750000e+001,3.8248469046e+000,4.7624793629e+000,4.2306452595e+000,4.7102504681e+000,4.1916878313e+000,4.7741063585e+000,3.8855606242e+000,4.6612239927e+000,3.6232750988e+000,4.3297035947e+000,3.5570326152e+000,4.2217314318e+000,3.4981690727e+000,3.8309043990e+000,
1.4437500000e+001,3.8032673947e+000,4.6592776736e+000,4.1207831968e+000,4.6464866962e+000,4.0759382901e+000,4.6460073546e+000,3.8280649963e+000,4.5552756867e+000,3.5564221107e+000,4.2225691370e+000,3.8058075440e+000,4.2123024568e+000,3.6813317465e+000,3.9173707303e+000,
1.4531250000e+001,3.7931182741e+000,4.7140338727e+000,4.1412081317e+000,4.7134731375e+000,4.0595989022e+000,4.6652583369e+000,3.8612708509e+000,4.5858157514e+000,3.4859369457e+000,4.2242182129e+000,3.8847300908e+000,4.4056824727e+000,3.7875918671e+000,4.0033540083e+000,
1.4625000000e+001,3.7369452734e+000,4.6963537145e+000,4.1442966238e+000,4.7232888174e+000,4.0359975399e+000,4.6653109710e+000,3.8308224534e+000,4.5730166118e+000,3.3418259218e+000,4.2404332618e+000,4.0098077856e+000,4.3704236742e+000,3.9411010963e+000,4.0079383746e+000,
1.4718750000e+001,3.7275827669e+000,4.7039879096e+000,4.1426930085e+000,4.7584623554e+000,4.0796542563e+000,4.7036474488e+000,3.8093337005e+000,4.5769375107e+000,3.3718505939e+000,4.2467012293e+000,4.0136457589e+000,4.5209050003e+000,4.0743983667e+000,4.1977351761e+000,
1.4812500000e+001,3.6953779301e+000,4.7392432109e+000,4.1593771314e+000,4.7576920322e+000,4.0905248895e+000,4.7079600060e+000,3.8482283408e+000,4.5691982279e+000,3.4451935792e+000,4.2915341160e+000,4.0365951860e+000,4.5598200046e+000,4.1055423660e+000,4.2396550816e+000,
1.4906250000e+001,3.7696355160e+000,4.7013579524e+000,4.0667921520e+000,4.7053423101e+000,4.0683444628e+000,4.6853361573e+000,3.8102372759e+000,4.5435153509e+000,3.4202529708e+000,4.2890628119e+000,4.0039926324e+000,4.5894378181e+000,4.0707543774e+000,4.2430539218e+000,
1.5000000000e+001,3.7239373744e+000,4.5107836745e+000,3.9553857476e+000,4.5044628276e+000,4.0062132514e+000,4.4846372675e+000,3.6698205414e+000,4.2983980269e+000,3.3821951247e+000,4.1088947597e+000,3.9452083921e+000,4.5790432676e+000,4.0751826406e+000,4.2878935152e+000,
1.5093750000e+001,3.7227224976e+000,4.4245287155e+000,3.8450740735e+000,4.3994023187e+000,3.9387918040e+000,4.4405416000e+000,3.5932125672e+000,4.1951574053e+000,3.3394786423e+000,4.0748333129e+000,3.9365994392e+000,4.6118614399e+000,4.1276011561e+000,4.2826129336e+000,
1.5187500000e+001,3.5066127907e+000,4.2317362026e+000,3.6083854831e+000,4.2999817865e+000,3.7740269245e+000,4.2878254639e+000,3.4082706524e+000,4.0244002661e+000,3.0052187022e+000,4.0861725967e+000,3.9558418531e+000,4.5765135883e+000,4.0810207128e+000,4.2348991511e+000,
1.5281250000e+001,3.3541866978e+000,4.0807782476e+000,3.5618072081e+000,4.2137699065e+000,3.6651782002e+000,4.1007679412e+000,3.2876408523e+000,3.8950675535e+000,2.9807717475e+000,4.0386602567e+000,3.9659602977e+000,4.5187963679e+000,4.0738698194e+000,4.2225380842e+000,
1.5375000000e+001,3.3218418237e+000,4.0962122415e+000,3.6275077220e+000,4.1839932507e+000,3.6550409001e+000,4.0419031031e+000,3.2815984426e+000,3.8343462515e+000,2.9841111735e+000,3.9983887144e+000,3.6949450848e+000,4.4872776705e+000,3.9606756170e+000,4.1997894318e+000,
1.5468750000e+001,3.3503631011e+000,4.1320559502e+000,3.6053394647e+000,4.0711233093e+000,3.7102297000e+000,4.1334453005e+000,3.3726749294e+000,3.7819405077e+000,2.9728759903e+000,4.0039356890e+000,3.5621788664e+000,4.4733450520e+000,3.8707492542e+000,4.1548982397e+000,
1.5562500000e+001,3.3536804525e+000,4.0445357915e+000,3.5649282078e+000,3.9931317853e+000,3.8155809600e+000,4.1097232314e+000,3.4176970310e+000,3.7639284261e+000,3.0755091594e+000,3.9705798920e+000,3.4753156322e+000,4.2726739308e+000,3.6835080075e+000,4.0120388621e+000,
1.5656250000e+001,3.3765092615e+000,4.0891661642e+000,3.5027850260e+000,3.8818137586e+000,3.8732810214e+000,4.2269074426e+000,3.4901840435e+000,3.8165079968e+000,3.0727351656e+000,4.0052952863e+000,3.2928466318e+000,4.1467265137e+000,3.4098732934e+000,3.9044714996e+000,
1.5750000000e+001,3.3610621554e+000,4.0505698213e+000,3.4259591243e+000,3.8291717927e+000,3.8606580004e+000,4.1930681876e+000,3.3753582346e+000,3.8421649518e+000,2.9519841730e+000,3.9860213277e+000,3.2865656004e+000,3.9996452634e+000,3.3447442010e+000,3.6603641450e+000,
1.5843750000e+001,3.3082741051e+000,3.9788698458e+000,3.4430626198e+000,3.7771049623e+000,3.8630958234e+000,4.1460490791e+000,3.3940398629e+000,3.7487250969e+000,2.8740679694e+000,3.9997930658e+000,3.2768890466e+000,3.9116238307e+000,3.3010632490e+000,3.5272476152e+000,
1.5937500000e+001,3.4045694709e+000,4.0881369656e+000,3.5114093814e+000,3.8473493194e+000,4.0151322017e+000,4.1272214514e+000,3.5032123821e+000,3.7913314323e+000,3.1319434622e+000,4.0282431483e+000,3.3182489871e+000,3.8356406514e+000,3.4091426793e+000,3.4786079629e+000,
1.6031250000e+001,3.7066008608e+000,4.2731658175e+000,3.6716870533e+000,4.1000043155e+000,4.1702900235e+000,4.2438236030e+000,3.6683545360e+000,3.9737704952e+000,3.3903473731e+000,4.0704959748e+000,3.3984723419e+000,3.7954978610e+000,3.4199466970e+000,3.3107995001e+000,
1.6125000000e+001,3.7831107403e+000,4.3025442629e+000,3.6455153006e+000,4.1736279576e+000,4.0980228307e+000,4.1888802168e+000,3.6503349657e+000,4.1259765899e+000,3.3520742646e+000,4.1318346897e+000,3.4197670991e+000,3.7928489885e+000,3.3720360095e+000,3.4410311149e+000,
1.6218750000e+001,3.7879568670e+000,4.3254379535e+000,3.6334747152e+000,4.1975415274e+000,4.1185168690e+000,4.2264098345e+000,3.6746643706e+000,4.2437129200e+000,3.3818515547e+000,4.0745907286e+000,3.3580212314e+000,3.8031484692e+000,3.3822524239e+000,3.4257367807e+000,
1.6312500000e+001,3.7695676593e+000,4.2858371562e+000,3.4974053925e+000,4.1477752544e+000,4.0839093902e+000,4.2386937759e+000,3.6745075078e+000,4.3244103508e+000,3.3815524913e+000,4.0724547541e+000,3.4114497825e+000,3.8244560825e+000,3.3369258625e+000,3.4557976840e+000,
1.6406250000e+001,3.7355395628e+000,4.1585824459e+000,3.4372014266e+000,4.0375666854e+000,4.0789377322e+000,4.1252874977e+000,3.7855348471e+000,4.2656640710e+000,3.4351914436e+000,4.0735690360e+000,3.4311610418e+000,3.8925484733e+000,3.2831722719e+000,3.4154379916e+000,
1.6500000000e+001,3.7379937841e+000,4.1488309068e+000,3.5030307278e+000,4.0540739224e+000,4.1070251697e+000,4.0618319428e+000,3.7881247530e+000,4.2344700859e+000,3.4511824335e+000,4.0343801394e+000,3.3316321973e+000,3.9101943252e+000,3.2829571366e+000,3.3956588520e+000,
1.6593750000e+001,3.6565584863e+000,4.0255477345e+000,3.4516565877e+000,4.0154346070e+000,3.9627117392e+000,3.8595713187e+000,3.6686948022e+000,4.1429731050e+000,3.3187590121e+000,3.9997538050e+000,3.3621926794e+000,3.9408773686e+000,3.2767017343e+000,3.4337369347e+000,
1.6687500000e+001,3.9019255976e+000,4.0229821579e+000,3.6142079752e+000,4.0842494920e+000,4.0051604914e+000,3.7560204687e+000,3.7657529611e+000,4.1463392961e+000,3.3346877617e+000,3.9449536056e+000,3.3370033014e+000,3.9620682412e+000,3.2634288725e+000,3.4634520329e+000,
1.6781250000e+001,3.8819283940e+000,3.9733056560e+000,3.6005126655e+000,4.0645346505e+000,3.9522177106e+000,3.7368945683e+000,3.7329569838e+000,4.1148886849e+000,3.4552881674e+000,3.9386906358e+000,3.4167866247e+000,3.9828043712e+000,3.2769951761e+000,3.4941790987e+000,
1.6875000000e+001,3.8569305058e+000,3.9273168900e+000,3.6052342826e+000,4.0500856959e+000,3.9106394826e+000,3.7565094145e+000,3.7316713002e+000,4.1170598318e+000,3.5466852417e+000,3.9398492191e+000,3.4856118899e+000,4.0375489517e+000,3.1637581374e+000,3.5186706907e+000,
1.6968750000e+001,3.6693140246e+000,3.7571224761e+000,3.5140225366e+000,3.8631577961e+000,3.7005843021e+000,3.5600110682e+000,3.5881539717e+000,4.0399644058e+000,3.3768518649e+000,3.8187918679e+000,3.4306760974e+000,4.0463558594e+000,3.1384810486e+000,3.5292146526e+000,
1.7062500000e+001,3.4428850791e+000,3.6873467929e+000,3.4001520140e+000,3.8426259232e+000,3.5076038795e+000,3.4954056228e+000,3.4409714322e+000,3.9102361250e+000,3.2972787777e+000,3.7820433905e+000,3.3000281136e+000,4.0887174524e+000,3.1376943592e+000,3.5670193179e+000,
1.7156250000e+001,3.5000184982e+000,3.7319448914e+000,3.4701959669e+000,3.8704625481e+000,3.5253188707e+000,3.5549740044e+000,3.4697343328e+000,3.8942293880e+000,3.3555473954e+000,3.8106232556e+000,3.2498486982e+000,4.1536949091e+000,3.0540598010e+000,3.6691243686e+000,
1.7250000000e+001,3.5618958000e+000,3.9018693545e+000,3.5052405158e+000,3.9388566728e+000,3.5498787147e+000,3.7593619018e+000,3.4493131000e+000,3.8750396911e+000,3.3119166240e+000,3.8279948396e+000,3.3607974402e+000,4.2300500142e+000,3.0593777416e+000,3.6801602917e+000,
1.7343750000e+001,3.5711058998e+000,3.9253207850e+000,3.5245648285e+000,3.9428249579e+000,3.5402057192e+000,3.8133883237e+000,3.3786850435e+000,3.8575653756e+000,3.3346415545e+000,3.8628612433e+000,3.3526045777e+000,4.2659645255e+000,3.0709061891e+000,3.6522871738e+000,
1.7437500000e+001,3.5652597769e+000,3.9694650915e+000,3.4288560100e+000,4.0170913031e+000,3.5344993106e+000,3.8663383176e+000,3.2374522386e+000,3.9350332615e+000,8.5470545022e+000,3.8735370902e+000,3.3356706568e+000,4.2304687505e+000,3.0686163367e+000,3.6679069348e+000,
1.7531250000e+001,3.6618788325e+000,4.0649402072e+000,3.5453563523e+000,4.1597371318e+000,3.4921645635e+000,3.9107133434e+000,3.3393068842e+000,4.0758978638e+000,8.9397649671e+000,3.9325252334e+000,3.4859657538e+000,4.2975303827e+000,3.0699643582e+000,3.6900126375e+000,
1.7625000000e+001,3.7216727810e+000,4.1388702192e+000,3.5887689263e+000,4.2089883439e+000,3.5302956010e+000,3.9365081401e+000,3.3526600638e+000,4.1621701621e+000,9.0271787386e+000,4.0571740439e+000,3.4959059564e+000,4.3404673655e+000,3.0660710659e+000,3.6913416491e+000,
1.7718750000e+001,3.5461366542e+000,4.1742563189e+000,3.5386709163e+000,4.2104429535e+000,3.5586277783e+000,3.9847174616e+000,3.2551393540e+000,4.1606733015e+000,9.0590860300e+000,4.0559889038e+000,3.5214483720e+000,4.2909127597e+000,3.0496675685e+000,3.6695894374e+000,
1.7812500000e+001,3.6225977558e+000,4.2065147715e+000,3.5280355220e+000,4.2181351327e+000,3.6021957402e+000,3.9785052860e+000,3.3994719838e+000,4.1905813241e+000,9.0606494051e+000,4.0009050568e+000,3.4166241534e+000,4.2502359397e+000,3.0287963131e+000,3.6283647988e+000,
1.7906250000e+001,3.5836459690e+000,4.2564462563e+000,3.5570783650e+000,4.2472301896e+000,3.5409733317e+000,4.0163556246e+000,3.4094653011e+000,4.2649597956e+000,9.0605525540e+000,4.0647284268e+000,3.4732673643e+000,4.2362033634e+000,3.1035566013e+000,3.7408025278e+000,
1.8000000000e+001,3.5189125754e+000,4.1782826303e+000,3.5029161180e+000,4.1805563424e+000,3.5537602043e+000,4.0326796383e+000,3.4065994769e+000,4.2050578167e+000,9.0609081171e+000,4.2055734731e+000,3.4816916770e+000,4.2245684553e+000,3.1531924231e+000,3.7183902740e+000,
1.8093750000e+001,3.6607556093e+000,4.2334287845e+000,3.5597641792e+000,4.2621017007e+000,3.6073281559e+000,4.0797485002e+000,3.4398155137e+000,4.1952124423e+000,9.0608513319e+000,4.2350083432e+000,3.4869805502e+000,4.1976536034e+000,3.1907493893e+000,3.7172550783e+000,
1.8187500000e+001,3.7238214110e+000,4.2011632408e+000,3.5466724069e+000,4.2373458366e+000,3.6838280269e+000,4.0230735744e+000,3.3958539006e+000,4.1305243237e+000,9.0617145639e+000,4.1731193135e+000,3.4378265870e+000,4.0867304794e+000,3.2538507395e+000,3.6342806088e+000,
1.8281250000e+001,3.7230477300e+000,4.1046272120e+000,3.5623476313e+000,4.2236995584e+000,3.6604406398e+000,3.9152863166e+000,3.4100173524e+000,4.0883393266e+000,9.0620630164e+000,4.1729407847e+000,3.3899572685e+000,4.0437809983e+000,3.2522958782e+000,3.6956915990e+000,
1.8375000000e+001,3.7226017527e+000,4.1166354418e+000,3.5346281319e+000,4.2440723864e+000,3.6897099667e+000,3.9758107399e+000,3.4973258185e+000,4.0956679629e+000,9.0600661425e+000,4.2192219217e+000,3.3697076819e+000,4.0351914802e+000,3.3732199565e+000,3.7019067556e+000,
1.8468750000e+001,3.6567902732e+000,4.0905896081e+000,3.5346757274e+000,4.1615517041e+000,3.6546527084e+000,4.0473332244e+000,3.5160780700e+000,4.1377455049e+000,7.5735751411e+000,4.2970525914e+000,3.2915201945e+000,4.0752726773e+000,3.4239946711e+000,3.7253752526e+000,
1.8562500000e+001,3.6271231561e+000,4.0852425065e+000,3.4460794475e+000,4.1228084862e+000,3.6343602920e+000,4.0222256895e+000,3.4901108889e+000,4.0905583426e+000,6.7159967741e+000,4.2638645040e+000,3.2151288306e+000,3.9648451507e+000,3.4433062152e+000,3.8035716329e+000,
1.8656250000e+001,3.5720859445e+000,4.1430895044e+000,3.3922345238e+000,4.1805576668e+000,3.6262428726e+000,4.1067351345e+000,3.4780282238e+000,4.2124697323e+000,5.1897574483e+000,4.2185268672e+000,3.1222808375e+000,3.9605001324e+000,3.4914510775e+000,3.9203107155e+000,
1.8750000000e+001,3.5405031096e+000,4.1864828725e+000,3.4147705466e+000,4.2757146449e+000,3.5753055637e+000,4.1764387717e+000,3.5040151447e+000,4.3169294807e+000,4.7375900695e+000,4.3278699399e+000,3.1259216192e+000,4.0707230094e+000,3.4941970499e+000,4.0242119053e+000,
1.8843750000e+001,3.6410543526e+000,4.2959432102e+000,3.5761078050e+000,4.4048679634e+000,3.7445591312e+000,4.1922496163e+000,3.5109939813e+000,4.3310238614e+000,4.6704376316e+000,4.3285306897e+000,3.1326613170e+000,4.0532191747e+000,3.5878959116e+000,4.0567695470e+000,
1.8937500000e+001,3.7632618262e+000,4.4793890324e+000,3.6178940213e+000,4.5153273164e+000,3.9608031269e+000,4.4596107798e+000,3.5922812667e+000,4.5542594962e+000,4.6854322813e+000,4.5282375966e+000,3.2473696154e+000,4.2279896844e+000,3.5432522132e+000,4.0760728818e+000,
1.9031250000e+001,4.0260911787e+000,4.6524232328e+000,3.6373712964e+000,4.6456333038e+000,4.0914756333e+000,4.5743686393e+000,3.7354821473e+000,4.6992104698e+000,4.6604513660e+000,4.5259570847e+000,3.4335578537e+000,4.2518685816e+000,3.5009316789e+000,4.0472975441e+000,
1.9125000000e+001,3.9979370047e+000,4.6869523041e+000,3.6515597148e+000,4.6488593150e+000,4.1284402944e+000,4.6048548143e+000,3.7979534014e+000,4.7115539695e+000,4.6640015414e+000,4.5295087517e+000,3.5686053351e+000,4.2443858388e+000,3.4336832132e+000,3.9802075003e+000,
1.9218750000e+001,3.9862971031e+000,4.6511928724e+000,3.6148853178e+000,4.6318152187e+000,4.0644960445e+000,4.5910137491e+000,3.8182188108e+000,4.7098496602e+000,4.6206999225e+000,4.5536531267e+000,3.5212425262e+000,4.2630755970e+000,3.4645392069e+000,3.9506171470e+000,
1.9312500000e+001,4.0169263434e+000,4.6400482492e+000,3.6453536936e+000,4.6134147773e+000,4.0971869455e+000,4.5873854804e+000,3.8489202219e+000,4.7103890125e+000,4.6464955223e+000,4.5417523301e+000,3.4773888537e+000,4.2874839700e+000,3.5795210938e+000,3.9448771669e+000,
1.9406250000e+001,4.0746147974e+000,4.6743269627e+000,3.6933085743e+000,4.6556232926e+000,4.1540453707e+000,4.5474240296e+000,3.8095192667e+000,4.7246129434e+000,4.9086745831e+000,4.4917592075e+000,3.5021399847e+000,4.2776901253e+000,3.5712910930e+000,3.9536772692e+000,
1.9500000000e+001,4.1041400000e+000,4.6369484811e+000,3.7073990952e+000,4.6550713340e+000,4.1928801265e+000,4.4747644128e+000,3.7351591853e+000,4.6179474702e+000,4.4843312151e+000,4.4070984115e+000,3.4369444856e+000,4.3156458308e+000,3.6712085014e+000,3.9356123062e+000,
1.9593750000e+001,4.0824639254e+000,4.6268305258e+000,3.7348697913e+000,4.6443778018e+000,4.3288529204e+000,4.4778140502e+000,3.8174051811e+000,4.6502554426e+000,4.2886747194e+000,4.4445836766e+000,3.5205095344e+000,4.3474199264e+000,3.5848374449e+000,3.8763841595e+000,
1.9687500000e+001,4.0819984434e+000,4.5822762389e+000,3.7681772851e+000,4.6178536282e+000,4.3217508634e+000,4.4099460123e+000,3.7786457868e+000,4.5588184151e+000,4.2603331868e+000,4.4013905358e+000,3.5456771128e+000,4.3416049264e+000,3.5374833842e+000,3.7805265821e+000,
1.9781250000e+001,4.0697163884e+000,4.4472276352e+000,3.6119125322e+000,4.5008713528e+000,4.3037293719e+000,4.3168032832e+000,3.7492468291e+000,4.4855633907e+000,4.2496355293e+000,4.3085923954e+000,3.5748346624e+000,4.3663939830e+000,3.5541481776e+000,3.7260734954e+000,
1.9875000000e+001,3.9976872300e+000,4.4356177110e+000,3.5828145934e+000,4.5162158414e+000,4.1782063193e+000,4.3128861463e+000,3.6581786479e+000,4.4565587772e+000,4.2171107666e+000,4.2494389749e+000,3.5467581859e+000,4.3273440658e+000,3.4597035548e+000,3.6888492548e+000,
1.9968750000e+001,3.9324811599e+000,4.2213936840e+000,3.5056186591e+000,4.3853920807e+000,4.0630599130e+000,3.9915279973e+000,3.5694590911e+000,4.2589257531e+000,4.2706566718e+000,4.0140813932e+000,3.3735280242e+000,4.2397223166e+000,3.4224930621e+000,3.6098665983e+000,
2.0062500000e+001,3.5927415592e+000,3.9322912592e+000,3.3459117856e+000,4.1309331806e+000,3.9130785932e+000,3.6703478773e+000,3.3875272588e+000,4.0960127248e+000,4.3468731796e+000,4.0188644584e+000,3.1761585808e+000,4.2671216850e+000,3.4105151914e+000,3.6646775447e+000,
2.0156250000e+001,3.5548943450e+000,3.8145485145e+000,3.2766116864e+000,4.0511690988e+000,3.9130440178e+000,3.5867410500e+000,3.3182194199e+000,4.0635555147e+000,4.4446446206e+000,3.9929487882e+000,3.1217120195e+000,4.2287329934e+000,3.3703640440e+000,3.5895534624e+000,
2.0250000000e+001,3.4041865693e+000,3.8989718650e+000,3.2313225267e+000,3.9990640237e+000,3.8123184670e+000,3.5690822817e+000,3.1751655430e+000,4.0248797554e+000,4.7582371672e+000,3.9341567372e+000,3.1193070969e+000,4.2612596170e+000,3.4418307274e+000,3.6215872902e+000,
2.0343750000e+001,3.6466346266e+000,4.3493708772e+000,3.4084580930e+000,4.3200500681e+000,4.0476089226e+000,4.1150652838e+000,3.2638659032e+000,4.3198907663e+000,4.6835890068e+000,4.1729352153e+000,3.1579094819e+000,4.5106796678e+000,3.2786346175e+000,3.8828115862e+000,
2.0437500000e+001,3.6537323317e+000,4.4114711147e+000,3.3258662542e+000,4.3562576934e+000,4.1547956067e+000,4.2239820957e+000,3.2177927322e+000,4.3107260027e+000,5.2893084481e+000,4.2370045754e+000,3.2676106528e+000,4.6130657450e+000,3.1234442444e+000,3.9287283934e+000,
2.0531250000e+001,3.7713266355e+000,4.4143147044e+000,3.2877986600e+000,4.3042765233e+000,4.1337831572e+000,4.2049218872e+000,3.1669699827e+000,4.2806514838e+000,5.3765094405e+000,4.2463814552e+000,3.3026984610e+000,4.5452411777e+000,2.9883306020e+000,3.8360052756e+000,
2.0625000000e+001,3.9001520453e+000,4.4522930455e+000,3.2505215342e+000,4.3325690113e+000,4.1020086097e+000,4.3389529637e+000,3.1972649348e+000,4.3439402576e+000,5.3984415121e+000,4.3078286245e+000,3.3007272564e+000,4.5732369334e+000,3.1599079512e+000,3.8906796909e+000,
2.0718750000e+001,3.9857565143e+000,4.4982860876e+000,3.3421806438e+000,4.3834256484e+000,4.1877141117e+000,4.3676841954e+000,3.2582277033e+000,4.3324119166e+000,5.4082523616e+000,4.3240689919e+000,3.3022347263e+000,4.5632057473e+000,3.0848607939e+000,3.8281566466e+000,
2.0812500000e+001,4.0972421869e+000,4.5530377458e+000,3.4180004268e+000,4.4424052012e+000,4.2377310213e+000,4.4763453354e+000,3.3627223330e+000,4.4413624438e+000,5.4081669301e+000,4.4709529197e+000,3.3582963037e+000,4.6277845289e+000,3.0774063884e+000,4.0055680472e+000,
2.0906250000e+001,4.2260315971e+000,4.5363021020e+000,3.4961765034e+000,4.4083447736e+000,4.2029527064e+000,4.5255562652e+000,3.3799165567e+000,4.3822431839e+000,5.4039551993e+000,4.4763442159e+000,3.3499234833e+000,4.6566264051e+000,3.1657543965e+000,4.0953000621e+000,
2.1000000000e+001,4.1811870213e+000,4.5879607364e+000,3.5319985737e+000,4.4433224597e+000,4.2356056917e+000,4.6099679906e+000,3.3581013997e+000,4.4600745499e+000,5.3831504091e+000,4.5143519959e+000,3.3714535119e+000,4.7389349950e+000,3.1797341421e+000,4.1728076889e+000,
2.1093750000e+001,4.2032586733e+000,4.5729177856e+000,3.5633269054e+000,4.4240573642e+000,4.2090046225e+000,4.5964267557e+000,3.3779525456e+000,4.4410155524e+000,5.3387072300e+000,4.4563487015e+000,3.3857469571e+000,4.7409405836e+000,3.2146575789e+000,4.2031609308e+000,
2.1187500000e+001,4.2636525741e+000,4.6728746291e+000,3.5862459970e+000,4.4458044777e+000,4.2342288873e+000,4.6013272831e+000,3.4442320346e+000,4.4772518758e+000,5.3182931604e+000,4.4535747832e+000,3.4032340313e+000,4.7446868079e+000,3.0858057167e+000,4.2015589479e+000,
2.1281250000e+001,4.2938260488e+000,4.6702774293e+000,3.5714968327e+000,4.4362484249e+000,4.2561496891e+000,4.5843355827e+000,3.4451202318e+000,4.4778558152e+000,5.0913452456e+000,4.4674528204e+000,3.4732289069e+000,4.7320128639e+000,3.0980763369e+000,4.1080329558e+000,
2.1375000000e+001,4.1176798273e+000,4.3098384887e+000,3.3502985525e+000,4.0482590585e+000,4.0520571172e+000,4.2529451057e+000,3.3066019261e+000,4.1955912278e+000,4.9329146907e+000,4.3481183096e+000,3.4233718469e+000,4.6365106929e+000,3.1215598682e+000,3.9308559666e+000,
2.1468750000e+001,4.1372882623e+000,4.1968919767e+000,3.3702521716e+000,4.0007360042e+000,3.7727698983e+000,4.1831556136e+000,3.3160259144e+000,4.2142252919e+000,3.8734782034e+000,4.2556451520e+000,3.3406860831e+000,4.5280630130e+000,3.2679504658e+000,3.9749796825e+000,
2.1562500000e+001,4.1064323445e+000,4.1856430812e+000,3.3387615050e+000,3.9682407195e+000,3.7663021475e+000,4.1791139427e+000,3.3700608222e+000,4.1294189240e+000,3.7535517846e+000,4.1835464951e+000,3.3170419388e+000,4.5218525338e+000,3.2905532329e+000,3.9460908343e+000,
2.1656250000e+001,4.1642220773e+000,4.1993151681e+000,3.2873071591e+000,3.9422991980e+000,3.7319620884e+000,4.1829815127e+000,3.5010234166e+000,4.2207815741e+000,3.8832194942e+000,4.2096671515e+000,3.2755310670e+000,4.5192095251e+000,3.3889365548e+000,3.9824787276e+000,
2.1750000000e+001,4.2891529945e+000,4.3463391576e+000,3.5934378303e+000,4.0867689965e+000,3.9555320432e+000,4.3006770748e+000,3.6380245845e+000,4.2749384881e+000,3.8744342686e+000,4.2396044238e+000,3.2828797456e+000,4.5027829571e+000,3.3593264830e+000,4.0239143417e+000,
2.1843750000e+001,4.1752160656e+000,4.3238917336e+000,3.4724361291e+000,3.9375327838e+000,3.8489252857e+000,4.1996590224e+000,3.5693794462e+000,4.2393133894e+000,3.8369392073e+000,4.0926044593e+000,3.1279260395e+000,4.3844338688e+000,3.4059280584e+000,3.8758166822e+000,
2.1937500000e+001,4.1304545311e+000,4.2705010089e+000,3.4624697768e+000,3.9407777491e+000,3.8166682910e+000,4.1400260272e+000,3.6233171426e+000,4.2595217138e+000,3.8959226862e+000,4.0992273594e+000,3.0743173844e+000,4.2268213045e+000,3.3810401529e+000,3.7771640803e+000,
2.2031250000e+001,4.1435375133e+000,4.2296933972e+000,3.3975443694e+000,3.8660715542e+000,3.8162731232e+000,4.0969462441e+000,3.6295156101e+000,4.1862247628e+000,3.8021826239e+000,4.0344572276e+000,3.2060162487e+000,4.1260337052e+000,3.4732796296e+000,3.8658438288e+000,
2.2125000000e+001,4.1030167140e+000,4.2022643437e+000,3.4499677048e+000,3.8602268331e+000,3.8580810510e+000,4.1092535830e+000,3.6435930560e+000,4.1226335405e+000,3.7483129478e+000,4.0024944842e+000,3.1762708517e+000,4.0717690483e+000,3.4784871085e+000,3.7538470127e+000,
2.2218750000e+001,4.0599083559e+000,4.0912936227e+000,3.5418536667e+000,3.9661373707e+000,3.7867230275e+000,4.1945289243e+000,3.5729577627e+000,4.1113794076e+000,5.4884370827e+000,3.9842713883e+000,3.1191541358e+000,4.0953082792e+000,3.6209750590e+000,3.8973237340e+000,
2.2312500000e+001,4.0745159447e+000,4.1060010488e+000,3.5778282300e+000,4.0115979211e+000,3.7857123338e+000,4.2234400757e+000,3.6294682512e+000,4.1614869794e+000,8.7363094599e+000,3.9972225821e+000,3.1331702621e+000,4.1249721681e+000,3.5851955097e+000,3.8973108047e+000,
2.2406250000e+001,4.0964100336e+000,4.1208863509e+000,3.6258867509e+000,4.0415337076e+000,3.7853614077e+000,4.1400123430e+000,3.6514015812e+000,4.1670507814e+000,8.8534133344e+000,3.9350836652e+000,3.1053807386e+000,3.9421132172e+000,3.5684602748e+000,3.8761256804e+000,
2.2500000000e+001,4.0005036693e+000,4.1046162152e+000,3.6102909249e+000,4.0136316545e+000,3.7853607705e+000,4.1583360881e+000,3.5749398021e+000,4.1296610883e+000,8.9155026541e+000,4.0465538795e+000,3.1489529582e+000,4.0843988792e+000,3.5070049106e+000,3.9573279352e+000,
2.2593750000e+001,3.8942564632e+000,4.0894076843e+000,3.6158664022e+000,4.0381950493e+000,3.7682324663e+000,4.1369010464e+000,3.4276126172e+000,4.0729181972e+000,8.9178483710e+000,4.0705704262e+000,3.1385052674e+000,4.1665487169e+000,3.6089753392e+000,4.0283888839e+000,
2.2687500000e+001,3.7449781373e+000,3.9028886940e+000,3.5145498537e+000,3.8801760239e+000,3.6745440413e+000,3.9869384151e+000,3.2865073172e+000,3.9164177737e+000,8.9174527413e+000,4.0728438278e+000,3.1682076328e+000,4.1433825074e+000,3.5814328824e+000,3.9652555426e+000,
2.2781250000e+001,3.6810817483e+000,3.7910035657e+000,3.3291883451e+000,3.7783915142e+000,3.5107490801e+000,3.9836798497e+000,3.1462084484e+000,3.9486736709e+000,8.9174772208e+000,4.1019199813e+000,3.1319914260e+000,4.1681160126e+000,3.5773718441e+000,3.8844520113e+000,
2.2875000000e+001,3.6329847158e+000,3.7141896559e+000,3.2738364688e+000,3.7276819239e+000,3.4937029688e+000,3.9555540368e+000,3.1427917781e+000,3.7335840377e+000,8.9183235781e+000,4.0651438425e+000,3.1646791883e+000,4.2066388624e+000,3.5115141748e+000,3.8539043066e+000,
2.2968750000e+001,3.6471538054e+000,3.7502591222e+000,3.2268222449e+000,3.7569325362e+000,3.4689522120e+000,3.9805267895e+000,3.0884861395e+000,3.7686887246e+000,8.9182728645e+000,4.0673167256e+000,3.2014002533e+000,4.1803351571e+000,3.5225908110e+000,3.7128434853e+000,
2.3062500000e+001,3.7066367272e+000,3.8343372622e+000,3.2810231507e+000,3.8272710134e+000,3.5238036332e+000,4.0316743891e+000,3.1003867456e+000,3.8858254518e+000,8.9192641694e+000,4.1161125389e+000,3.1320420039e+000,4.2289111891e+000,3.5489250267e+000,3.7582229568e+000,
2.3156250000e+001,3.9679726133e+000,4.0405498737e+000,3.5200449437e+000,3.9867875301e+000,3.8896064222e+000,4.1875532198e+000,3.5410403944e+000,4.0569554253e+000,8.9235788684e+000,4.3343034201e+000,3.3507389099e+000,4.3106311934e+000,3.5935964385e+000,3.8011196667e+000,
2.3250000000e+001,3.9609449477e+000,4.0914900449e+000,3.6598009401e+000,4.0110209817e+000,3.9262558715e+000,4.1428625856e+000,3.6612626431e+000,4.0872074729e+000,8.3742003903e+000,4.4092003686e+000,3.4970935547e+000,4.2931082567e+000,3.4456207491e+000,3.7747311310e+000,
2.3343750000e+001,3.8852158829e+000,4.1686901239e+000,3.6793135211e+000,3.9865593527e+000,3.9672365192e+000,4.2051106397e+000,3.6183702137e+000,4.1370355180e+000,6.9108784570e+000,4.4082791931e+000,3.5470738642e+000,4.2557138734e+000,3.4647568098e+000,3.7350001897e+000,
2.3437500000e+001,3.8873792752e+000,4.2474372352e+000,3.7749186028e+000,4.1307365949e+000,3.9948961665e+000,4.3480323974e+000,3.6828169770e+000,4.2992610569e+000,5.5221600641e+000,4.4948504762e+000,3.5846486630e+000,4.3467982558e+000,3.5532358701e+000,3.8110750252e+000,
2.3531250000e+001,3.8793798666e+000,4.2815609548e+000,3.7735850392e+000,4.1709133373e+000,3.9845695055e+000,4.3798473065e+000,3.6807662999e+000,4.3663485360e+000,4.5032373777e+000,4.4742547136e+000,3.6226249186e+000,4.2822245525e+000,3.6622588458e+000,3.7220928956e+000,
2.3625000000e+001,3.8535378819e+000,4.2304165651e+000,3.7289260911e+000,4.1347112445e+000,3.9354818515e+000,4.3665021430e+000,3.6227657743e+000,4.3544174241e+000,4.3182806013e+000,4.4158060664e+000,3.6351717174e+000,4.1410681780e+000,3.4546525386e+000,3.5780815533e+000,
2.3718750000e+001,3.8981229907e+000,4.7064907045e+000,3.7765269814e+000,4.2592018862e+000,4.1677468207e+000,4.4656646802e+000,3.7974448726e+000,4.3914707686e+000,4.4350332333e+000,4.3748082270e+000,3.5711808732e+000,4.1067322120e+000,3.4493425985e+000,3.5771420670e+000,
2.3812500000e+001,3.9670302307e+000,4.8389844607e+000,3.8199892331e+000,4.2646405669e+000,4.1958759105e+000,4.3206154432e+000,3.8451341761e+000,4.3004240359e+000,4.4445366993e+000,4.2608307061e+000,3.6237718720e+000,4.0469849198e+000,3.5375554362e+000,3.6088589321e+000,
2.3906250000e+001,3.9074896706e+000,4.8536795336e+000,3.8493071354e+000,4.3121653880e+000,4.2251939883e+000,4.3548980517e+000,3.8319623215e+000,4.3426676822e+000,4.3560217280e+000,4.2405353849e+000,3.5525988157e+000,4.0251626470e+000,3.5076655923e+000,3.6192210210e+000,
2.4000000000e+001,3.9500449007e+000,4.8708620925e+000,3.8723991922e+000,4.3017802833e+000,4.2345196691e+000,4.3876660401e+000,3.8115272950e+000,4.3459778083e+000,4.3295416641e+000,4.3253173492e+000,3.4847568927e+000,4.1706987200e+000,3.4165437929e+000,3.6932738447e+000,
2.4093750000e+001,3.9375637099e+000,4.8183056254e+000,3.8546115278e+000,4.2658663099e+000,4.1105474604e+000,4.3428313306e+000,3.7417145380e+000,4.2871552005e+000,4.2814000048e+000,4.3294848960e+000,3.4983159678e+000,4.1004711708e+000,3.4150936220e+000,3.6417470660e+000,
2.4187500000e+001,3.6519637550e+000,4.6859628750e+000,3.5584151611e+000,4.0449551915e+000,3.9151414704e+000,4.1822686060e+000,3.3484383669e+000,4.1430576194e+000,3.9110982041e+000,4.0896045729e+000,3.1068727450e+000,3.8962826221e+000,3.4265336983e+000,3.5589074479e+000,
2.4281250000e+001,3.6339602382e+000,4.6918071950e+000,3.4502493766e+000,4.0482944304e+000,3.9039915291e+000,4.2244109562e+000,3.3097906712e+000,4.1564024455e+000,3.9009530981e+000,4.0621365983e+000,2.9981002611e+000,4.0067112273e+000,3.4398001296e+000,3.6222012974e+000,
2.4375000000e+001,3.6717729621e+000,4.6147359814e+000,3.2978616956e+000,3.9284920150e+000,3.9133690425e+000,4.1358099092e+000,3.2617025460e+000,4.0073164020e+000,3.8837774242e+000,4.0491276563e+000,2.8484645662e+000,4.0445417008e+000,3.3645044842e+000,3.6171070148e+000,
2.4468750000e+001,3.7567395757e+000,4.5745240601e+000,3.3621208547e+000,3.8585072460e+000,3.9851653444e+000,4.0589487103e+000,3.3497541716e+000,3.8628263511e+000,3.9350026153e+000,3.9872939152e+000,2.8022529426e+000,3.9360017694e+000,3.2991941939e+000,3.5154605245e+000,
2.4562500000e+001,3.7806230489e+000,4.6084507478e+000,3.3976113881e+000,3.9205089277e+000,4.0096288205e+000,4.0933914947e+000,3.4433996147e+000,3.9271745776e+000,3.9420056244e+000,4.0591855026e+000,2.6828635168e+000,4.0954120651e+000,3.2723822300e+000,3.6432737406e+000,
2.4656250000e+001,3.8130856647e+000,4.6347112582e+000,3.4607870639e+000,3.9607222390e+000,4.0457942578e+000,4.0935863929e+000,3.4749445068e+000,3.9489413327e+000,3.9520234394e+000,4.0761973457e+000,2.6764275642e+000,4.1275908215e+000,3.2561181316e+000,3.6510850154e+000,
2.4750000000e+001,3.5920345491e+000,4.0008088849e+000,3.4764260696e+000,4.0183169964e+000,3.6887572402e+000,4.1072417457e+000,3.1986299647e+000,4.0970005101e+000,3.7444947465e+000,4.2449437449e+000,2.7256132819e+000,4.2045062153e+000,3.2619085485e+000,3.7443673763e+000,
2.4843750000e+001,3.5602027540e+000,3.9228437121e+000,3.4716029380e+000,4.0027500585e+000,3.6988169134e+000,4.1212835375e+000,3.1844708060e+000,4.1103893127e+000,3.7346491493e+000,4.3471936274e+000,2.8374634255e+000,4.3587413465e+000,3.3784760801e+000,3.8608434879e+000,
2.4937500000e+001,3.5165165925e+000,3.8636764965e+000,3.4618095287e+000,3.9811808978e+000,3.6481417393e+000,4.0430449900e+000,3.2050566765e+000,4.0375969681e+000,3.7583466255e+000,4.3008615560e+000,3.0054125596e+000,4.4193224232e+000,3.4118872100e+000,3.9060495336e+000,
2.5031250000e+001,3.5204120152e+000,3.9774226931e+000,3.4638710883e+000,4.0660359903e+000,3.7201733347e+000,4.0644768530e+000,3.1851170071e+000,4.0399034350e+000,3.9956058375e+000,4.1887059784e+000,2.9954853451e+000,4.3577880604e+000,3.3967209122e+000,3.8678553014e+000,
2.5125000000e+001,3.5214447408e+000,3.9849229522e+000,3.4947134786e+000,4.1009923957e+000,3.7034956412e+000,4.0745955660e+000,3.1870573636e+000,4.0752988949e+000,3.8792613021e+000,4.1346589031e+000,3.1099974962e+000,4.3156525734e+000,3.3748458368e+000,3.8345057893e+000,
2.5218750000e+001,3.4999338535e+000,3.9720669551e+000,3.5037590222e+000,4.1528480299e+000,3.7226103142e+000,4.0845501211e+000,3.1800004972e+000,4.1804153532e+000,3.8485142879e+000,4.1974152022e+000,3.1258915411e+000,4.3810312400e+000,3.3352819277e+000,3.8971420561e+000,
2.5312500000e+001,3.6161674426e+000,4.0918074581e+000,3.5909688104e+000,4.2390919503e+000,3.8172539546e+000,4.1009018302e+000,3.2980540318e+000,4.2280872151e+000,3.9088996632e+000,4.2295277902e+000,3.1150987038e+000,4.4617101587e+000,3.3735608464e+000,3.9673570977e+000,
2.5406250000e+001,3.5717950214e+000,4.1787965173e+000,3.5052476679e+000,4.3036722865e+000,3.7020530116e+000,4.1434715252e+000,3.2287734995e+000,4.2475001497e+000,4.2974150563e+000,4.1897801162e+000,3.2189547829e+000,4.4773512277e+000,3.3447297967e+000,4.0347560422e+000,
2.5500000000e+001,3.5902162447e+000,4.1678957359e+000,3.4290339017e+000,4.2420239510e+000,3.7550159820e+000,4.0344016264e+000,3.2462750362e+000,4.1637059594e+000,4.3702346146e+000,4.1446239331e+000,3.2060839809e+000,4.5360028941e+000,3.2254719862e+000,4.0224580657e+000,
2.5593750000e+001,3.6643731839e+000,4.3655968917e+000,3.5450274503e+000,4.4136341874e+000,3.9043916451e+000,4.2144910536e+000,3.3682527085e+000,4.3086615975e+000,4.4359544464e+000,4.2785953935e+000,3.1838167509e+000,4.5061347642e+000,3.1686107725e+000,4.0561493814e+000,
2.5687500000e+001,3.6128190161e+000,4.3606144452e+000,3.4672508012e+000,4.3917357400e+000,3.9143194825e+000,4.2055465122e+000,3.3079709637e+000,4.3043801193e+000,4.4115371351e+000,4.2732164926e+000,3.1801728214e+000,4.4836448106e+000,3.2499211505e+000,4.0421002489e+000,
2.5781250000e+001,3.6461748912e+000,4.2753010469e+000,3.3478825717e+000,4.2890846612e+000,3.8878323953e+000,4.0544033164e+000,3.4059208983e+000,4.1120805207e+000,4.4071171030e+000,4.0951210501e+000,3.1599770514e+000,4.5241825667e+000,3.1973975966e+000,4.1359334445e+000,
2.5875000000e+001,3.6539599667e+000,4.3314102557e+000,3.3985684996e+000,4.3180687849e+000,3.8643456130e+000,4.0895690623e+000,3.4718624513e+000,4.1788424144e+000,4.3749214552e+000,4.1212070694e+000,3.0114017272e+000,4.4966368385e+000,3.0333432755e+000,4.0515923947e+000,
2.5968750000e+001,3.7339850317e+000,4.3269248781e+000,3.3695489341e+000,4.2754429057e+000,3.8647689907e+000,4.1326310617e+000,3.4583568749e+000,4.2376186927e+000,4.3331093504e+000,4.1974685230e+000,3.0673645792e+000,4.5204373086e+000,3.0560076467e+000,4.0182712709e+000,
2.6062500000e+001,3.6865686165e+000,4.2640084528e+000,3.3248320147e+000,4.2360890967e+000,3.8146477528e+000,4.1019448427e+000,3.5445322916e+000,4.3272726169e+000,4.0880663912e+000,4.2894786313e+000,3.1559183779e+000,4.6221740655e+000,3.0539768047e+000,4.0773271675e+000,
2.6156250000e+001,3.6712860524e+000,4.2755856649e+000,3.3834711152e+000,4.2440605318e+000,3.8296419366e+000,4.0492915228e+000,3.5768819965e+000,4.2690390527e+000,4.0693806380e+000,4.2864961992e+000,3.2037753467e+000,4.7045176554e+000,3.2139500700e+000,4.1344247251e+000,
2.6250000000e+001,3.7152284126e+000,4.2937294238e+000,3.5667846265e+000,4.3073921947e+000,3.9463162489e+000,4.0033196023e+000,3.7858140348e+000,4.1689513679e+000,4.1306113695e+000,4.3350230375e+000,3.2141456009e+000,4.7746276520e+000,3.3455100466e+000,4.2343365196e+000,
2.6343750000e+001,3.5995714343e+000,4.2275303737e+000,3.5131675950e+000,4.3166931958e+000,3.8743387012e+000,3.9580241611e+000,3.7636324687e+000,4.1021775991e+000,3.8021522845e+000,4.3380289513e+000,3.2595354408e+000,4.7812767459e+000,3.3672385271e+000,4.2379380487e+000,
2.6437500000e+001,3.7816561098e+000,4.3678675273e+000,3.9005817940e+000,4.6675856444e+000,3.8957843865e+000,4.1418938801e+000,3.8117998292e+000,4.2921081961e+000,3.4065926639e+000,4.3740053065e+000,3.4861313453e+000,4.7715653828e+000,3.5615022831e+000,4.4016676390e+000,
2.6531250000e+001,4.0507945627e+000,4.4138658579e+000,4.0259440409e+000,4.7940971374e+000,4.0331172979e+000,4.1718149367e+000,3.8630519472e+000,4.4593566174e+000,3.3550751995e+000,4.3175136620e+000,3.6467152446e+000,4.7598033012e+000,3.7258323722e+000,4.4202239786e+000,
2.6625000000e+001,4.2411587088e+000,4.4765828371e+000,4.0349192869e+000,4.7817792715e+000,4.0105838850e+000,4.1789875365e+000,3.8367029709e+000,4.5427964840e+000,3.2873573149e+000,4.2702112402e+000,3.7263871961e+000,4.7683249136e+000,3.8226729979e+000,4.4399993596e+000,
2.6718750000e+001,4.2574358621e+000,4.4649191500e+000,4.1243904449e+000,4.7959386232e+000,3.9934279331e+000,4.2135353179e+000,3.8703756412e+000,4.5357197468e+000,3.3792750346e+000,4.2732851984e+000,3.8445632782e+000,4.8404763631e+000,3.8841668711e+000,4.4293528917e+000,
2.6812500000e+001,4.2371880620e+000,4.4490030822e+000,4.1717964475e+000,4.8041013682e+000,3.9681089555e+000,4.1932834464e+000,3.8154114009e+000,4.5443735584e+000,3.5137123333e+000,4.2173331539e+000,3.9370009735e+000,4.7902105551e+000,3.9181330360e+000,4.3905851589e+000,
2.6906250000e+001,4.2626654838e+000,4.5506390691e+000,4.2548424980e+000,4.8423537687e+000,4.0362084632e+000,4.2371069481e+000,3.8376099963e+000,4.5983861125e+000,3.6856876990e+000,4.1026010596e+000,3.9361341583e+000,4.7452847483e+000,3.9392140754e+000,4.3740956340e+000,
2.7000000000e+001,4.3785767045e+000,4.6891392597e+000,4.3454558605e+000,4.9232411747e+000,4.1919143512e+000,4.3580877284e+000,4.1052598277e+000,4.6698348246e+000,4.8154072428e+000,4.0201062900e+000,3.9025131852e+000,4.7551832602e+000,3.9359890931e+000,4.4328148502e+000,
2.7093750000e+001,4.4453515464e+000,4.7543206356e+000,4.3300191680e+000,4.9315226732e+000,4.2317478838e+000,4.3767455554e+000,4.1711649639e+000,4.6077159155e+000,4.7913963560e+000,4.0164436326e+000,3.8667670742e+000,4.7337617447e+000,3.9443038902e+000,4.4131229788e+000,
2.7187500000e+001,4.4534136968e+000,4.7066299789e+000,4.2626138602e+000,4.8873105287e+000,4.1766005205e+000,4.4082255236e+000,4.1168956897e+000,4.6261884468e+000,4.7795101170e+000,4.1088142973e+000,3.7887768446e+000,4.8326496022e+000,3.8314336392e+000,4.4589104628e+000,
2.7281250000e+001,4.4263941213e+000,4.6769332694e+000,4.2097084429e+000,4.8109759831e+000,4.1226153860e+000,4.4317133810e+000,4.0360402997e+000,4.5838641481e+000,4.7893770624e+000,4.1114000247e+000,3.8158930320e+000,4.7822374624e+000,3.7245921836e+000,4.4221293181e+000,
2.7375000000e+001,4.4485531716e+000,4.7516914022e+000,4.2110011736e+000,4.8064263124e+000,4.1393326750e+000,4.5494494760e+000,4.0737627719e+000,4.5875192918e+000,4.7798822911e+000,4.1841906461e+000,3.8864760316e+000,4.7507484462e+000,3.7273232964e+000,4.3019358138e+000,
2.7468750000e+001,4.3067092069e+000,4.7568873787e+000,3.9276621602e+000,4.4091644409e+000,4.1185655421e+000,4.5499368356e+000,3.9671315550e+000,4.5178444698e+000,4.7944467611e+000,4.3592747542e+000,3.6590526714e+000,4.7325418886e+000,3.5824332442e+000,4.2088151029e+000,
2.7562500000e+001,4.1541594384e+000,4.7656666657e+000,3.8802155106e+000,4.4008038536e+000,4.1520507633e+000,4.5951025145e+000,3.9494434526e+000,4.3940756990e+000,4.8454046655e+000,4.4178285424e+000,3.5706277987e+000,4.7100531203e+000,3.3061208526e+000,4.1394138945e+000,
2.7656250000e+001,4.0779737907e+000,4.7500082849e+000,3.8913242451e+000,4.4663011640e+000,4.1312203478e+000,4.5924947627e+000,3.9504192423e+000,4.3386350719e+000,4.8086631893e+000,4.5140643187e+000,3.3527457794e+000,4.7624101772e+000,3.2845320239e+000,4.4138450128e+000,
2.7750000000e+001,4.0637576686e+000,4.7463697317e+000,3.7728359992e+000,4.4601966609e+000,4.0853375462e+000,4.5694076679e+000,3.9280819762e+000,4.3261070103e+000,4.7975205411e+000,4.5113115629e+000,3.2922165662e+000,4.7681812056e+000,3.2474301716e+000,4.4349707265e+000,
2.7843750000e+001,4.2548595137e+000,4.9426324239e+000,3.8872482231e+000,4.7476683583e+000,4.2018640667e+000,4.7712215665e+000,4.0073486936e+000,4.6121570831e+000,4.7758643872e+000,4.6948122000e+000,3.1664314891e+000,4.7738565789e+000,3.3648528064e+000,4.4449701704e+000,
2.7937500000e+001,4.3184642931e+000,5.0220977324e+000,3.8615757458e+000,4.8691296903e+000,4.1874560508e+000,4.9515483118e+000,3.9373680198e+000,4.7464106809e+000,4.4328804447e+000,4.9354567043e+000,3.1738977661e+000,4.9266772674e+000,3.3786234449e+000,4.5296928244e+000,
2.8031250000e+001,4.4212304405e+000,5.1699484692e+000,4.0632642843e+000,5.1069176463e+000,4.3124577222e+000,5.2004762740e+000,3.9150971284e+000,5.0064842068e+000,3.4848394232e+000,5.2269006160e+000,3.1144493816e+000,5.0867219290e+000,3.5110326514e+000,4.7196424984e+000,
2.8125000000e+001,4.4420812165e+000,5.2186664261e+000,4.1589204873e+000,5.1786190313e+000,4.3328494141e+000,5.2787325627e+000,3.9568710062e+000,5.0906666691e+000,3.5592983600e+000,5.2978265134e+000,3.1211785681e+000,5.1097811431e+000,3.5169288922e+000,4.8873346888e+000,
2.8218750000e+001,4.5150743317e+000,5.2797827946e+000,4.1810575946e+000,5.2267750125e+000,4.4417709691e+000,5.3693690226e+000,4.0375398018e+000,5.1818531881e+000,3.9008144794e+000,5.3531915593e+000,3.2466386574e+000,5.0399698339e+000,3.8885623440e+000,4.8737689456e+000,
2.8312500000e+001,4.5356921730e+000,5.2835138603e+000,4.1926790182e+000,5.2404146362e+000,4.4071257666e+000,5.3547094888e+000,4.0235918344e+000,5.2155924285e+000,3.8166658070e+000,5.3507730805e+000,3.1654136525e+000,5.0253949473e+000,3.9617893332e+000,4.8508585558e+000,
2.8406250000e+001,4.4968949756e+000,5.1875748264e+000,4.1685805165e+000,5.2149503638e+000,4.3789098808e+000,5.2643122718e+000,3.9590345265e+000,5.1727446991e+000,3.7506723937e+000,5.2794336518e+000,2.9520473279e+000,4.9914641901e+000,3.9459062898e+000,4.8170027039e+000,
2.8500000000e+001,4.5318057878e+000,5.2416413656e+000,4.2407273896e+000,5.2953004129e+000,4.3525403337e+000,5.3784258261e+000,4.0622881031e+000,5.2563827570e+000,3.6412346564e+000,5.3215776740e+000,2.8984623213e+000,5.0288647603e+000,3.9827356328e+000,4.8091696831e+000,
2.8593750000e+001,4.5247232930e+000,5.2348627802e+000,4.2068460815e+000,5.2847009784e+000,4.2813637286e+000,5.3690102346e+000,4.0377430941e+000,5.2429592775e+000,3.5409686804e+000,5.3093113145e+000,3.0898976830e+000,5.0364293543e+000,3.9985364075e+000,4.8259146107e+000,
2.8687500000e+001,4.6239727611e+000,5.3030374191e+000,4.2254081010e+000,5.3634592528e+000,4.3845579999e+000,5.4381692097e+000,4.0633633334e+000,5.3109329007e+000,3.5621026277e+000,5.3071124737e+000,3.1502863315e+000,4.9370740208e+000,3.9547432206e+000,4.6287952110e+000,
2.8781250000e+001,4.6134336290e+000,5.3166985580e+000,4.2467148987e+000,5.4012867682e+000,4.4517247640e+000,5.4637228643e+000,4.0501538372e+000,5.3275607894e+000,3.5364279538e+000,5.3427494882e+000,3.1837921189e+000,4.9684566678e+000,3.9055361609e+000,4.6269704716e+000,
2.8875000000e+001,4.4619141377e+000,5.1947866530e+000,4.1068849913e+000,5.2621468377e+000,4.4229636311e+000,5.3542996026e+000,4.0011905843e+000,5.1877639662e+000,3.4957462341e+000,5.2157859933e+000,3.1309741881e+000,4.8921649014e+000,3.8440268852e+000,4.6120177853e+000,
2.8968750000e+001,4.3981822398e+000,5.0745007743e+000,4.0799244650e+000,5.1958930661e+000,4.3569073097e+000,5.2075288990e+000,3.9272755811e+000,5.0744049914e+000,3.5882117579e+000,5.0487556481e+000,3.0996772175e+000,4.7594516107e+000,3.8120995713e+000,4.5456427428e+000,
2.9062500000e+001,4.2484188565e+000,4.8883824760e+000,3.8651671160e+000,5.0009382035e+000,4.2876979050e+000,4.9910225318e+000,3.8155519788e+000,4.8338030979e+000,3.7868781746e+000,4.9298358287e+000,3.1494094265e+000,4.6450847907e+000,3.7045614731e+000,4.3059329190e+000,
2.9156250000e+001,4.2321146985e+000,4.8592819128e+000,3.8454734157e+000,5.0203373574e+000,4.3399669380e+000,4.9570822547e+000,3.8218830649e+000,4.9264714373e+000,3.7554817803e+000,4.9131895674e+000,3.1583942662e+000,4.6938441768e+000,3.6160059585e+000,4.1139635788e+000,
2.9250000000e+001,4.5322909355e+000,4.8999842718e+000,4.3277414014e+000,5.1134237558e+000,5.4414269804e+000,4.9403365459e+000,4.1948548430e+000,5.2348483728e+000,3.5690306494e+000,4.9873684437e+000,3.2297776514e+000,4.7442449450e+000,3.3114618922e+000,4.1048091299e+000,
2.9343750000e+001,4.7524509365e+000,4.9965968659e+000,4.6176885774e+000,5.4995562944e+000,5.6992323877e+000,5.4086872357e+000,4.3143243575e+000,6.4806028112e+000,3.7066611971e+000,5.2972324391e+000,3.4374817015e+000,4.9294146038e+000,3.3099256633e+000,4.3280277257e+000,
2.9437500000e+001,4.8088379848e+000,5.0954215883e+000,4.6300378251e+000,5.6231294625e+000,5.7911139747e+000,5.5716049896e+000,4.4125210718e+000,6.5589083865e+000,3.8621985401e+000,5.4668183686e+000,3.4294152004e+000,5.0736654368e+000,3.3746925142e+000,4.5029532261e+000,
2.9531250000e+001,4.7824461368e+000,5.0193979337e+000,4.5936842210e+000,5.5794692165e+000,5.7888274050e+000,5.4908582898e+000,4.3954423779e+000,6.5474426454e+000,3.9016602354e+000,5.5025862841e+000,3.3395814575e+000,5.2113492510e+000,3.3828477434e+000,4.5999562240e+000,
2.9625000000e+001,4.6786936833e+000,4.9666606410e+000,4.5817448246e+000,5.5472678785e+000,5.7998742396e+000,5.4978387731e+000,4.4253044524e+000,6.5553876031e+000,3.9280301675e+000,5.5089850440e+000,3.2247204534e+000,5.2692446689e+000,3.2679833479e+000,4.5737777786e+000,
2.9718750000e+001,4.6386070572e+000,4.9080195104e+000,4.5603641310e+000,5.5106698589e+000,5.7948948395e+000,5.4580305974e+000,4.4657700833e+000,6.5551103770e+000,4.1104215085e+000,5.5316264894e+000,3.2911501840e+000,5.3083457759e+000,3.4253469090e+000,4.6663075785e+000,
2.9812500000e+001,4.6618682162e+000,4.8684616147e+000,4.5734094939e+000,5.4852089466e+000,5.8169805289e+000,5.4337714810e+000,4.5179370385e+000,6.5453942644e+000,5.3242623694e+000,5.5221406330e+000,3.3744706629e+000,5.3756407858e+000,3.4697937809e+000,4.6921106221e+000,
2.9906250000e+001,4.6419455693e+000,4.8200967186e+000,4.5551802704e+000,5.4482503027e+000,5.8372300824e+000,5.4028083452e+000,4.5474880042e+000,6.5345306895e+000,5.4939029478e+000,5.5153423461e+000,3.3601251138e+000,5.3573005361e+000,3.5450577972e+000,4.6363491419e+000,
3.0000000000e+001,4.5890691123e+000,4.7736106169e+000,4.5592728868e+000,5.4006962284e+000,5.8476084792e+000,5.3828501247e+000,4.5701442606e+000,6.5224428721e+000,5.5084527650e+000,5.4760581479e+000,3.4098880202e+000,5.3418546608e+000,3.5740270138e+000,4.5904924337e+000,
3.0093750000e+001,4.6408571746e+000,4.7856840417e+000,4.5592995469e+000,5.3799678784e+000,5.8881271359e+000,5.3725756670e+000,4.5718287625e+000,6.5010057633e+000,5.6556701655e+000,5.3672058123e+000,3.3538246541e+000,5.2756421722e+000,3.6817163225e+000,4.5964200830e+000,
3.0187500000e+001,4.5410707079e+000,4.7591227364e+000,4.3934969037e+000,5.3303526062e+000,5.8674151885e+000,5.3639522961e+000,4.5640176057e+000,6.4820830762e+000,5.7048792896e+000,5.3284634882e+000,3.5437458060e+000,5.3182581110e+000,3.7768631452e+000,4.7281984909e+000,
3.0281250000e+001,4.2828230535e+000,4.7561253671e+000,4.2346531754e+000,5.2467812335e+000,5.3549674938e+000,5.3185907397e+000,4.6360850205e+000,6.3377805994e+000,5.7348201341e+000,5.2474593478e+000,3.5495919223e+000,5.3657784272e+000,3.7936101064e+000,4.8348842819e+000,
3.0375000000e+001,4.0977587928e+000,4.7356157676e+000,4.0096224446e+000,4.8779329727e+000,5.2074248537e+000,4.7730472362e+000,4.6088805450e+000,4.8761056822e+000,5.7308372790e+000,4.8721819142e+000,3.4345203313e+000,5.3292585499e+000,3.8791903186e+000,4.7578868682e+000,
3.0468750000e+001,4.0199308213e+000,4.5402459850e+000,3.9977963980e+000,4.6725242412e+000,5.1516817576e+000,4.6594898344e+000,4.6112895032e+000,4.4703088660e+000,5.7198640100e+000,4.7820466226e+000,3.5930895023e+000,5.2957070618e+000,3.9463292764e+000,4.6849984989e+000,
3.0562500000e+001,4.0503049617e+000,4.5231743944e+000,4.0849146411e+000,4.6789724000e+000,5.3039913647e+000,4.5529459946e+000,4.6910897905e+000,4.4203346693e+000,5.7114387718e+000,4.5442562815e+000,3.7442913784e+000,5.1264011161e+000,4.0300525369e+000,4.6086857202e+000,
3.0656250000e+001,4.1456844688e+000,4.7523678762e+000,4.2263024813e+000,4.9179772383e+000,5.3966380577e+000,4.7059472857e+000,4.8296581306e+000,4.5331879982e+000,5.7183079089e+000,4.4849694685e+000,3.8024551542e+000,5.0337166806e+000,4.1585540001e+000,4.5981476218e+000,
3.0750000000e+001,4.2231182829e+000,4.9366179621e+000,4.3212939013e+000,5.1201332113e+000,5.4167155405e+000,4.8054950649e+000,4.7986645261e+000,4.6268533901e+000,5.6026358293e+000,4.4635589953e+000,3.8505489324e+000,5.0472396272e+000,4.2037559081e+000,4.5616082350e+000,
3.0843750000e+001,4.1835002167e+000,4.9322795607e+000,4.3133991346e+000,5.1549593450e+000,5.4097198228e+000,4.8105651300e+000,4.8220027100e+000,4.6586895240e+000,5.0836871182e+000,4.4463906679e+000,3.9275935930e+000,5.0197500073e+000,4.2164402336e+000,4.5689694237e+000,
3.0937500000e+001,4.1822378839e+000,4.9615291761e+000,4.3317189496e+000,5.1859762676e+000,5.3978378912e+000,4.8716874057e+000,4.9402540846e+000,4.6929271753e+000,4.7828365675e+000,4.5645422898e+000,3.9706868273e+000,5.0566689029e+000,4.1785488914e+000,4.5689073249e+000,
3.1031250000e+001,4.3424106995e+000,5.0358018627e+000,4.4567783959e+000,5.2267989050e+000,5.4362435816e+000,4.9662731400e+000,5.2217140858e+000,4.7822726848e+000,4.9683863264e+000,4.7320129041e+000,4.0736497324e+000,5.1459323891e+000,4.3456829903e+000,4.6698933076e+000,
3.1125000000e+001,4.3329549521e+000,5.1985183680e+000,4.5713158116e+000,5.3651984407e+000,5.5243752720e+000,5.1244011505e+000,5.4260816991e+000,5.0003367086e+000,4.9549762361e+000,4.8985984946e+000,4.3015390529e+000,5.1717937187e+000,4.3918585002e+000,4.6357524101e+000,
3.1218750000e+001,4.3311863794e+000,5.2689544250e+000,4.6425570255e+000,5.4308505518e+000,5.4759603763e+000,5.1991827897e+000,5.4489052192e+000,5.0809402823e+000,8.3456138529e+000,5.0085835339e+000,4.3279625989e+000,5.0361025595e+000,4.3694277675e+000,4.5255772772e+000,
3.1312500000e+001,4.2233103711e+000,5.2128746818e+000,4.5327026014e+000,5.3810806777e+000,5.3731132305e+000,5.1673718337e+000,5.3437268917e+000,5.0416463288e+000,8.6344458867e+000,5.0621968139e+000,4.3354819359e+000,4.9486106703e+000,4.3704332794e+000,4.3776942929e+000,
3.1406250000e+001,4.2508079974e+000,5.2101069383e+000,4.5381609038e+000,5.3486216638e+000,5.3605198442e+000,5.0612676320e+000,5.3294264570e+000,5.0103103921e+000,8.6521408144e+000,5.0334701246e+000,4.3121747029e+000,5.0765793392e+000,4.3081970453e+000,4.5598182813e+000,
3.1500000000e+001,4.2945635206e+000,5.2703969688e+000,4.5682894886e+000,5.3615482556e+000,5.2212004298e+000,5.0699163127e+000,5.2942377724e+000,4.9815970783e+000,8.6702621339e+000,5.0018431823e+000,4.2513959065e+000,5.1179998423e+000,4.2632689989e+000,4.6292572235e+000,
3.1593750000e+001,4.2648090235e+000,5.2304544738e+000,4.4853276618e+000,5.3407098863e+000,5.0899079143e+000,5.1104297841e+000,5.2246893086e+000,5.0270144977e+000,8.6789188431e+000,5.0672505642e+000,4.2715982507e+000,5.1756006304e+000,4.1897712007e+000,4.6674712959e+000,
3.1687500000e+001,4.2456471237e+000,5.1218707058e+000,4.4257461538e+000,5.1849453853e+000,5.0277809955e+000,4.9680898038e+000,5.1754822171e+000,4.8632538464e+000,8.6792924404e+000,5.0283480533e+000,4.2046542507e+000,5.1406638390e+000,4.0449024488e+000,4.6778210938e+000,
3.1781250000e+001,4.1276826045e+000,5.0683871481e+000,4.3507653685e+000,5.0840461847e+000,4.9864881344e+000,4.9389561656e+000,5.1557515694e+000,4.7782423270e+000,8.6792167282e+000,5.0184515918e+000,4.1367157476e+000,5.0801861537e+000,4.0924765795e+000,4.7184164214e+000,
3.1875000000e+001,4.2264082666e+000,5.1452064808e+000,4.3495437126e+000,5.0273969449e+000,4.9908238466e+000,4.9885653521e+000,5.1352196495e+000,4.8153578817e+000,8.6785770655e+000,5.0673762566e+000,4.1894119648e+000,5.0781544177e+000,4.0930256467e+000,4.7436056554e+000,
3.1968750000e+001,4.2070617528e+000,5.2034472377e+000,4.2399521783e+000,5.0905498216e+000,4.9713138923e+000,5.0898181932e+000,5.0111359726e+000,4.9751088551e+000,8.6778947202e+000,5.1240643913e+000,4.1776072120e+000,5.1145147471e+000,4.1307314787e+000,4.7799973832e+000,
3.2062500000e+001,3.9387452892e+000,5.0213911177e+000,4.0539543978e+000,4.8957476214e+000,4.6296046357e+000,4.9029577484e+000,4.5187279929e+000,4.7957039247e+000,8.6670716191e+000,4.9802459504e+000,3.8933506799e+000,4.9976704346e+000,3.8541864506e+000,4.6360038226e+000,
3.2156250000e+001,3.8035420326e+000,4.8245571174e+000,3.8307416573e+000,4.6712521063e+000,4.3058355181e+000,4.7060935122e+000,3.9101173520e+000,4.6140603108e+000,8.6625093439e+000,4.8238511260e+000,3.7787765251e+000,4.8935149011e+000,3.7729922728e+000,4.5359779146e+000,
3.2250000000e+001,3.8240588008e+000,4.8292369198e+000,3.8178300307e+000,4.6529673259e+000,4.2780046027e+000,4.6766493809e+000,3.8169889743e+000,4.5984249522e+000,7.1551440470e+000,4.7229988282e+000,3.6185214799e+000,4.9148927414e+000,3.6330439693e+000,4.4771689713e+000,
3.2343750000e+001,3.8313935538e+000,4.8593820045e+000,3.8246933531e+000,4.6696046660e+000,4.2835465564e+000,4.6580177633e+000,3.7861551684e+000,4.5836884045e+000,5.3768561815e+000,4.5953193449e+000,3.6127136515e+000,4.8432654992e+000,3.6941046940e+000,4.4486234038e+000,
3.2437500000e+001,3.6476829387e+000,4.7373998315e+000,3.6955558325e+000,4.6052065754e+000,4.1552545467e+000,4.6505063945e+000,3.6724466538e+000,4.6632660952e+000,5.2462664341e+000,4.5050606364e+000,3.6902001506e+000,4.5095344135e+000,3.6763501023e+000,4.2538997353e+000,
3.2531250000e+001,3.8438022166e+000,4.7557839712e+000,3.8749019663e+000,4.6287024812e+000,4.2558038836e+000,4.6674095336e+000,3.9277869655e+000,4.6830840723e+000,4.0820842491e+000,4.5649300196e+000,3.7269494306e+000,4.5319014777e+000,3.7510571015e+000,4.1765541778e+000,
3.2625000000e+001,3.8324322690e+000,4.7753878681e+000,4.0225774573e+000,4.6531203403e+000,4.2761821697e+000,4.6551267778e+000,4.0541722090e+000,4.7609219223e+000,3.7372193705e+000,4.6068349843e+000,3.7175005732e+000,4.5593224109e+000,3.7487658360e+000,4.2201550562e+000,
3.2718750000e+001,3.9495928527e+000,4.7290684408e+000,4.0617657054e+000,4.6148051627e+000,4.2118881532e+000,4.6380128498e+000,4.0444429084e+000,4.7709142588e+000,3.5429897543e+000,4.6642243423e+000,3.6918198302e+000,4.6078007633e+000,3.7004688188e+000,4.2495347250e+000,
3.2812500000e+001,3.9770013707e+000,4.7859565991e+000,4.0389739648e+000,4.6159969069e+000,4.2190246434e+000,4.7075273434e+000,4.0711289675e+000,4.8499349231e+000,3.5054508020e+000,4.8261677327e+000,3.7194281164e+000,4.8721208972e+000,3.7206823149e+000,4.3708789638e+000,
3.2906250000e+001,3.7916019738e+000,4.5416254949e+000,3.9784915383e+000,4.4753228641e+000,4.0770225864e+000,4.4049431769e+000,4.0414391305e+000,4.6267533341e+000,3.5205675513e+000,4.6160229340e+000,3.7060599227e+000,4.8243928546e+000,3.8069234883e+000,4.3562726946e+000,
3.3000000000e+001,3.8004114616e+000,4.5271156851e+000,4.0263159297e+000,4.4632417277e+000,4.1456926262e+000,4.3613277609e+000,4.0990255524e+000,4.6149766726e+000,3.4159845187e+000,4.6240575416e+000,3.8260152829e+000,4.9538932834e+000,3.7173268777e+000,4.5425015221e+000,
3.3093750000e+001,3.7965925317e+000,4.6130104271e+000,4.0388512788e+000,4.5167739915e+000,4.1713731582e+000,4.5329786076e+000,4.1136310211e+000,4.6790018788e+000,3.4920614360e+000,4.7544093746e+000,3.7820034877e+000,5.0422117262e+000,3.6615500347e+000,4.6038410913e+000,
3.3187500000e+001,3.8340979899e+000,4.6227071619e+000,4.0368083274e+000,4.5114550506e+000,4.1355143980e+000,4.5663580270e+000,4.1053749196e+000,4.6721910350e+000,3.4512064158e+000,4.7714543357e+000,3.7573963202e+000,5.0784727621e+000,3.8137097740e+000,4.6805288725e+000,
3.3281250000e+001,3.9123672311e+000,4.7607852164e+000,4.0202819262e+000,4.5940248744e+000,4.1177500135e+000,4.7958452448e+000,4.1374434439e+000,4.7882272764e+000,3.4061033830e+000,4.8701405088e+000,3.8243270546e+000,5.1576332605e+000,3.8507087389e+000,4.7407618776e+000,
3.3375000000e+001,3.9291713985e+000,4.7071652361e+000,3.9630540895e+000,4.5270998066e+000,4.1129314202e+000,4.7714288435e+000,4.1429191448e+000,4.7407233985e+000,3.4384795076e+000,4.9272013132e+000,3.9027732792e+000,5.2422500194e+000,3.8134104324e+000,4.7811963830e+000,
3.3468750000e+001,3.8400140347e+000,4.6853065591e+000,3.9052142704e+000,4.4622011493e+000,4.1381699692e+000,4.7105831200e+000,4.0565867803e+000,4.6777328083e+000,3.2473915504e+000,4.8841924950e+000,3.8785801827e+000,5.2276441272e+000,3.7582663686e+000,4.7657414000e+000,
3.3562500000e+001,3.6332188967e+000,4.5374117998e+000,3.5564732914e+000,4.2606868072e+000,3.9937781479e+000,4.6497988406e+000,3.7819132662e+000,4.5790317673e+000,3.1856809198e+000,4.8559433999e+000,3.8221802212e+000,5.1877812687e+000,3.6843842336e+000,4.7541455281e+000,
3.3656250000e+001,3.5932334820e+000,4.5261898759e+000,3.6216314022e+000,4.2112510597e+000,3.9110981796e+000,4.6508048920e+000,3.6251715690e+000,4.4331938069e+000,3.1556618676e+000,4.7496408899e+000,3.8080524845e+000,5.1313187482e+000,3.6724774911e+000,4.6454963631e+000,
3.3750000000e+001,3.3345146435e+000,4.3981866429e+000,3.6220931107e+000,4.1835606951e+000,3.8966255120e+000,4.5381127429e+000,3.6350389383e+000,4.3286044092e+000,3.2056175564e+000,4.6577091079e+000,3.8894818192e+000,5.0801852916e+000,3.8000065205e+000,4.5982936385e+000,
3.3843750000e+001,3.4880267929e+000,4.5495729009e+000,3.8179627546e+000,4.3848965441e+000,4.0031376890e+000,4.6411469906e+000,3.8133484140e+000,4.4393362657e+000,3.2838364262e+000,4.6163553129e+000,3.9347784380e+000,4.9468191335e+000,3.7672686639e+000,4.4835857937e+000,
3.3937500000e+001,3.5789546013e+000,4.5804014401e+000,3.8292585506e+000,4.4309092550e+000,4.1308262143e+000,4.6800759824e+000,3.9130029062e+000,4.4014394013e+000,3.3361361436e+000,4.5806383717e+000,3.9097749982e+000,4.8151761065e+000,3.8399339200e+000,4.3412775355e+000,
3.4031250000e+001,3.7668797863e+000,4.6563026672e+000,3.8763336589e+000,4.5080507911e+000,4.1531887178e+000,4.5742026561e+000,3.9205713518e+000,4.2492441766e+000,3.3321562599e+000,4.4079551413e+000,3.9216798072e+000,4.7716761572e+000,3.9074234601e+000,4.2503103700e+000,
3.4125000000e+001,3.8825485439e+000,4.7449560546e+000,3.9328274156e+000,4.6326298370e+000,4.2317662792e+000,4.5727304932e+000,3.9197688381e+000,4.3029068204e+000,3.2496549802e+000,4.4912275607e+000,3.9151587855e+000,4.9476925149e+000,3.9362026967e+000,4.2513295086e+000,
3.4218750000e+001,3.8790036795e+000,4.6428775403e+000,3.9810041422e+000,4.6045161744e+000,4.2518547913e+000,4.3760785150e+000,3.9077046071e+000,4.3008027744e+000,3.2853241312e+000,4.4802030124e+000,3.8980675457e+000,4.9169664716e+000,3.7794470716e+000,4.1955792120e+000,
3.4312500000e+001,3.8032674840e+000,4.5378977115e+000,4.0028542990e+000,4.5570614133e+000,4.2406783771e+000,4.1678552157e+000,3.8951466159e+000,4.1439169202e+000,3.3057193794e+000,4.2511939353e+000,3.8051633326e+000,4.6776761371e+000,3.8186965212e+000,4.0076976840e+000,
3.4406250000e+001,3.9925089338e+000,4.5964313681e+000,4.1636271156e+000,4.6837858031e+000,4.2446387050e+000,4.2578476619e+000,3.9269846047e+000,4.2701047915e+000,3.3171446403e+000,4.3385662221e+000,3.7524594923e+000,4.7266297662e+000,3.9084719692e+000,4.0972913452e+000,
3.4500000000e+001,3.9987030961e+000,4.6224552570e+000,4.1460901251e+000,4.7335313614e+000,4.1659313850e+000,4.3497492835e+000,3.9177417851e+000,4.3186649623e+000,3.2821991069e+000,4.3553416528e+000,3.7295697999e+000,4.7407125350e+000,3.9120531849e+000,4.0824499240e+000,
3.4593750000e+001,3.9760234570e+000,4.6172365052e+000,4.1109447484e+000,4.7309725818e+000,4.1366814926e+000,4.3443436205e+000,3.8937272046e+000,4.3245089022e+000,3.3000850689e+000,4.3125411656e+000,3.6247237664e+000,4.7536786591e+000,3.9358544033e+000,4.1061698129e+000,
3.4687500000e+001,4.0022368423e+000,4.5704151303e+000,4.0675837935e+000,4.6964438347e+000,4.1793813233e+000,4.3241533372e+000,3.9285574924e+000,4.3734922526e+000,3.2712125809e+000,4.3468299409e+000,3.6952326955e+000,4.7640493565e+000,4.0744912184e+000,4.1415723772e+000,
3.4781250000e+001,4.1385600816e+000,4.7324720333e+000,4.0074377291e+000,4.7172430958e+000,4.1257440429e+000,4.3121369531e+000,3.8976666861e+000,4.3638086715e+000,3.1648452599e+000,4.2758542183e+000,3.5456058601e+000,4.7612507030e+000,4.1654182083e+000,4.2922210130e+000,
3.4875000000e+001,4.0695883565e+000,4.7183046345e+000,3.8960131123e+000,4.5841483150e+000,3.9759104644e+000,4.1896048669e+000,3.7303616551e+000,4.3017592411e+000,3.0243186264e+000,4.2339451347e+000,3.4192129763e+000,4.9545005249e+000,4.1209564502e+000,4.6934363555e+000,
3.4968750000e+001,4.2545410559e+000,4.8498100190e+000,4.1355691511e+000,4.6809927046e+000,4.0818778706e+000,4.4514791246e+000,3.7824981986e+000,4.4905394577e+000,3.1376589543e+000,4.3766538711e+000,3.4016119818e+000,4.9580804207e+000,4.1027853831e+000,4.8344363104e+000,
3.5062500000e+001,4.2868316114e+000,4.9428744215e+000,4.3068973042e+000,4.7982680086e+000,4.1186830077e+000,4.5945193002e+000,3.9607269409e+000,4.6445985801e+000,3.1939736412e+000,4.4775506923e+000,3.4256079164e+000,4.8738864928e+000,4.1049965494e+000,4.8112412976e+000,
3.5156250000e+001,4.2410420673e+000,4.8715663516e+000,4.2937066607e+000,4.7114934402e+000,4.0866948669e+000,4.5572968331e+000,3.9493106929e+000,4.5715110491e+000,3.1737809947e+000,4.3149057026e+000,3.4663191214e+000,4.7016623060e+000,4.0672690328e+000,4.8309057431e+000,
3.5250000000e+001,4.2061882001e+000,4.8814900857e+000,4.2225649799e+000,4.6340108257e+000,4.1849312651e+000,4.5367037766e+000,3.9795554255e+000,4.5142678138e+000,3.3071945740e+000,4.2491624284e+000,3.4421208394e+000,4.7176361306e+000,4.0312598773e+000,4.8157709576e+000,
3.5343750000e+001,4.2280262533e+000,4.9405649921e+000,4.2536729097e+000,4.6927718198e+000,4.2235679708e+000,4.5529322663e+000,4.0398482797e+000,4.5772464543e+000,3.5828359171e+000,4.1911673272e+000,3.3457622736e+000,4.6501960478e+000,3.9689211145e+000,4.7548397524e+000,
3.5437500000e+001,4.1620484453e+000,4.9227003523e+000,4.2414587641e+000,4.6369386906e+000,4.2991822732e+000,4.4695591554e+000,4.1155493502e+000,4.4855374584e+000,3.6885712086e+000,4.0484868185e+000,3.3489937554e+000,4.6197434446e+000,3.9214627980e+000,4.7106095255e+000,
3.5531250000e+001,4.2273701830e+000,5.0181722222e+000,4.3628461901e+000,4.7849623932e+000,4.4575117271e+000,4.5855144381e+000,4.2600413724e+000,4.6189788690e+000,3.7356420421e+000,4.1159757115e+000,3.3158830492e+000,4.5966316696e+000,3.9015945305e+000,4.6933912989e+000,
3.5625000000e+001,4.2839170461e+000,5.1203782866e+000,4.4355434779e+000,4.8942061097e+000,4.5404832337e+000,4.6915762655e+000,4.3286505043e+000,4.7003403817e+000,3.7275438190e+000,4.1987161732e+000,3.2578949861e+000,4.6358744488e+000,3.8095453474e+000,4.7166571301e+000,
3.5718750000e+001,4.2250812073e+000,5.0922498744e+000,4.3965113076e+000,4.8155934979e+000,4.5021462277e+000,4.6136841133e+000,4.3204703838e+000,4.5826784537e+000,3.6912564495e+000,4.2143166269e+000,3.1637335383e+000,4.7684957676e+000,3.4363973044e+000,4.7486177051e+000,
3.5812500000e+001,4.1636146404e+000,4.9465894926e+000,4.4112484566e+000,4.8099703154e+000,4.4910270558e+000,4.6075680375e+000,4.2858072045e+000,4.5022335373e+000,3.6768952561e+000,4.1281289144e+000,3.2781832610e+000,4.5352388110e+000,3.2440580239e+000,4.4379680297e+000,
3.5906250000e+001,4.2013754274e+000,5.0423885869e+000,4.5466217256e+000,5.0199837894e+000,4.5795578189e+000,4.7262730072e+000,4.4117491177e+000,4.5770475669e+000,3.7364704754e+000,4.1893264051e+000,3.1810781429e+000,4.4541838418e+000,3.0833256265e+000,4.0199230500e+000,
3.6000000000e+001,3.9540043216e+000,4.8893628432e+000,4.3745303895e+000,4.9007208491e+000,4.3911835741e+000,4.5979240028e+000,4.2650489046e+000,4.4443089951e+000,3.6888207663e+000,4.2782558360e+000,3.1162728680e+000,4.5921104682e+000,3.2332562063e+000,3.9244121078e+000,
3.6093750000e+001,3.9121087735e+000,4.8080909104e+000,4.2862032378e+000,4.8182097507e+000,4.3956604290e+000,4.5304529621e+000,4.1966827127e+000,4.3180282712e+000,3.8070638336e+000,4.2983509413e+000,2.9246382448e+000,4.5388748672e+000,3.1349712952e+000,3.9665163319e+000,
3.6187500000e+001,3.9140846477e+000,4.8336381163e+000,4.3027089369e+000,4.8398937878e+000,4.3739565804e+000,4.6067482851e+000,4.1959318810e+000,4.4016501845e+000,3.8418031853e+000,4.3726779643e+000,3.0949061668e+000,4.4862664410e+000,3.1327292023e+000,3.9092521831e+000,
3.6281250000e+001,3.8771115731e+000,4.7794853020e+000,4.2796397914e+000,4.8333076879e+000,4.3272246089e+000,4.6227720530e+000,4.2583529508e+000,4.4526564921e+000,3.7655310293e+000,4.4201040516e+000,3.1467958761e+000,4.5399109450e+000,3.1863030495e+000,3.9497071764e+000,
3.6375000000e+001,3.8030307683e+000,4.7520018844e+000,4.1844589513e+000,4.8127346082e+000,4.2874065161e+000,4.6536065695e+000,4.1916809212e+000,4.4418942037e+000,3.5430373068e+000,4.4392767473e+000,3.1415084296e+000,4.5552452644e+000,3.1526583808e+000,4.0221481866e+000,
3.6468750000e+001,3.7367472162e+000,4.7661389313e+000,4.1216049046e+000,4.7764114629e+000,4.2215770524e+000,4.6332251758e+000,4.1250731975e+000,4.4467117410e+000,3.5165865804e+000,4.4866449718e+000,3.1978306908e+000,4.5836889158e+000,3.0894738780e+000,4.0497812472e+000,
3.6562500000e+001,3.6676743624e+000,4.6660961841e+000,3.9510664917e+000,4.6222378971e+000,4.0877512515e+000,4.5343984096e+000,3.9271185327e+000,4.2517624638e+000,3.4948474258e+000,4.4751107745e+000,3.1908893189e+000,4.5863394360e+000,3.0878472640e+000,4.0657437955e+000,
3.6656250000e+001,3.6438173257e+000,4.6072600079e+000,3.8875541383e+000,4.5823697931e+000,4.0343026518e+000,4.5098394967e+000,3.8595101932e+000,4.2223130412e+000,3.4871071079e+000,4.4087660235e+000,3.1726454993e+000,4.4194124824e+000,3.1051084011e+000,3.9591107585e+000,
3.6750000000e+001,3.6243312393e+000,4.6325654274e+000,3.8321050915e+000,4.5973298732e+000,4.0472289495e+000,4.5712356897e+000,3.8323692000e+000,4.2754024470e+000,3.6160287365e+000,4.5055953466e+000,3.1664765582e+000,4.4673700715e+000,3.1276623887e+000,3.9531774746e+000,
3.6843750000e+001,3.6605158198e+000,4.6274688328e+000,3.7442676657e+000,4.5151392543e+000,3.9742750761e+000,4.5797127213e+000,3.7582952488e+000,4.3539451586e+000,3.7511208089e+000,4.5784629691e+000,3.1284510370e+000,4.5608891251e+000,3.1466649918e+000,4.1078196427e+000,
3.6937500000e+001,3.4586041779e+000,4.3543542585e+000,3.4630012719e+000,4.2253584101e+000,3.8215521116e+000,4.3954014830e+000,3.4589955333e+000,4.2534649502e+000,3.7567861336e+000,4.5007709265e+000,3.0602426084e+000,4.5165234554e+000,3.2378163882e+000,4.2301043663e+000,
3.7031250000e+001,3.5240386415e+000,4.3204280658e+000,3.2415274468e+000,4.1334979038e+000,3.7616514564e+000,4.3488376117e+000,3.4193560665e+000,4.1482691755e+000,3.7310441228e+000,4.2032795031e+000,3.1272146177e+000,4.3449141009e+000,3.1824680534e+000,4.1245611013e+000,
3.7125000000e+001,3.4890193431e+000,4.3407333606e+000,3.1797037814e+000,4.2195892272e+000,3.7869617598e+000,4.3689500384e+000,3.3829579003e+000,4.4222074376e+000,3.5281141611e+000,4.4516234646e+000,3.2169629444e+000,4.8044393841e+000,3.4475355068e+000,4.3636419580e+000,
3.7218750000e+001,3.4767964393e+000,4.2926760689e+000,3.1934098891e+000,4.1677541276e+000,3.7815853542e+000,4.2454170590e+000,3.1281632394e+000,4.3245761219e+000,3.5870892366e+000,4.4512388823e+000,3.1981470111e+000,4.9089914714e+000,3.5439315573e+000,4.4991924945e+000,
3.7312500000e+001,3.4455279166e+000,4.2816097141e+000,3.1494099500e+000,4.1212938958e+000,3.7049850094e+000,4.2464091984e+000,2.9361522473e+000,4.2616655545e+000,3.6347781876e+000,4.5847279166e+000,3.1722501381e+000,4.9913407450e+000,3.5623908852e+000,4.6138134867e+000,
3.7406250000e+001,3.3922011988e+000,4.2424289408e+000,3.1908032398e+000,4.0522784229e+000,3.7527104193e+000,4.2407452988e+000,3.0418783639e+000,4.2451777319e+000,3.5946836990e+000,4.6195695297e+000,3.2332948732e+000,5.0071854904e+000,3.5860458190e+000,4.5869924635e+000,
3.7500000000e+001,3.3192887319e+000,4.2150212009e+000,3.2092551641e+000,3.9566990261e+000,3.7434083196e+000,4.3753885323e+000,3.3190123018e+000,4.2293105457e+000,3.5956138764e+000,4.6790046384e+000,3.3298090239e+000,5.0415117925e+000,3.6699489781e+000,4.5907977009e+000,
3.7593750000e+001,3.4688078714e+000,4.4339825224e+000,3.5113784519e+000,4.2941757738e+000,3.9509012459e+000,4.5371862390e+000,3.3746982219e+000,4.4421768553e+000,3.6940777744e+000,4.8051956469e+000,3.3973535608e+000,5.1093757694e+000,3.6564720495e+000,4.6470862588e+000,
3.7687500000e+001,3.4603683823e+000,4.4827688307e+000,3.6209978250e+000,4.3901966987e+000,3.9332278006e+000,4.5504097185e+000,3.3904642527e+000,4.5332913550e+000,3.7145135426e+000,4.8510545686e+000,3.3711326968e+000,5.1339636308e+000,3.6255470194e+000,4.7088528850e+000,
3.7781250000e+001,3.3744216467e+000,4.3980260273e+000,3.6228970194e+000,4.3422167484e+000,3.9149920173e+000,4.4682208834e+000,3.3724668031e+000,4.4923922375e+000,3.6786788990e+000,4.7651906614e+000,3.4094726366e+000,5.0658981661e+000,3.5915922689e+000,4.6556297194e+000,
3.7875000000e+001,3.4270228363e+000,4.5538873405e+000,3.7260019807e+000,4.4932281287e+000,4.0142265674e+000,4.5480295747e+000,3.4423408050e+000,4.6547525571e+000,3.5228862153e+000,4.8487637097e+000,3.4583091598e+000,5.0686325062e+000,3.5394295987e+000,4.6416188632e+000,
3.7968750000e+001,3.5938515241e+000,4.8336870863e+000,4.0389452832e+000,4.8110482806e+000,4.2278444581e+000,4.7965753850e+000,3.5426433682e+000,4.8937262440e+000,3.5142246322e+000,5.0108077279e+000,3.6277406557e+000,5.1661132786e+000,3.6267280193e+000,4.6602212824e+000,
3.8062500000e+001,3.6385709719e+000,4.9518099961e+000,4.1697272750e+000,4.9319215159e+000,4.2964900114e+000,4.8659899378e+000,3.6085590220e+000,4.9224357005e+000,3.5403720531e+000,5.0435777096e+000,3.5774175309e+000,5.1393035272e+000,3.6609450483e+000,4.6582279852e+000,
3.8156250000e+001,3.6338615263e+000,4.9796039715e+000,4.1694644656e+000,4.9284637750e+000,4.3353714654e+000,4.8955800036e+000,3.6691355355e+000,4.8531549878e+000,3.5237462198e+000,4.9382274729e+000,3.4476102412e+000,4.8917087895e+000,3.4879413139e+000,4.4761880797e+000,
3.8250000000e+001,3.6236430579e+000,4.9862023751e+000,4.2101130434e+000,4.9442989031e+000,4.3440443931e+000,4.8833009646e+000,3.6790458473e+000,4.8612077960e+000,3.4734013263e+000,4.8578731251e+000,3.4836894539e+000,4.7013562102e+000,3.4541938605e+000,4.2540096914e+000,
3.8343750000e+001,3.6523960838e+000,4.9837033534e+000,4.2085106123e+000,4.9532109385e+000,4.3892320290e+000,4.8750934228e+000,3.6786324111e+000,4.8629893668e+000,3.4091730085e+000,4.7917588997e+000,3.4891369751e+000,4.5998963701e+000,3.4252202491e+000,4.1493292551e+000,
3.8437500000e+001,3.7225628389e+000,5.0050755526e+000,4.2039522172e+000,4.9926776862e+000,4.3648298330e+000,4.8475115455e+000,3.5785684449e+000,4.8897852772e+000,3.3448579019e+000,4.7839886824e+000,3.4282594143e+000,4.5561520035e+000,3.3718948553e+000,4.1432434233e+000,
3.8531250000e+001,3.7315379104e+000,4.9692900073e+000,4.1895786175e+000,4.9830112343e+000,4.2843970216e+000,4.7850547491e+000,3.4186872615e+000,4.8765119446e+000,3.2262049763e+000,4.7482651915e+000,3.3040519881e+000,4.4811366697e+000,3.2844305125e+000,4.1298562281e+000,
3.8625000000e+001,3.6343128713e+000,4.7951543685e+000,4.0367765326e+000,4.7879401393e+000,4.1782588655e+000,4.6360857544e+000,3.4015378676e+000,4.7403208220e+000,3.1571171859e+000,4.5675232565e+000,3.2430989313e+000,4.4130055953e+000,3.3290457176e+000,4.0131818809e+000,
3.8718750000e+001,3.6836951004e+000,4.8249306064e+000,4.0260005168e+000,4.7905365304e+000,4.2454873819e+000,4.6772754079e+000,3.4341083394e+000,4.7550206628e+000,3.1073144554e+000,4.6199907026e+000,3.2303493781e+000,4.4700479294e+000,3.3409401572e+000,3.9537833872e+000,
3.8812500000e+001,3.6576231179e+000,4.7638007147e+000,3.9785324340e+000,4.7405356941e+000,4.2311285662e+000,4.6532360844e+000,3.4522039691e+000,4.6893802482e+000,3.0730889085e+000,4.6021177145e+000,3.2024339437e+000,4.4376859114e+000,3.3351253194e+000,3.9386409703e+000,
3.8906250000e+001,3.5706479669e+000,4.5736364380e+000,3.8639521886e+000,4.5273733399e+000,4.1381339570e+000,4.4815830586e+000,3.4410696372e+000,4.4011419594e+000,3.4660111513e+000,4.3949373740e+000,3.1180028098e+000,4.2328935705e+000,3.3003997935e+000,3.6703576418e+000,
3.9000000000e+001,3.3445808323e+000,4.2642676255e+000,3.5462824629e+000,4.1801777182e+000,3.9171378873e+000,4.1922800818e+000,3.2812610039e+000,4.1404043572e+000,3.5713130302e+000,4.3075874969e+000,3.1613835657e+000,4.1190485549e+000,3.1184964669e+000,3.5038633740e+000,
3.9093750000e+001,3.1760885947e+000,4.0054815894e+000,3.2785011896e+000,3.7678602421e+000,3.8246315045e+000,3.9764743353e+000,3.1206100613e+000,3.8473069805e+000,3.6468449604e+000,4.1913417455e+000,3.2054621948e+000,4.0849588634e+000,3.0813035922e+000,3.4569343579e+000,
3.9187500000e+001,3.1959807562e+000,3.8305078157e+000,3.2167287834e+000,3.7561184120e+000,3.7881761043e+000,3.9084430836e+000,3.1093299804e+000,3.7666924856e+000,3.7285755140e+000,4.2458411728e+000,3.1716877422e+000,4.1267644931e+000,3.0707360367e+000,3.4217804357e+000,
3.9281250000e+001,3.1756411357e+000,3.8153395695e+000,3.1226136203e+000,3.7424401319e+000,3.6965744110e+000,3.8889106426e+000,3.1958942948e+000,3.7229967451e+000,4.6400599354e+000,4.2453445688e+000,3.1225129882e+000,4.2154076284e+000,3.0352723621e+000,3.5262070678e+000,
3.9375000000e+001,3.1114423579e+000,3.7316776426e+000,3.1202128263e+000,3.6113352226e+000,3.6097642491e+000,3.8416261019e+000,3.2455961394e+000,3.7104574950e+000,4.6820390207e+000,4.1847989711e+000,3.1988604168e+000,4.2084860515e+000,3.1204028036e+000,3.5095472352e+000,
3.9468750000e+001,3.1263731722e+000,3.5920296486e+000,3.0447569715e+000,3.4822232018e+000,3.5246824675e+000,3.7223198810e+000,3.2447486758e+000,3.5893894496e+000,4.6970453589e+000,4.1051218913e+000,3.2343412323e+000,4.2460364675e+000,3.1264497903e+000,3.4779196654e+000,
3.9562500000e+001,3.1049824461e+000,3.7520767727e+000,3.1432964279e+000,3.5766535761e+000,3.6121477950e+000,3.8378179876e+000,3.4148654308e+000,3.6194156919e+000,4.7041252014e+000,4.1316555794e+000,3.2275862368e+000,4.2234737059e+000,3.1651467835e+000,3.5269116108e+000,
3.9656250000e+001,3.1081005171e+000,3.9417398645e+000,3.1420027050e+000,3.5395720442e+000,3.6500025197e+000,3.7742136929e+000,3.5283814590e+000,3.4551050980e+000,4.7436263479e+000,3.9700974408e+000,3.2785685889e+000,4.0388224182e+000,3.3029647314e+000,3.3906503976e+000,
3.9750000000e+001,3.1988079351e+000,4.0146630421e+000,3.2006229323e+000,3.6562221055e+000,3.6516350447e+000,3.8082273695e+000,3.5911965556e+000,3.4576560811e+000,4.7683497977e+000,3.9074703852e+000,3.2817167175e+000,4.0339616554e+000,3.4263396913e+000,3.3205748666e+000,
3.9843750000e+001,3.2137364913e+000,4.0501300370e+000,3.2353933626e+000,3.7442713925e+000,3.6272783975e+000,3.8829867517e+000,3.6671273399e+000,3.6020182017e+000,4.7030863631e+000,3.9450392345e+000,3.2572011408e+000,4.0836231301e+000,3.4235424072e+000,3.3730429112e+000,
3.9937500000e+001,3.2448177531e+000,4.0851213023e+000,3.2342477841e+000,3.8149794902e+000,3.6764676676e+000,3.9203984151e+000,3.7804644324e+000,3.7081473920e+000,4.5963420143e+000,3.9894785528e+000,3.1753208714e+000,4.1897147016e+000,3.4070314027e+000,3.4469250781e+000,
4.0031250000e+001,3.3259132507e+000,4.1652343817e+000,3.2517401513e+000,3.9070257690e+000,3.7270055909e+000,3.9905012215e+000,3.7977271765e+000,3.8233031774e+000,4.6167957473e+000,3.9582805020e+000,3.2258831091e+000,4.1186337464e+000,3.4612228298e+000,3.4271469361e+000,
4.0125000000e+001,3.2536430791e+000,4.1774481190e+000,3.1792936500e+000,3.8760835645e+000,3.7528428928e+000,3.9953158326e+000,3.7861063350e+000,3.8488128347e+000,4.6051954096e+000,3.8972003995e+000,3.3691338659e+000,4.2038312205e+000,3.4385786739e+000,3.5278170023e+000,
4.0218750000e+001,3.2225933852e+000,4.2307203137e+000,3.2223041497e+000,3.8646992494e+000,3.7295686172e+000,4.0964529618e+000,3.7171700838e+000,3.9117662580e+000,4.3713204254e+000,3.9465867545e+000,3.3865951983e+000,4.2049739900e+000,3.4364699349e+000,3.5105210919e+000,
4.0312500000e+001,3.3345535945e+000,4.3564703881e+000,3.3435790935e+000,3.9983519263e+000,3.9392821762e+000,4.3032428273e+000,3.7272293710e+000,4.0002365921e+000,4.9295482473e+000,4.1279528998e+000,3.3982992314e+000,4.2349463310e+000,3.4064487632e+000,3.5600272543e+000,
4.0406250000e+001,3.4960956053e+000,4.5532744748e+000,3.4771362322e+000,4.1291282152e+000,3.9859893550e+000,4.4099820094e+000,3.7436778363e+000,4.1441190385e+000,5.3199525948e+000,4.3058353871e+000,3.3187806448e+000,4.3591432249e+000,3.3918073385e+000,3.6331305008e+000,
4.0500000000e+001,3.6246930594e+000,4.7145917525e+000,3.5842590056e+000,4.3297013029e+000,4.0453307651e+000,4.6123303379e+000,3.7959055533e+000,4.3613270747e+000,5.3763264150e+000,4.4812154414e+000,3.4113699902e+000,4.4076434093e+000,3.4808539400e+000,3.7117519729e+000,
4.0593750000e+001,3.5880729065e+000,4.7784491940e+000,3.5747118409e+000,4.4060977969e+000,4.1038908842e+000,4.7206496225e+000,3.7382517742e+000,4.4939935286e+000,5.3725256792e+000,4.5811066835e+000,3.4522042028e+000,4.4821658284e+000,3.5774200989e+000,3.7396086525e+000,
4.0687500000e+001,3.5173998334e+000,4.6653713892e+000,3.5478484618e+000,4.4071097756e+000,4.0028161485e+000,4.7315694533e+000,3.5800111561e+000,4.4878054102e+000,5.3309562351e+000,4.5984680373e+000,3.5023514769e+000,4.4824617215e+000,3.5185374456e+000,3.8222137826e+000,
4.0781250000e+001,3.4355233117e+000,4.6371095969e+000,3.4675827344e+000,4.3303363585e+000,3.9542642285e+000,4.7210343959e+000,3.4881441261e+000,4.4663154295e+000,5.3319369945e+000,4.6650625037e+000,3.5544610339e+000,4.6233511034e+000,3.5604079992e+000,3.9905098146e+000,
4.0875000000e+001,3.4577399401e+000,4.6097425488e+000,3.4695599329e+000,4.3135259248e+000,3.9610758305e+000,4.7028483695e+000,3.4137081246e+000,4.4360069366e+000,5.4231928642e+000,4.6354561977e+000,3.5852261099e+000,4.6077571242e+000,3.5792826473e+000,4.0245775081e+000,
4.0968750000e+001,3.4377885819e+000,4.6188668402e+000,3.4264227215e+000,4.2919155853e+000,3.9426528748e+000,4.7146171848e+000,3.3768760954e+000,4.4761807850e+000,5.7421984196e+000,4.6776793709e+000,3.5449310487e+000,4.5733529989e+000,3.5729010337e+000,4.0030126922e+000,
4.1062500000e+001,3.4111438402e+000,4.5726088251e+000,3.4818167309e+000,4.2635995451e+000,3.9648991323e+000,4.6850807143e+000,3.4083959762e+000,4.4156239486e+000,5.7604024904e+000,4.6621036758e+000,3.4029748449e+000,4.5644278087e+000,3.5450412807e+000,4.0541862191e+000,
4.1156250000e+001,3.4053059102e+000,4.5364066356e+000,3.4727089739e+000,4.2799819951e+000,3.9482600048e+000,4.6401060321e+000,3.4330261145e+000,4.3833380853e+000,5.7607135109e+000,4.6664227695e+000,3.3549363080e+000,4.5475405320e+000,3.5470895440e+000,4.0376210585e+000,
