Time (s),AF3,AF4,F3,F4,F7,F8,FC5,FC6,T7,T8,P7,P8,O1,O2,Sampling Rate
0.0000000000e+000,4.4240426667e+000,4.3879199971e+000,3.7881288144e+000,4.2188410895e+000,4.6408448180e+000,4.5416133721e+000,4.2092704055e+000,4.6372763149e+000,3.9405635737e+000,4.4125945385e+000,3.7512121276e+000,4.1113355890e+000,3.7715362719e+000,4.0889193152e+000,1
9.3750000000e-002,3.7783935899e+000,4.2590347271e+000,3.1503216982e+000,3.8346447869e+000,3.9475370264e+000,4.2376938132e+000,3.4878500039e+000,4.2032257516e+000,3.3310832370e+000,4.1117161004e+000,2.9745979735e+000,3.6838224624e+000,2.8945234191e+000,3.6524691798e+000,
1.8750000000e-001,3.7163072354e+000,4.3227571205e+000,3.0863616210e+000,3.7800766515e+000,3.9427538648e+000,4.0225229730e+000,3.5696461093e+000,4.1046264774e+000,3.3228470429e+000,4.0203791554e+000,2.8714546612e+000,3.6212944736e+000,2.9205724992e+000,3.5001901579e+000,
2.8125000000e-001,3.6005706535e+000,4.2249797605e+000,2.9507957035e+000,3.6259733775e+000,3.9157563143e+000,3.8440037174e+000,3.4992993125e+000,3.9774729519e+000,3.2832470232e+000,3.8788194830e+000,2.8813523548e+000,3.5183346489e+000,2.9363466398e+000,3.4502153885e+000,
3.7500000000e-001,3.5421937458e+000,4.1461088991e+000,2.8796761974e+000,3.4444788435e+000,3.9658630104e+000,3.8022831066e+000,3.4334950553e+000,3.9611907815e+000,3.3650669194e+000,3.7511459142e+000,2.8308589429e+000,3.4102970142e+000,2.8325188996e+000,3.4329663895e+000,
4.6875000000e-001,3.6258328665e+000,4.2184515726e+000,2.8467724825e+000,3.4600236031e+000,4.0199446396e+000,3.8982993808e+000,3.4331770552e+000,3.9655823839e+000,3.3809266107e+000,3.8974123296e+000,2.8522582916e+000,3.4970804877e+000,2.7930947556e+000,3.5107403090e+000,
5.6250000000e-001,3.5008926269e+000,4.2025715062e+000,2.8770076954e+000,3.3996494785e+000,3.9787877937e+000,3.8349951364e+000,3.3763928110e+000,3.8862301955e+000,3.4379537037e+000,3.8439260909e+000,2.8646748249e+000,3.4125425512e+000,2.8853106501e+000,3.4540340447e+000,
6.5625000000e-001,3.4364446638e+000,4.2191258480e+000,2.8558214452e+000,3.3457035927e+000,3.9414944333e+000,3.8245165006e+000,3.4093864327e+000,3.7930305138e+000,3.4323447304e+000,3.8420601753e+000,2.9332771057e+000,3.4730456207e+000,2.9910663288e+000,3.4114307642e+000,
7.5000000000e-001,3.4624062266e+000,4.1130084251e+000,2.8435737677e+000,3.3275254262e+000,4.0053832543e+000,3.5901863754e+000,3.4099920673e+000,3.8201681026e+000,3.4459118301e+000,3.7663178842e+000,3.0316790344e+000,3.4091305761e+000,3.0232377530e+000,3.2921513295e+000,
8.4375000000e-001,3.6363239468e+000,4.2186596833e+000,2.9920315078e+000,3.4307908559e+000,4.0155210691e+000,3.6956704562e+000,3.5209403455e+000,3.9439634085e+000,3.4905431726e+000,3.8408348816e+000,3.1015545960e+000,3.4632891810e+000,3.1530451625e+000,3.3718077950e+000,
9.3750000000e-001,3.7366678193e+000,4.3157301424e+000,3.0785415671e+000,3.4056053214e+000,3.9700849061e+000,3.8095469736e+000,3.6886044839e+000,4.0214434494e+000,3.6638565668e+000,3.8899020308e+000,3.2156318883e+000,3.6103476915e+000,3.2995748836e+000,3.4737447442e+000,
1.0312500000e+000,3.6979713886e+000,4.3274083842e+000,2.9860998684e+000,3.3799950676e+000,3.8548704476e+000,3.7980595769e+000,3.6565056170e+000,4.0656682114e+000,3.6691347297e+000,3.7611073377e+000,3.1706099431e+000,3.5572206972e+000,3.2124220976e+000,3.4811893744e+000,
1.1250000000e+000,3.6542327005e+000,4.0848478753e+000,2.9280538809e+000,3.3894960925e+000,3.8082932075e+000,3.7533368084e+000,3.4041456165e+000,4.0806728209e+000,3.5369592590e+000,3.7506343148e+000,3.0152961159e+000,3.6251042491e+000,3.0903705146e+000,3.4573969880e+000,
1.2187500000e+000,3.6294723950e+000,4.0463036478e+000,2.9538529385e+000,3.3775458231e+000,3.8621504968e+000,3.8312152610e+000,3.3868296225e+000,4.1245169359e+000,3.5434623360e+000,3.7506815675e+000,2.9985413522e+000,3.6398644797e+000,3.0202647525e+000,3.4935658447e+000,
1.3125000000e+000,3.5479366801e+000,4.0421996250e+000,2.9380604897e+000,3.3972524420e+000,3.8001384433e+000,3.8409185313e+000,3.3273412996e+000,4.1415758061e+000,3.5010534059e+000,3.8239393905e+000,2.9122537213e+000,3.7130365239e+000,3.0011674032e+000,3.5504680321e+000,
1.4062500000e+000,3.5958338029e+000,4.0231303791e+000,2.9248008275e+000,3.4234544799e+000,3.8205683016e+000,3.8672365975e+000,3.3774584429e+000,4.1318037247e+000,3.4351100713e+000,3.8266022824e+000,2.9132383103e+000,3.7171521056e+000,3.0247905160e+000,3.5880611726e+000,
1.5000000000e+000,3.5240157724e+000,3.9613837117e+000,2.9182511639e+000,3.4855105220e+000,3.8428999410e+000,3.7955768816e+000,3.4210321591e+000,3.9920657239e+000,3.4284912193e+000,3.7833805256e+000,2.9123385758e+000,3.7031150985e+000,3.0996297723e+000,3.5721943563e+000,
1.5937500000e+000,3.6012717973e+000,3.9336406153e+000,2.9605096513e+000,3.5620603500e+000,3.6471051750e+000,4.0367295062e+000,3.4341582978e+000,4.0596408023e+000,3.4015549650e+000,3.8134734468e+000,2.9270174477e+000,3.6898896772e+000,3.0269170467e+000,3.5889304089e+000,
1.6875000000e+000,3.5635470510e+000,3.8560429293e+000,2.9494108625e+000,3.5535153859e+000,3.5778132336e+000,4.0485081462e+000,3.4144186224e+000,4.0743768101e+000,3.4091945118e+000,3.7976288427e+000,2.8504081968e+000,3.6115755848e+000,2.9578184566e+000,3.5130021740e+000,
1.7812500000e+000,3.5981623678e+000,3.8417655752e+000,2.9242010235e+000,3.5610388839e+000,3.6034435023e+000,4.0373830551e+000,3.3416680448e+000,3.9718255643e+000,3.4682933744e+000,3.7908670055e+000,2.7723870305e+000,3.6068676486e+000,2.9741637851e+000,3.5481944392e+000,
1.8750000000e+000,3.4546616220e+000,3.6812511979e+000,2.8253847252e+000,3.4845262521e+000,3.5700147285e+000,4.0655108036e+000,3.2816374122e+000,3.9450026767e+000,3.3837497787e+000,3.7229770520e+000,2.7591983597e+000,3.4811040520e+000,2.7870801795e+000,3.4278740160e+000,
1.9687500000e+000,3.3115905861e+000,3.4251455960e+000,2.7732618395e+000,3.4297188458e+000,3.5442676257e+000,4.0078930628e+000,3.0418666696e+000,3.9041515575e+000,3.2310111749e+000,3.6255692880e+000,2.6432916871e+000,3.3287102297e+000,2.6415415659e+000,3.3298156947e+000,
2.0625000000e+000,3.3177549101e+000,3.3439890496e+000,2.7793836619e+000,3.3995703963e+000,3.5633574430e+000,4.0619056169e+000,3.1740837574e+000,3.8890121002e+000,3.1603361432e+000,3.6613078369e+000,2.6896674766e+000,3.3921061796e+000,2.7146789506e+000,3.5495399702e+000,
2.1562500000e+000,3.2927617250e+000,3.2072064862e+000,2.7451475085e+000,3.3498689449e+000,3.6162243737e+000,4.0656124237e+000,3.1798763455e+000,3.9227249252e+000,3.1369142798e+000,3.6570647986e+000,2.7378367279e+000,3.4006925376e+000,2.7324074505e+000,3.5904782370e+000,
2.2500000000e+000,3.3190031055e+000,3.3019414882e+000,2.7734571940e+000,3.3948541424e+000,3.7062216099e+000,4.1498042313e+000,3.2547140731e+000,3.9523414539e+000,3.2030757708e+000,3.7002591090e+000,2.8212620679e+000,3.5259072342e+000,2.7616500876e+000,3.7193301558e+000,
2.3437500000e+000,3.3213621202e+000,3.3432641453e+000,2.7833233128e+000,3.3480620790e+000,3.7471080145e+000,4.1748231313e+000,3.2697648871e+000,3.9390937221e+000,3.2395977241e+000,3.7563556898e+000,2.8790552645e+000,3.5716050869e+000,2.7828509176e+000,3.7327666497e+000,
2.4375000000e+000,3.4111996386e+000,3.6084754074e+000,2.7108389581e+000,3.3376962883e+000,3.7381632725e+000,4.3024686181e+000,3.1331094314e+000,3.9204471634e+000,3.1669160156e+000,3.8234451898e+000,2.7871926613e+000,3.5463537063e+000,2.6699267549e+000,3.7645434717e+000,
2.5312500000e+000,3.4259311031e+000,3.6319685947e+000,2.6046218564e+000,3.2271069382e+000,3.6816192840e+000,4.2279912721e+000,3.0237657429e+000,3.8757649890e+000,3.2133171676e+000,3.7676619172e+000,2.6750423126e+000,3.4970521501e+000,2.5951763716e+000,3.7244015193e+000,
2.6250000000e+000,3.3626030549e+000,3.6204872489e+000,2.6595562046e+000,3.1931559936e+000,3.7776261214e+000,4.1671153936e+000,3.0055555942e+000,3.7701400431e+000,3.2138792708e+000,3.8242038572e+000,2.7728569113e+000,3.5309296867e+000,2.6784104438e+000,3.7291998987e+000,
2.7187500000e+000,3.4447248584e+000,3.7622026259e+000,2.7398703343e+000,3.3262621520e+000,3.8098312245e+000,4.2309410885e+000,3.1330479774e+000,3.8423910200e+000,3.3120548738e+000,3.9137531628e+000,2.8113031318e+000,3.5564241920e+000,2.8643238710e+000,3.7266996024e+000,
2.8125000000e+000,3.4366207489e+000,3.8373937938e+000,2.8362982341e+000,3.3596135470e+000,3.8388081578e+000,4.2533855976e+000,3.1572899501e+000,3.8223531202e+000,3.2675848197e+000,3.8998565499e+000,2.8105739320e+000,3.5591351861e+000,2.8606527820e+000,3.7343053136e+000,
2.9062500000e+000,3.4412586227e+000,3.8526378845e+000,2.7759146134e+000,3.3156799194e+000,3.8462624988e+000,4.1670222925e+000,3.1148854507e+000,3.7884855505e+000,3.3432110460e+000,3.9295621429e+000,2.7268488364e+000,3.6150754156e+000,2.8823633977e+000,3.6947441545e+000,
3.0000000000e+000,3.4156972189e+000,3.8999127501e+000,2.8522278948e+000,3.3536442638e+000,3.8543204551e+000,4.1364358264e+000,3.1437372853e+000,3.7255630287e+000,3.2942495466e+000,3.9234984705e+000,2.7686060139e+000,3.6516172959e+000,2.9149433549e+000,3.6473392826e+000,
3.0937500000e+000,3.3439881712e+000,3.9187694694e+000,2.9087985843e+000,3.3409811967e+000,3.7699436428e+000,4.0658175590e+000,3.0508834978e+000,3.6487454281e+000,3.2968246022e+000,3.9007853220e+000,2.7773549158e+000,3.5634158470e+000,2.9999822159e+000,3.4726968016e+000,
3.1875000000e+000,3.3371768448e+000,3.9228636732e+000,2.9003099595e+000,3.3342336865e+000,3.6230925523e+000,4.0375740132e+000,3.0777740205e+000,3.5929270569e+000,3.3080801082e+000,3.9102527088e+000,2.7166585564e+000,3.5146368104e+000,3.0631736576e+000,3.3685860092e+000,
3.2812500000e+000,3.4328522716e+000,3.9809710616e+000,2.9621422888e+000,3.3773706984e+000,3.5155543667e+000,4.0003126049e+000,3.1050443471e+000,3.5908390861e+000,3.3692640842e+000,3.9572856613e+000,2.7720036787e+000,3.4595594160e+000,3.1530772218e+000,3.3529292274e+000,
3.3750000000e+000,3.4392832821e+000,4.0567978407e+000,3.0296036215e+000,3.4331063291e+000,3.6570804746e+000,4.0024887610e+000,3.2028610702e+000,3.6723261838e+000,3.3364604608e+000,3.9035929891e+000,2.7928748573e+000,3.4065657653e+000,3.1691541488e+000,3.3030192036e+000,
3.4687500000e+000,3.3521274433e+000,3.8916190260e+000,2.9972063717e+000,3.3581753110e+000,3.6794000618e+000,3.7821832686e+000,3.2469209570e+000,3.5731965259e+000,3.2535592438e+000,3.8133784508e+000,2.7838189794e+000,3.3722087434e+000,3.2281905481e+000,3.3200622841e+000,
3.5625000000e+000,3.9260817394e+000,4.4589029707e+000,3.0989764740e+000,3.6215289727e+000,3.7350050311e+000,4.2789125819e+000,3.3149879285e+000,3.8377099466e+000,3.2273899918e+000,3.9092795973e+000,2.7800417220e+000,3.3532921077e+000,3.1998958543e+000,3.3332197951e+000,
3.6562500000e+000,4.0047655845e+000,4.5501583401e+000,3.0091949544e+000,3.5713243690e+000,3.7552909064e+000,4.4004582197e+000,3.2744507290e+000,3.8854221875e+000,3.1467664856e+000,3.8055838317e+000,2.6569709205e+000,3.2539044632e+000,3.1608974033e+000,3.2697017259e+000,
3.7500000000e+000,4.0136499363e+000,4.5779408844e+000,2.9693033252e+000,3.5238885368e+000,3.8052161472e+000,4.5238861623e+000,3.2152770111e+000,3.9160177450e+000,2.9923210808e+000,3.7849076969e+000,2.5635776871e+000,3.2325378958e+000,3.0440750438e+000,3.2440690605e+000,
3.8437500000e+000,4.1094832446e+000,4.6113261319e+000,3.0255502344e+000,3.5397846008e+000,3.8994181431e+000,4.5751289898e+000,3.2878382796e+000,3.9365731475e+000,2.9950077681e+000,3.7995517335e+000,2.7074441621e+000,3.2252308444e+000,3.0781760871e+000,3.3476446399e+000,
3.9375000000e+000,4.1201831904e+000,4.6088648530e+000,3.0622258449e+000,3.5618580070e+000,4.1561925986e+000,4.6414762258e+000,3.2669224814e+000,3.9663085045e+000,2.9052579249e+000,3.8266906411e+000,2.6779667000e+000,3.2189735436e+000,3.0895732902e+000,3.3838389977e+000,
4.0312500000e+000,4.1717694394e+000,4.5971549996e+000,3.0055037228e+000,3.5652637196e+000,4.2130700235e+000,4.6401201614e+000,3.2782140494e+000,3.9823760090e+000,2.9991577682e+000,3.8067408816e+000,2.6120221667e+000,3.0961178296e+000,3.0944526559e+000,3.4036110826e+000,
4.1250000000e+000,4.2007844226e+000,4.5802842608e+000,2.9441638084e+000,3.5917323174e+000,4.2360287514e+000,4.6287022647e+000,3.2483674074e+000,3.9954394415e+000,3.0483651578e+000,3.7557510481e+000,2.6290827093e+000,2.9918515461e+000,3.0054540616e+000,3.4389515833e+000,
4.2187500000e+000,4.1946077967e+000,4.5711566727e+000,2.9235323819e+000,3.5375495310e+000,4.2664427256e+000,4.6289296290e+000,3.1768829271e+000,3.9875994189e+000,3.0709568908e+000,3.7167494566e+000,2.6664096195e+000,3.0660609723e+000,2.8942962809e+000,3.4996192855e+000,
4.3125000000e+000,4.4275504157e+000,4.8305427277e+000,2.8081473480e+000,3.5217999236e+000,4.4538498663e+000,4.6940742063e+000,3.1222314201e+000,3.9068825756e+000,2.9486765534e+000,3.5620255054e+000,2.5271775133e+000,2.9035137565e+000,2.7981454652e+000,3.4764309031e+000,
4.4062500000e+000,4.5111637017e+000,5.5509734925e+000,2.8332584479e+000,3.5455870828e+000,4.4828098385e+000,4.7258560235e+000,3.1226816217e+000,3.8903134539e+000,2.9844996223e+000,3.5912301604e+000,2.6819509914e+000,2.9423023650e+000,2.7144418714e+000,3.4986052754e+000,
4.5000000000e+000,4.4374233205e+000,6.3692711010e+000,2.8076725750e+000,3.3651387686e+000,4.4984548696e+000,4.5698308586e+000,3.1608455419e+000,3.7559839082e+000,3.0762487328e+000,3.5114618783e+000,2.7537049360e+000,2.8814199518e+000,2.7267580248e+000,3.4428342723e+000,
4.5937500000e+000,4.3076309174e+000,6.3518334982e+000,2.7877784539e+000,3.2703814199e+000,4.4644344928e+000,4.3966857210e+000,3.1017576603e+000,3.7467372330e+000,3.0914783010e+000,3.4969716996e+000,2.7949863780e+000,2.9587382729e+000,2.7355934176e+000,3.5333471899e+000,
4.6875000000e+000,4.2205075388e+000,6.3317970878e+000,2.7691954445e+000,3.2010382971e+000,4.4134442641e+000,4.1372196328e+000,3.1528133645e+000,3.5926063775e+000,3.1103142112e+000,3.4443213587e+000,2.8355809076e+000,2.9802105237e+000,2.7758120538e+000,3.6340654472e+000,
4.7812500000e+000,4.1659243956e+000,6.3222437960e+000,2.7232487131e+000,3.0822823932e+000,4.3668730056e+000,3.9749166160e+000,3.1074574177e+000,3.4276509305e+000,3.0755571364e+000,3.3629890843e+000,2.7108953208e+000,2.9215673689e+000,2.6055993927e+000,3.5297964687e+000,
4.8750000000e+000,4.1536599148e+000,6.3225182728e+000,2.7266873041e+000,3.1634241203e+000,4.2893966082e+000,3.9251475642e+000,2.9889404396e+000,3.4559356489e+000,3.0604396888e+000,3.4744665203e+000,2.7373248260e+000,2.9938863111e+000,2.6526569077e+000,3.5157645951e+000,
4.9687500000e+000,4.1501434122e+000,6.3244473310e+000,2.6269533806e+000,3.1031735744e+000,4.1297573073e+000,3.7423509708e+000,2.9957391601e+000,3.4526750760e+000,3.1417543608e+000,3.4348643733e+000,2.8184617294e+000,3.0065153433e+000,2.7300576124e+000,3.5703256589e+000,
5.0625000000e+000,4.1316897935e+000,6.3301214704e+000,2.7229739202e+000,3.0701454601e+000,4.1015088930e+000,3.7525596883e+000,3.0312747716e+000,3.4474651390e+000,3.2149217198e+000,3.4601966609e+000,2.8635884259e+000,3.0200801637e+000,2.7082940697e+000,3.5016013693e+000,
5.1562500000e+000,4.1095920804e+000,6.3307183535e+000,2.7308972511e+000,3.0957019510e+000,4.0850062699e+000,3.7307583336e+000,3.0243657769e+000,3.4262316551e+000,3.1300253039e+000,3.5093427023e+000,2.8880884889e+000,3.0689111913e+000,2.7092905706e+000,3.4465318583e+000,
5.2500000000e+000,4.0612572904e+000,6.3221404761e+000,2.7698045514e+000,3.1198845793e+000,4.0256197686e+000,3.7090370885e+000,3.0431069066e+000,3.4225545066e+000,3.0631549626e+000,3.4898214640e+000,2.8779013145e+000,3.0318215738e+000,2.7275516875e+000,3.3797834370e+000,
5.3437500000e+000,3.7170765918e+000,6.2712225637e+000,2.7427740072e+000,3.0631760167e+000,3.8891507628e+000,3.4875596064e+000,3.0585013536e+000,3.4304137044e+000,3.0195003182e+000,3.4881641424e+000,2.7574774442e+000,2.9953512385e+000,2.7390754694e+000,3.2154776694e+000,
5.4375000000e+000,3.4217384751e+000,4.8549681012e+000,2.5983146136e+000,2.8586903514e+000,3.7324629277e+000,3.3160723848e+000,2.8874070470e+000,3.4483405534e+000,2.9018645020e+000,3.4327775359e+000,2.6907934168e+000,3.0530435849e+000,2.6587787043e+000,3.2797729101e+000,
5.5312500000e+000,3.4496588508e+000,3.8468453890e+000,2.6369892230e+000,2.8769695570e+000,3.7487813079e+000,3.3355735430e+000,2.7619718574e+000,3.4970065779e+000,2.8865056998e+000,3.4011431680e+000,2.6569933516e+000,3.1343562944e+000,2.6096647229e+000,3.3112668536e+000,
5.6250000000e+000,3.4477431522e+000,3.7673092777e+000,2.6202633291e+000,2.8050011032e+000,3.7038533604e+000,3.3997226613e+000,2.7542802506e+000,3.4268645172e+000,2.9114619766e+000,3.4186645304e+000,2.7002696164e+000,3.0836474286e+000,2.6332072343e+000,3.2101454184e+000,
5.7187500000e+000,3.3945593283e+000,3.7757919884e+000,2.5519032672e+000,2.7868224252e+000,3.6729310370e+000,3.3917006436e+000,2.6848737846e+000,3.4212058511e+000,3.0276263884e+000,3.4161849964e+000,2.7107550599e+000,3.1128043395e+000,2.6670248929e+000,3.1449235534e+000,
5.8125000000e+000,3.3311604941e+000,3.8574872762e+000,2.5197580473e+000,2.8847307716e+000,3.6937502025e+000,3.7156540011e+000,2.6991629666e+000,3.5384223078e+000,3.1656391943e+000,3.4571763423e+000,2.7303262205e+000,3.1919132427e+000,2.7223308682e+000,3.1783103417e+000,
5.9062500000e+000,3.3493402861e+000,3.8539220530e+000,2.4990271355e+000,2.8351871423e+000,3.6964597915e+000,3.7922961556e+000,2.6907763003e+000,3.5524880935e+000,3.1706101872e+000,3.5315784946e+000,2.7730024349e+000,3.2517091879e+000,2.7159037733e+000,3.1382265177e+000,
6.0000000000e+000,3.3466067573e+000,3.8174264959e+000,2.5151984396e+000,2.9283460546e+000,3.6265143850e+000,3.8231503860e+000,2.8093751878e+000,3.5043071316e+000,3.1861312345e+000,3.4456296111e+000,2.8396392965e+000,3.2651977550e+000,2.6553093068e+000,3.1733765588e+000,
6.0937500000e+000,3.4743655668e+000,3.8882560462e+000,2.5666710959e+000,3.0269677225e+000,3.6643176909e+000,3.8666920448e+000,2.7701098921e+000,3.5251166926e+000,3.1596747071e+000,3.5511068720e+000,2.7633431313e+000,3.3097711673e+000,2.6288180083e+000,3.3533227254e+000,
6.1875000000e+000,3.5601176200e+000,4.0251568240e+000,2.5990833192e+000,3.1242250560e+000,3.7228295760e+000,4.0915092543e+000,2.7519130520e+000,3.6708720786e+000,3.2309875316e+000,3.5896619636e+000,2.7668747048e+000,3.3166656843e+000,2.6663052730e+000,3.4231774147e+000,
6.2812500000e+000,3.4910521989e+000,4.0471323415e+000,2.5903416595e+000,3.1991056771e+000,3.6525490431e+000,4.1094962011e+000,2.8528905926e+000,3.6579241307e+000,3.2192727035e+000,3.6525047195e+000,2.7878317986e+000,3.2757009498e+000,2.6372053557e+000,3.3904021846e+000,
6.3750000000e+000,3.4473094359e+000,4.0019925919e+000,2.5882109900e+000,3.2000836078e+000,3.5658042450e+000,4.0962840920e+000,2.8232590593e+000,3.6418362559e+000,3.1954573023e+000,3.6326838779e+000,2.8028613207e+000,3.2907273557e+000,2.5892434591e+000,3.3985892049e+000,
6.4687500000e+000,3.4113170729e+000,4.0123878161e+000,2.7095138745e+000,3.3149983230e+000,3.4868125807e+000,4.0159611065e+000,2.9023458635e+000,3.5810305292e+000,3.3500064404e+000,3.5700049704e+000,2.9273028364e+000,3.3332930699e+000,2.8033061035e+000,3.4324106467e+000,
6.5625000000e+000,3.4054760513e+000,4.0316650594e+000,2.6846456790e+000,3.3279240571e+000,3.5631085706e+000,4.0219529573e+000,3.0120046078e+000,3.5504281392e+000,3.4501356458e+000,3.5583843218e+000,2.9823321717e+000,3.3569008666e+000,2.8763298908e+000,3.4389268265e+000,
6.6562500000e+000,3.4660602506e+000,4.0381549989e+000,2.7678526825e+000,3.3362238110e+000,3.6524223018e+000,3.9943521581e+000,3.0880024739e+000,3.5783375669e+000,3.5239913458e+000,3.6371769120e+000,3.1236302197e+000,3.4703145634e+000,2.9933915358e+000,3.4899452347e+000,
6.7500000000e+000,3.4621839466e+000,3.9572689553e+000,2.7841317983e+000,3.2904786072e+000,3.7241320679e+000,3.8912036590e+000,3.1440528642e+000,3.5362307931e+000,3.4424452761e+000,3.6213550514e+000,3.1361176879e+000,3.5079059083e+000,2.9697053399e+000,3.4521583258e+000,
6.8437500000e+000,3.4671672145e+000,4.0525011730e+000,2.8721594944e+000,3.3351685381e+000,3.7627653005e+000,3.7212868013e+000,3.2190614766e+000,3.5004171094e+000,3.4018813237e+000,3.5109764350e+000,3.0662563596e+000,3.4319467066e+000,2.9762800560e+000,3.4667979221e+000,
6.9375000000e+000,3.4259228072e+000,4.1182055076e+000,2.8227357042e+000,3.3118517497e+000,3.7940159379e+000,3.6384071233e+000,3.2022400114e+000,3.4363036829e+000,3.3391309654e+000,3.4575216811e+000,2.9853632346e+000,3.3578987476e+000,2.9052280182e+000,3.4084466830e+000,
7.0312500000e+000,3.5350082543e+000,4.1270835706e+000,2.8014271382e+000,3.3821673503e+000,3.8143683549e+000,3.6869132232e+000,3.1865852717e+000,3.4539494399e+000,3.2780557551e+000,3.5224609734e+000,2.9854093978e+000,3.3455253814e+000,2.8868524809e+000,3.3170117940e+000,
7.1250000000e+000,3.7247729926e+000,4.3436600768e+000,2.7937987830e+000,3.3632810579e+000,3.8958362910e+000,3.7986190200e+000,3.2014307608e+000,3.4111003309e+000,3.2081864058e+000,3.4596468038e+000,3.0385057538e+000,3.2998493625e+000,2.8844507951e+000,3.2716727656e+000,
7.2187500000e+000,4.3074677004e+000,4.7759745982e+000,2.8128570823e+000,3.3892653875e+000,4.2982266250e+000,3.9982055611e+000,3.1893279059e+000,3.4333401397e+000,3.1854210557e+000,3.4426500344e+000,2.9998532400e+000,3.2713916949e+000,2.8940055405e+000,3.2356186625e+000,
7.3125000000e+000,4.3670345910e+000,4.7929534551e+000,2.8357912588e+000,3.4034960070e+000,4.2854016806e+000,3.9795978448e+000,3.1736852217e+000,3.4532147783e+000,3.2047518604e+000,3.4845635062e+000,3.0299850241e+000,3.2470802567e+000,2.8891771321e+000,3.1983770097e+000,
7.4062500000e+000,4.3675234174e+000,4.7940813019e+000,2.8692294421e+000,3.4367630316e+000,4.2716323844e+000,4.0212291770e+000,3.1775467527e+000,3.4638432355e+000,3.2540617935e+000,3.5612793455e+000,3.0915324387e+000,3.2611113728e+000,2.9736215690e+000,3.2318772096e+000,
7.5000000000e+000,4.3271613135e+000,4.7532910805e+000,2.8268816605e+000,3.3145493128e+000,4.2712995648e+000,4.0342254989e+000,3.1556274604e+000,3.4281471798e+000,3.1076416325e+000,3.5133401970e+000,3.0122086973e+000,3.0543168012e+000,2.8523747680e+000,3.1140067420e+000,
7.5937500000e+000,4.2899375749e+000,4.7296717254e+000,2.8024575486e+000,3.2850730052e+000,4.2200608372e+000,3.9877030046e+000,3.0869771250e+000,3.3351279061e+000,3.0310319785e+000,3.3688539616e+000,3.0817716447e+000,2.9271391217e+000,2.8525074630e+000,3.0339048351e+000,
7.6875000000e+000,4.2888233371e+000,4.7815784089e+000,2.8337994644e+000,9.2757905779e+000,4.1997954154e+000,4.7298054422e+000,3.0747079447e+000,3.6732370602e+000,2.9960282381e+000,6.4899094977e+000,3.0400097720e+000,2.9758133195e+000,2.9250534270e+000,3.0548987380e+000,
7.7812500000e+000,4.3416207754e+000,6.5705260487e+000,3.4946854486e+000,1.2490980779e+001,4.2370181608e+000,9.6579583474e+000,3.0043408994e+000,6.8396214964e+000,2.8812675906e+000,1.1746164923e+001,3.0143392733e+000,5.9364342193e+000,2.9702416256e+000,5.7689979513e+000,
7.8750000000e+000,4.3460394687e+000,6.7879185766e+000,3.5198692419e+000,1.2722745926e+001,4.2250929734e+000,9.9285114912e+000,2.8815786199e+000,7.0254862222e+000,2.9639399982e+000,1.1972231397e+001,3.0162512941e+000,6.1318467491e+000,3.0614845126e+000,5.9735386090e+000,
7.9687500000e+000,4.3301760449e+000,6.8750805843e+000,3.5256212149e+000,1.2786650297e+001,4.2846635868e+000,1.0071282525e+001,2.8086841427e+000,7.0675233748e+000,2.9253126049e+000,1.2100142162e+001,2.9714960865e+000,6.3191410123e+000,3.0579988949e+000,6.1998357016e+000,
8.0625000000e+000,4.3311765262e+000,6.8953644985e+000,3.5517709548e+000,1.2807036265e+001,4.3110661992e+000,1.0079258030e+001,2.8895977100e+000,7.0793396020e+000,2.9292480473e+000,1.2107066865e+001,2.9503248281e+000,6.3408459093e+000,3.0591383991e+000,6.2289895982e+000,
8.1562500000e+000,4.1415547185e+000,6.8741746304e+000,3.5351497613e+000,1.2808380691e+001,4.2651332889e+000,1.0079136401e+001,2.9474493133e+000,7.0830502932e+000,2.9400895676e+000,1.2107211365e+001,3.0185968366e+000,6.3415756337e+000,3.0787328525e+000,6.2286339268e+000,
8.2500000000e+000,3.4228418716e+000,6.8237773858e+000,3.4760596668e+000,1.2808422013e+001,3.7709969071e+000,1.0078356588e+001,2.9353554258e+000,7.0815162169e+000,2.9001664318e+000,1.2107236261e+001,3.0248232773e+000,6.3433169321e+000,3.1115558635e+000,6.2332230967e+000,
8.3437500000e+000,3.3625102297e+000,6.8225636974e+000,3.4800760602e+000,1.2808417315e+001,3.8390523322e+000,1.0078219206e+001,2.9133022434e+000,7.0810296408e+000,2.9597918042e+000,1.2107219774e+001,2.9751213485e+000,6.3423064011e+000,3.0840496867e+000,6.2332920316e+000,
8.4375000000e+000,3.3743012048e+000,6.8228838278e+000,3.4740329455e+000,1.2808413475e+001,3.8583248255e+000,1.0078276063e+001,2.9506145489e+000,7.0814471460e+000,2.9455884919e+000,1.2107214281e+001,2.8387324150e+000,6.3435692037e+000,2.9712050136e+000,6.2360266433e+000,
8.5312500000e+000,3.4088869817e+000,6.8233037594e+000,3.4211059850e+000,1.2808412524e+001,3.8755074019e+000,1.0078269877e+001,2.9078983302e+000,7.0813238254e+000,2.9051346454e+000,1.2107221083e+001,2.7843316194e+000,6.3445708334e+000,2.9224445435e+000,6.2401168850e+000,
8.6250000000e+000,3.4153713438e+000,6.8241905807e+000,3.4369540787e+000,1.2808401707e+001,3.9007036814e+000,1.0078268403e+001,2.8992425105e+000,7.0811253891e+000,2.9200116168e+000,1.2107222978e+001,2.7517685161e+000,6.3455341885e+000,2.9527891543e+000,6.2439342233e+000,
8.7187500000e+000,3.3620144921e+000,6.6981683188e+000,3.0344502680e+000,1.2629132262e+001,3.9116364927e+000,9.7582778690e+000,2.8903238999e+000,6.8193538645e+000,2.8981852745e+000,1.1733419097e+001,2.6902321855e+000,5.9263534612e+000,2.6904193960e+000,5.9049190534e+000,
8.8125000000e+000,3.2183879759e+000,5.5116463554e+000,2.4976712285e+000,1.1204641783e+001,3.8360025565e+000,8.8324948785e+000,2.9172835988e+000,5.3448306508e+000,2.8497181514e+000,1.0700654646e+001,2.7482772038e+000,5.1785678269e+000,2.5270685632e+000,5.2554845137e+000,
8.9062500000e+000,3.2435246814e+000,4.8400095791e+000,2.6240369510e+000,1.0113294156e+001,3.7395266131e+000,6.7488019417e+000,2.9622307759e+000,4.3024836662e+000,2.9412654123e+000,8.6846719418e+000,2.8430470399e+000,4.1638491431e+000,2.5113777188e+000,4.4915755767e+000,
9.0000000000e+000,3.4618032446e+000,4.0159614473e+000,2.5229270555e+000,8.2460826599e+000,3.7360256628e+000,4.5411326453e+000,2.9599313784e+000,3.5390065228e+000,2.9575175445e+000,6.0851307506e+000,2.9080505910e+000,3.1773679005e+000,2.5627548645e+000,3.5188819346e+000,
9.0937500000e+000,4.2397229749e+000,4.4752777470e+000,2.7496996238e+000,6.0620420251e+000,4.1913881719e+000,3.9746882634e+000,3.0077382437e+000,3.3981829156e+000,2.9917254365e+000,3.9168616581e+000,2.9410382383e+000,2.9558579282e+000,2.5687741801e+000,3.2889307555e+000,
9.1875000000e+000,4.4440493529e+000,4.6805362336e+000,2.8235282039e+000,2.8773918990e+000,4.3473200014e+000,4.1017977761e+000,3.0052377794e+000,3.3304427270e+000,3.0594660902e+000,3.5333763061e+000,2.8523344351e+000,2.8995643919e+000,2.5169277346e+000,3.2375476272e+000,
9.2812500000e+000,4.4953481886e+000,4.6991791885e+000,2.8525806116e+000,2.8460254715e+000,4.4116612573e+000,4.1265314340e+000,3.0586175039e+000,3.4442395724e+000,3.1221564337e+000,3.5889370435e+000,2.9189916364e+000,2.9412153087e+000,2.5720818170e+000,3.2364688626e+000,
9.3750000000e+000,4.5312689697e+000,6.5763214422e+000,3.1389554582e+000,1.2276564958e+001,4.3757120298e+000,9.3013540680e+000,3.1185745549e+000,5.4623534368e+000,3.0026514054e+000,1.1444941258e+001,2.9635485409e+000,4.8758966715e+000,2.7042576918e+000,4.8796177036e+000,
9.4687500000e+000,4.5366205292e+000,6.7898676971e+000,3.2216288423e+000,1.2511960156e+001,4.4008203771e+000,9.6753754007e+000,3.1224177193e+000,6.5672698099e+000,3.0401225457e+000,1.1721738910e+001,3.0457890156e+000,5.3683503383e+000,2.7656092170e+000,5.2471676102e+000,
9.5625000000e+000,4.5157318829e+000,6.8239707459e+000,3.2848958284e+000,1.2536564913e+001,4.3975280793e+000,1.0004644685e+001,3.1105708050e+000,6.5874124097e+000,2.9533575218e+000,1.1969098743e+001,2.9745276249e+000,5.8741042278e+000,2.7138818336e+000,5.6757537453e+000,
9.6562500000e+000,4.5306097481e+000,6.8221726586e+000,3.2977689074e+000,1.2536981887e+001,4.4032780765e+000,1.0011738179e+001,3.1203908264e+000,6.5901005430e+000,2.8993890164e+000,1.1971116936e+001,2.9166403698e+000,5.8763362603e+000,2.6867767391e+000,5.6799973400e+000,
9.7500000000e+000,4.5862425441e+000,6.8268949259e+000,3.3285519323e+000,1.2536995405e+001,4.4275505204e+000,1.0012044051e+001,3.1578748223e+000,6.5929754008e+000,3.0485220203e+000,1.1971175226e+001,2.9091945249e+000,5.8798247344e+000,2.7469799646e+000,5.6839135833e+000,
9.8437500000e+000,4.5842554520e+000,6.8270747038e+000,3.2760256928e+000,1.2536995958e+001,4.4230087647e+000,1.0012103865e+001,3.1715780684e+000,6.5927620845e+000,3.0882226183e+000,1.1971266539e+001,2.7824649864e+000,5.8810082495e+000,2.7777368249e+000,5.6850880002e+000,
9.9375000000e+000,4.5757984298e+000,6.8311006679e+000,3.2616886895e+000,1.2536994443e+001,4.4374809749e+000,1.0012025676e+001,3.1938305622e+000,6.5910606085e+000,3.1132519410e+000,1.1971350420e+001,2.7782756956e+000,5.8816817271e+000,2.7892081669e+000,5.6916727783e+000,
1.0031250000e+001,4.3786828798e+000,6.8231040140e+000,3.2314098053e+000,1.2536987481e+001,4.2849291620e+000,1.0011717959e+001,3.2104390413e+000,6.5896615490e+000,3.1244750968e+000,1.1971360908e+001,2.6965101850e+000,5.8815957980e+000,2.7576970176e+000,5.6980690861e+000,
1.0125000000e+001,3.8609950353e+000,6.7845661007e+000,3.1500999494e+000,1.2536974150e+001,4.0071005661e+000,1.0010778019e+001,3.1532860917e+000,6.5803807801e+000,3.1786374491e+000,1.1971332775e+001,2.6820110826e+000,5.8850327847e+000,2.8423906252e+000,5.7019442130e+000,
1.0218750000e+001,3.7876622406e+000,6.7967992465e+000,3.1472982067e+000,1.2536963432e+001,3.8973067890e+000,1.0010760516e+001,3.1042309576e+000,6.5824552574e+000,3.0855409222e+000,1.1971325159e+001,2.5922226225e+000,5.8833393110e+000,2.7565103694e+000,5.7049738733e+000,
1.0312500000e+001,3.8193419936e+000,6.8087025198e+000,3.1328403895e+000,1.2536212735e+001,3.9259940661e+000,1.0010033724e+001,3.0736197432e+000,6.5732388780e+000,3.0677575077e+000,1.1969851457e+001,2.7189097228e+000,5.8799342360e+000,2.7846639197e+000,5.7015213329e+000,
1.0406250000e+001,3.7519809798e+000,5.4680394439e+000,2.9211879830e+000,1.0729608258e+001,3.9093427803e+000,9.0378720481e+000,3.0524603965e+000,5.7226370288e+000,3.2034812945e+000,1.0853431283e+001,2.7485242226e+000,5.3342798559e+000,2.8415195207e+000,5.1202218175e+000,
1.0500000000e+001,3.8049212115e+000,4.6946742004e+000,2.8265051259e+000,6.9789318005e+000,3.9099293825e+000,7.8608609750e+000,3.0578811934e+000,3.3804403629e+000,3.2198249521e+000,9.3703911876e+000,2.7608234301e+000,4.3124180550e+000,2.8485940080e+000,4.1998275698e+000,
1.0593750000e+001,3.8306355506e+000,4.8695030261e+000,2.8717117785e+000,3.9080942063e+000,3.9267603935e+000,4.4836995511e+000,3.1092407286e+000,3.4013808169e+000,3.2229460769e+000,4.7867698844e+000,2.7201965824e+000,2.9510905301e+000,2.8326209146e+000,3.3310757192e+000,
1.0687500000e+001,3.7340419558e+000,4.8613379208e+000,2.8477063698e+000,9.0876359036e-001,3.9071611721e+000,3.9144151572e+000,3.0283273887e+000,3.3913939058e+000,3.2274868779e+000,4.1688169860e+000,2.6514002306e+000,2.9192092217e+000,2.8694331205e+000,3.3277909026e+000,
1.0781250000e+001,3.7898841908e+000,4.9262400886e+000,2.8873290312e+000,2.4739883533e-002,3.9932733893e+000,4.2597268021e+000,2.9389842972e+000,3.6445901405e+000,3.2399002115e+000,4.1952311763e+000,2.7231450045e+000,2.8699671910e+000,2.9179435140e+000,3.3021776957e+000,
1.0875000000e+001,3.8139335694e+000,4.9470710673e+000,2.9326486131e+000,1.4981177271e-003,3.9724572574e+000,4.2599857111e+000,2.8465486124e+000,3.6761461904e+000,3.1785244237e+000,3.8017890481e+000,2.7090546183e+000,2.9660449958e+000,2.9712923044e+000,3.3493246062e+000,
1.0968750000e+001,4.2310633389e+000,5.0534461561e+000,3.8177920465e+000,2.2971051070e-005,4.3599087666e+000,4.5488525923e+000,3.6670142691e+000,4.1228355269e+000,3.9458457656e+000,4.1071341145e+000,3.5924037016e+000,3.6122349719e+000,3.7468165740e+000,3.8322162721e+000,
1.1062500000e+001,5.5587886179e+000,5.8585536296e+000,5.3825341456e+000,9.6172065496e-007,5.6197079695e+000,5.7284356461e+000,5.4289553567e+000,5.4529210678e+000,5.4869071939e+000,5.8278628062e+000,5.2778409455e+000,5.4360672878e+000,5.3750936893e+000,5.4983097260e+000,
1.1156250000e+001,5.6973783463e+000,5.9195856370e+000,5.5250186115e+000,3.1554272474e-008,5.7434859706e+000,5.8523059995e+000,5.5729372356e+000,5.5638740654e+000,5.6217520425e+000,5.9551569480e+000,5.4023696508e+000,5.5463669844e+000,5.5185484480e+000,5.6387125880e+000,
1.1250000000e+001,5.7059153176e+000,5.8376157708e+000,5.5336949974e+000,4.9830406455e-010,5.7754994117e+000,5.8420377227e+000,5.5899089342e+000,5.5675295258e+000,5.6315583505e+000,5.9623398745e+000,5.4008762067e+000,5.5478013119e+000,5.5241098931e+000,5.6423364147e+000,
1.1343750000e+001,5.7564335180e+000,5.8912097342e+000,5.5475578147e+000,3.0592417488e-011,5.8521332145e+000,5.8809120065e+000,5.6085806322e+000,5.5817944048e+000,5.6364654917e+000,5.9729940493e+000,5.3988198762e+000,5.5517977008e+000,5.5244745816e+000,5.6383545019e+000,
1.1437500000e+001,5.7709623577e+000,5.8994290322e+000,5.5514713537e+000,4.9538151359e-013,5.8686986770e+000,5.8754574305e+000,5.6135183199e+000,5.5803153897e+000,5.6347117466e+000,5.9741969353e+000,5.3986099076e+000,5.5581801685e+000,5.5207447160e+000,5.6381509321e+000,
1.1531250000e+001,5.7646025424e+000,5.8219429510e+000,5.5471694583e+000,1.6241622851e-001,5.8624964791e+000,5.8667220679e+000,5.6138964768e+000,5.5727038891e+000,5.6358129214e+000,5.9687383423e+000,5.3914772431e+000,5.5615512383e+000,5.5188197894e+000,5.6383640732e+000,
1.1625000000e+001,5.7598012271e+000,5.8061548475e+000,5.5464261460e+000,8.5719889616e-001,5.8590093322e+000,5.8628161333e+000,5.6084987072e+000,5.5711608343e+000,5.6369071878e+000,5.9772427664e+000,5.3961874251e+000,5.5687713815e+000,5.5184087121e+000,5.6434506691e+000,
1.1718750000e+001,5.7576650728e+000,5.7814353859e+000,5.5469864376e+000,1.2764619562e+000,5.8503844623e+000,5.8091353523e+000,5.6079615558e+000,5.5443883102e+000,5.6308955417e+000,5.9706178271e+000,5.3927822941e+000,5.5694093589e+000,5.5101122077e+000,5.6407431991e+000,
1.1812500000e+001,5.7526742983e+000,5.7640181326e+000,5.5438190740e+000,2.2610201860e+000,5.8401171695e+000,5.7806327252e+000,5.6110968426e+000,5.5364185797e+000,5.6264454208e+000,5.9665122840e+000,5.3873168335e+000,5.5684257732e+000,5.5066011688e+000,5.6402661481e+000,
1.1906250000e+001,5.7533717095e+000,5.7606631561e+000,5.5371609846e+000,2.6563799799e+000,5.8417963719e+000,5.7831808753e+000,5.6114924413e+000,5.5378684707e+000,5.6356656114e+000,5.9692452457e+000,5.3985841262e+000,5.5710404857e+000,5.5114729115e+000,5.6415477911e+000,
1.2000000000e+001,5.3101084424e+000,5.3058032835e+000,5.0462972908e+000,2.8203602423e+000,5.5175787805e+000,5.3604770985e+000,5.1314003909e+000,5.1054430532e+000,5.2016985050e+000,5.5173999056e+000,4.8823012874e+000,5.0765601704e+000,5.0530757998e+000,5.1861717826e+000,
1.2093750000e+001,4.3021935782e+000,4.2503352252e+000,3.5760430329e+000,3.1164005160e+000,4.5682566792e+000,4.1143413042e+000,3.7193493148e+000,3.7223107687e+000,3.7856365256e+000,4.0136317208e+000,3.2647112050e+000,3.4918887309e+000,3.4327030257e+000,3.5872103018e+000,
1.2187500000e+001,3.9851895881e+000,4.0203020578e+000,2.9509388212e+000,3.2136410372e+000,4.3203556843e+000,3.7785405021e+000,3.1634121227e+000,3.3008690238e+000,3.3851923954e+000,3.5130313359e+000,2.7589664859e+000,3.1125262045e+000,2.9166642346e+000,3.1413502642e+000,
1.2281250000e+001,3.7440240625e+000,3.9526987577e+000,2.7715460242e+000,4.2045907800e+000,4.1034877053e+000,3.5281931608e+000,3.0216929268e+000,3.2000198026e+000,3.3016324308e+000,3.4600031287e+000,2.6508963630e+000,3.1045833904e+000,2.8110004159e+000,3.1185743025e+000,
1.2375000000e+001,3.0520851307e+000,3.4754992103e+000,2.5641023255e+000,4.2375953382e+000,3.4279755572e+000,3.1896022260e+000,2.8045977535e+000,3.1690888596e+000,3.3456810252e+000,3.3552770109e+000,2.7225675960e+000,3.1530163147e+000,2.7909035369e+000,3.1321572021e+000,
1.2468750000e+001,3.0439661264e+000,3.4760658854e+000,2.5777591374e+000,4.2615348059e+000,3.4808538106e+000,3.1855641463e+000,2.7481899053e+000,3.2354598635e+000,3.3325947543e+000,3.2789970163e+000,2.6720914053e+000,3.0960437974e+000,2.7851795477e+000,3.1010349280e+000,
1.2562500000e+001,3.0109200702e+000,3.4802633250e+000,2.5464787995e+000,4.3309039644e+000,3.6978268874e+000,3.2585575966e+000,2.7597449879e+000,3.3775393341e+000,3.3298644444e+000,3.2345397094e+000,2.6632399978e+000,3.1342162125e+000,2.7190390479e+000,3.1253566282e+000,
1.2656250000e+001,3.0158348555e+000,3.3767052842e+000,2.4024493078e+000,4.3497974780e+000,3.7345862423e+000,3.3069850823e+000,2.7606539119e+000,3.3705813710e+000,3.3611619781e+000,3.1357077203e+000,2.7758389871e+000,3.1059618468e+000,2.6597492506e+000,3.1612030653e+000,
1.2750000000e+001,3.0310984934e+000,3.4155053163e+000,2.5607923008e+000,4.3329641186e+000,3.7662165543e+000,3.2697565971e+000,2.7031338270e+000,3.3999007801e+000,3.3587946387e+000,3.1562686823e+000,2.7965738237e+000,3.1030587309e+000,2.5959969237e+000,3.1813014955e+000,
1.2843750000e+001,2.9997099830e+000,3.4064713295e+000,2.5406271684e+000,4.2855075918e+000,3.8064634332e+000,3.2531281109e+000,2.6643985267e+000,3.3823049490e+000,3.3335775254e+000,3.0782597698e+000,2.8371106649e+000,3.0290469308e+000,2.5255401396e+000,3.1371446086e+000,
1.2937500000e+001,2.9698300478e+000,3.6687068646e+000,2.5364925175e+000,4.3796194815e+000,3.8102522843e+000,3.7029709248e+000,2.7538158797e+000,3.7039349396e+000,3.3213069593e+000,3.2329094963e+000,2.6561989025e+000,3.0333451733e+000,2.3195585183e+000,3.0340901904e+000,
1.3031250000e+001,2.9931082912e+000,3.8445828770e+000,2.4956190905e+000,4.3927627564e+000,3.8145558731e+000,3.9570581815e+000,2.6988960063e+000,3.8803388366e+000,3.2683423571e+000,3.4822487500e+000,2.6460386438e+000,3.1980399147e+000,2.5143978111e+000,3.3641019269e+000,
1.3125000000e+001,3.0506378485e+000,3.8951085832e+000,2.4918250594e+000,4.3628443325e+000,3.6889376725e+000,4.0378106440e+000,2.7797224822e+000,3.9876272536e+000,3.1415908425e+000,3.6272601723e+000,2.4847849003e+000,3.2398510103e+000,2.4179217169e+000,3.3474869340e+000,
1.3218750000e+001,3.3021801025e+000,4.0665743219e+000,2.6233109718e+000,3.9452096624e+000,3.7532908422e+000,4.0839027285e+000,2.7239107192e+000,4.0090879520e+000,3.1344658841e+000,3.6165265143e+000,2.5342441665e+000,3.1581759808e+000,2.3041986675e+000,3.3308906308e+000,
1.3312500000e+001,3.4049703867e+000,4.1312084222e+000,2.5867728864e+000,3.6700867411e+000,3.8388003704e+000,4.1053130629e+000,2.6643808417e+000,4.0109141286e+000,3.0994538393e+000,3.6131876269e+000,2.5945082641e+000,3.1635697311e+000,2.3075787272e+000,3.3242723618e+000,
1.3406250000e+001,3.4392012869e+000,4.0968275001e+000,2.6453663658e+000,3.7148783786e+000,3.7460175404e+000,4.1292805207e+000,2.6748824673e+000,3.9669438323e+000,3.0221620457e+000,3.6793795087e+000,2.5540058158e+000,3.1641486709e+000,2.2332042984e+000,3.3429281617e+000,
1.3500000000e+001,3.5282352910e+000,4.0897773158e+000,2.7527522161e+000,3.7190272500e+000,3.7320182064e+000,4.1412287666e+000,2.6758599585e+000,3.9592777958e+000,3.0560984280e+000,3.7282343038e+000,2.6498519138e+000,3.2322618910e+000,2.3893432428e+000,3.4300835465e+000,
1.3593750000e+001,3.5551869341e+000,4.1969909591e+000,2.8038142610e+000,3.5971102880e+000,3.5261377703e+000,4.0621708489e+000,2.7140232375e+000,3.8836960108e+000,3.0274972942e+000,3.7154432793e+000,2.6807286889e+000,3.0705155750e+000,2.4450296863e+000,3.2432425816e+000,
1.3687500000e+001,3.4975312052e+000,4.2510648563e+000,2.7523228155e+000,3.6160319084e+000,3.5513691595e+000,4.1891572277e+000,2.6729234604e+000,3.9141890514e+000,2.9450269895e+000,3.7354616032e+000,2.6367539752e+000,3.0433281626e+000,2.4610613744e+000,3.2721793049e+000,
1.3781250000e+001,3.4894968352e+000,4.2584014146e+000,2.6414407549e+000,3.5860537424e+000,3.5254447663e+000,4.2011191406e+000,2.7145860560e+000,3.8849146958e+000,2.9849036414e+000,3.7267210571e+000,2.5770700079e+000,3.0459960974e+000,2.5907221242e+000,3.2891132504e+000,
1.3875000000e+001,3.5553692705e+000,4.2398391759e+000,2.6896496455e+000,3.5453712789e+000,3.5238893198e+000,4.2111665837e+000,2.8074361875e+000,3.9003321620e+000,3.0997287841e+000,3.7852762618e+000,2.6114522131e+000,3.0893973143e+000,2.7294206134e+000,3.3265432695e+000,
1.3968750000e+001,3.6031097636e+000,4.0342261764e+000,2.6946590988e+000,3.2413357674e+000,3.4769506624e+000,3.8979729960e+000,2.7396292009e+000,3.6052555435e+000,3.0208808992e+000,3.6200687077e+000,2.6093711460e+000,2.9947620351e+000,2.7350644155e+000,3.2625335067e+000,
1.4062500000e+001,3.6625085378e+000,4.0680388007e+000,2.8050526977e+000,3.2274959823e+000,3.4766946567e+000,3.7231641288e+000,2.6328717611e+000,3.3654173319e+000,3.1282744591e+000,3.4219801151e+000,2.6369061457e+000,2.8037588384e+000,2.6357385283e+000,3.0344007706e+000,
1.4156250000e+001,3.5855258109e+000,3.9462161393e+000,2.8311971626e+000,3.2236959047e+000,3.3916333383e+000,3.7561582496e+000,2.5352419804e+000,3.3282170552e+000,3.1152691690e+000,3.4137382542e+000,2.5853507370e+000,2.8929815833e+000,2.6329964710e+000,3.1113475329e+000,
1.4250000000e+001,3.4747298093e+000,3.7627206646e+000,2.7810403169e+000,3.1561316359e+000,3.2568556845e+000,3.6688414832e+000,2.5445966226e+000,3.2383796131e+000,3.2085501251e+000,3.3489746326e+000,2.5925107157e+000,2.8583455428e+000,2.7779016723e+000,3.1777612741e+000,
1.4343750000e+001,3.5005578618e+000,3.6660711182e+000,2.7754825403e+000,2.9614626105e+000,3.1533060606e+000,3.6348123229e+000,2.5348874838e+000,3.2405666208e+000,3.3102764475e+000,3.3991490918e+000,2.5168134904e+000,2.8559644613e+000,2.8057343726e+000,3.1835996223e+000,
1.4437500000e+001,3.4908201055e+000,3.7038728544e+000,2.6894146016e+000,2.9840300184e+000,3.2791709724e+000,3.6296399998e+000,2.4252315664e+000,3.2376319788e+000,3.2939792363e+000,3.4147019521e+000,2.5375301232e+000,2.8234542462e+000,2.8005365194e+000,3.2507932216e+000,
1.4531250000e+001,3.3933904512e+000,3.6485187910e+000,2.4919766425e+000,2.9035009437e+000,3.2395845257e+000,3.6392749716e+000,2.5033411444e+000,3.2152495367e+000,3.3570365557e+000,3.3260879917e+000,2.5360571746e+000,2.7150401266e+000,2.8554379054e+000,3.1575596955e+000,
1.4625000000e+001,4.7967473855e+000,4.8899741338e+000,4.4051881016e+000,4.7530729948e+000,4.7003693752e+000,5.1543607303e+000,4.3689937118e+000,4.7860101518e+000,4.7738475663e+000,5.0747790628e+000,4.3150013073e+000,4.6027103394e+000,4.6064575981e+000,4.7133363453e+000,
1.4718750000e+001,5.0265995214e+000,5.1493377818e+000,4.7196447731e+000,4.9750321772e+000,4.8680423241e+000,5.3270308524e+000,4.6667913960e+000,5.0104720530e+000,4.9471914545e+000,5.2788683627e+000,4.5442245538e+000,4.8309370544e+000,4.8166995390e+000,4.9180045712e+000,
1.4812500000e+001,5.0318099774e+000,5.1623431504e+000,4.7226345007e+000,4.9778052853e+000,4.9097792508e+000,5.3269896781e+000,4.6837798351e+000,5.0219779654e+000,4.9651881598e+000,5.2756933127e+000,4.5605156861e+000,4.8309768532e+000,4.8406396368e+000,4.9123019524e+000,
1.4906250000e+001,5.0084796286e+000,5.1650661379e+000,4.7114340467e+000,4.9765193616e+000,4.9084911859e+000,5.3215247340e+000,4.6848885397e+000,5.0161892694e+000,4.9581618450e+000,5.2756654515e+000,4.5628118488e+000,4.8316003091e+000,4.8377922895e+000,4.9156447391e+000,
1.5000000000e+001,5.0110103456e+000,5.1612685897e+000,4.7141554166e+000,4.9793715773e+000,4.9046102548e+000,5.3173504857e+000,4.7060855843e+000,5.0034449106e+000,4.9581677832e+000,5.2758055919e+000,4.5813450892e+000,4.8343400167e+000,4.8382645817e+000,4.9195323138e+000,
1.5093750000e+001,4.9896670486e+000,5.1333245245e+000,4.7012722235e+000,4.9636341614e+000,4.8970693660e+000,5.2819130462e+000,4.7124293090e+000,4.9903001607e+000,4.9486021454e+000,5.2554798831e+000,4.5901992141e+000,4.8240357494e+000,4.8390880149e+000,4.9165901883e+000,
1.5187500000e+001,5.0091837813e+000,5.1555126423e+000,4.7087373064e+000,4.9667934545e+000,4.9189179716e+000,5.2825436213e+000,4.7590110161e+000,4.9938915909e+000,4.9670586428e+000,5.2677463592e+000,4.6105901623e+000,4.8363587185e+000,4.8531516654e+000,4.9198310231e+000,
1.5281250000e+001,5.0076443852e+000,5.1621798614e+000,4.7052428361e+000,4.9695566397e+000,4.9778140777e+000,5.2902775994e+000,4.7750567852e+000,4.9967418130e+000,4.9493105564e+000,5.2745214894e+000,4.6243482169e+000,4.8405781252e+000,4.8470739064e+000,4.9023004703e+000,
1.5375000000e+001,4.9898845579e+000,5.1658692123e+000,4.7095573045e+000,4.9722002941e+000,4.9859673127e+000,5.2855828685e+000,4.7718407069e+000,4.9881277086e+000,4.9443428393e+000,5.2668665118e+000,4.6309399925e+000,4.8498489486e+000,4.8515122540e+000,4.9042262033e+000,
1.5468750000e+001,4.9899410546e+000,5.1819338891e+000,4.7194484428e+000,4.9805703629e+000,5.0168614635e+000,5.2949337507e+000,4.7766694362e+000,5.0083253309e+000,4.9611610709e+000,5.2752940817e+000,4.6410230508e+000,4.8505499609e+000,4.8624866122e+000,4.8942132838e+000,
1.5562500000e+001,4.8495723304e+000,5.0347932770e+000,4.5575870199e+000,4.8183405302e+000,4.8873034744e+000,5.0768223060e+000,4.6528630625e+000,4.8334180473e+000,4.7853010576e+000,5.1142275317e+000,4.4643247609e+000,4.6708682360e+000,4.7012835674e+000,4.7363007060e+000,
1.5656250000e+001,3.6117829695e+000,3.7660787226e+000,2.8868862488e+000,3.1698761428e+000,3.9519756833e+000,3.4453903847e+000,3.3433292573e+000,3.3837803261e+000,3.5964980841e+000,3.5747214986e+000,3.2096013623e+000,3.2118447034e+000,3.3725926176e+000,3.1015790689e+000,
1.5750000000e+001,3.5112658115e+000,3.6000470249e+000,2.4919613289e+000,3.0115159220e+000,3.8776617071e+000,3.0314217166e+000,3.1460582110e+000,3.1761692070e+000,3.2939416559e+000,3.2410332369e+000,2.9732554008e+000,2.8239600337e+000,3.0067409577e+000,2.9210835942e+000,
1.5843750000e+001,3.4900321268e+000,3.5129319143e+000,2.4886040483e+000,2.9229071447e+000,3.8552079156e+000,2.9695968190e+000,3.0732749588e+000,3.1650677787e+000,3.2173705663e+000,3.1984413238e+000,2.9898755391e+000,2.8327093205e+000,2.9563339691e+000,3.0121301463e+000,
1.5937500000e+001,3.5149159664e+000,3.4844282821e+000,2.5432690920e+000,2.9619836542e+000,3.8346748175e+000,3.0178372455e+000,3.0544013440e+000,3.2322073247e+000,3.1878481129e+000,3.1927555787e+000,2.9924365062e+000,2.8383325320e+000,2.9416417446e+000,3.1383424471e+000,
1.6031250000e+001,3.4033814282e+000,3.5547270010e+000,2.5487473792e+000,3.0591208664e+000,3.8972364680e+000,3.0269454207e+000,2.9558380240e+000,3.3577451622e+000,3.1752534867e+000,3.2247825390e+000,2.9381671466e+000,2.8361068794e+000,2.9414212502e+000,3.1496850137e+000,
1.6125000000e+001,3.3640442354e+000,3.5274705123e+000,2.5198267563e+000,3.0799407352e+000,3.9237847081e+000,3.0115688694e+000,2.8690081436e+000,3.4632296432e+000,3.1499001698e+000,3.2445804604e+000,2.8441392289e+000,2.6914120751e+000,2.8716783255e+000,3.0401805442e+000,
1.6218750000e+001,3.3276239896e+000,3.7929251657e+000,2.4419319437e+000,3.1053760179e+000,3.8309169242e+000,3.0291334279e+000,2.5428053868e+000,3.4676568277e+000,3.1192829740e+000,3.1955045294e+000,2.8506784538e+000,2.6368910708e+000,2.8725712553e+000,3.0678356754e+000,
1.6312500000e+001,3.2614633719e+000,3.8335967287e+000,2.4750035139e+000,3.0905256269e+000,3.7836072424e+000,2.9144855195e+000,2.4664425928e+000,3.4743983527e+000,3.1061319825e+000,3.1701365722e+000,2.7782886337e+000,2.6261264639e+000,2.8208036053e+000,3.1107255999e+000,
1.6406250000e+001,3.3235923073e+000,3.8344266360e+000,2.4248018509e+000,3.1001212610e+000,3.7490158031e+000,2.9852536600e+000,2.5589562363e+000,3.5634451889e+000,3.0256314011e+000,3.1669864500e+000,2.7134296501e+000,2.4942081548e+000,2.7140624480e+000,3.1095800269e+000,
1.6500000000e+001,3.5939998788e+000,4.0002258026e+000,2.5106814608e+000,3.0851724155e+000,3.7947001914e+000,2.9156583204e+000,2.7589454709e+000,3.4787021702e+000,2.9598732373e+000,3.1023330107e+000,2.7340186221e+000,2.5776364977e+000,2.6523291289e+000,3.1254940573e+000,
1.6593750000e+001,3.9047843201e+000,4.2289529101e+000,2.5559347100e+000,3.0708114237e+000,3.9699511728e+000,3.0845667905e+000,3.0066402181e+000,3.5058783330e+000,2.9762827574e+000,3.0863213133e+000,2.7282508927e+000,2.6522849505e+000,2.7327031032e+000,3.1399530445e+000,
1.6687500000e+001,4.0015554686e+000,4.2891960273e+000,2.5800994276e+000,3.0614020287e+000,4.0075279014e+000,3.1927573377e+000,3.0070662001e+000,3.4959218102e+000,2.9796191980e+000,3.1723692510e+000,2.7206349612e+000,2.8651015876e+000,2.7449707000e+000,3.3762336905e+000,
1.6781250000e+001,4.0074205357e+000,4.3517898823e+000,2.6455043328e+000,3.0474132792e+000,3.9602618711e+000,3.2651529496e+000,3.0819294972e+000,3.4494877566e+000,2.9627006969e+000,3.2194168321e+000,2.6154162275e+000,2.9366242218e+000,2.7079920001e+000,3.3619050479e+000,
1.6875000000e+001,3.9847276822e+000,4.4269118981e+000,2.6275499778e+000,3.0847585318e+000,3.9454477185e+000,3.3579926803e+000,3.0322816451e+000,3.5261704522e+000,2.9057855261e+000,3.3105291925e+000,2.6441515781e+000,2.8800329922e+000,2.6557397489e+000,3.3200935082e+000,
1.6968750000e+001,3.9750114182e+000,4.3765787881e+000,2.5327595411e+000,2.9637768888e+000,3.8775437002e+000,3.3328747479e+000,3.0719879050e+000,3.4936766841e+000,2.8688573221e+000,3.2133401010e+000,2.6809740132e+000,2.9064075649e+000,2.6024964863e+000,3.2021840975e+000,
1.7062500000e+001,3.9931567847e+000,4.3790815745e+000,2.5385251293e+000,2.9546855729e+000,3.9158884881e+000,3.3465986583e+000,3.1596658294e+000,3.4342568736e+000,3.0080474289e+000,3.2167088484e+000,2.7678670711e+000,2.9243772022e+000,2.6779243336e+000,3.1731806007e+000,
1.7156250000e+001,4.0011864969e+000,4.3375204042e+000,2.6482272020e+000,2.9501621578e+000,3.8687174399e+000,3.4151443657e+000,3.3016057459e+000,3.3835379703e+000,3.1348025793e+000,3.3411593867e+000,2.8230793384e+000,3.0611105641e+000,2.9076183418e+000,3.2853311530e+000,
1.7250000000e+001,4.2961691895e+000,4.4027282809e+000,3.4205728752e+000,3.5937151561e+000,4.2679248938e+000,3.8324714685e+000,3.8109127095e+000,3.7918940149e+000,3.6670137257e+000,3.9380332222e+000,3.3786311984e+000,3.5948828255e+000,3.4873957419e+000,3.7642669339e+000,
1.7343750000e+001,5.6077032914e+000,5.7041484739e+000,5.3158200242e+000,5.4755127976e+000,5.5827346756e+000,5.5586255337e+000,5.3796728326e+000,5.4569585396e+000,5.4084947102e+000,5.7314590314e+000,5.1276228360e+000,5.3671841063e+000,5.3224895524e+000,5.5184012866e+000,
1.7437500000e+001,5.6778617268e+000,5.7910299003e+000,5.4160463242e+000,5.5893597133e+000,5.6512774978e+000,5.6771400602e+000,5.4604486765e+000,5.5591887415e+000,5.4939759546e+000,5.8713035705e+000,5.2325186484e+000,5.4746429584e+000,5.4205072218e+000,5.6191264932e+000,
1.7531250000e+001,5.6466490268e+000,5.7664119698e+000,5.4167476000e+000,5.5901182859e+000,5.6223989609e+000,5.6770333613e+000,5.4535841693e+000,5.5637836841e+000,5.5071851652e+000,5.8759320630e+000,5.2348434640e+000,5.4781184261e+000,5.4271635006e+000,5.6283041158e+000,
1.7625000000e+001,5.5890595613e+000,5.7391841686e+000,5.4321843762e+000,5.6046822058e+000,5.6020852767e+000,5.6803808051e+000,5.4459633858e+000,5.5667576609e+000,5.5137199697e+000,5.8906422000e+000,5.2367016283e+000,5.4767808995e+000,5.4300954865e+000,5.6222820366e+000,
1.7718750000e+001,5.5807558217e+000,5.7162053544e+000,5.4305569372e+000,5.6035174713e+000,5.5930628315e+000,5.6731255621e+000,5.4488258480e+000,5.5593218757e+000,5.5227246040e+000,5.8905460008e+000,5.2389946379e+000,5.4827160810e+000,5.4361612121e+000,5.6222770769e+000,
1.7812500000e+001,5.5844711823e+000,5.6981014794e+000,5.4296536706e+000,5.6064205601e+000,5.5943601228e+000,5.6678433424e+000,5.4456166784e+000,5.5600476315e+000,5.5146528168e+000,5.8907542030e+000,5.2385568234e+000,5.4840113019e+000,5.4311359425e+000,5.6241664134e+000,
1.7906250000e+001,5.5928774254e+000,5.6950907529e+000,5.4339237151e+000,5.6138323690e+000,5.5949495850e+000,5.6711983096e+000,5.4472439547e+000,5.5576108858e+000,5.5222581052e+000,5.8946247547e+000,5.2391380109e+000,5.4897675877e+000,5.4361599880e+000,5.6256650558e+000,
1.8000000000e+001,5.5957447626e+000,5.6958894654e+000,5.4359119231e+000,5.6134144444e+000,5.5983507986e+000,5.6720710083e+000,5.4426338208e+000,5.5504588536e+000,5.5228654704e+000,5.8986229405e+000,5.2408221102e+000,5.4938882972e+000,5.4379814563e+000,5.6316294327e+000,
1.8093750000e+001,5.6010300942e+000,5.7013437200e+000,5.4363956542e+000,5.6130713274e+000,5.5957748731e+000,5.6742512137e+000,5.4307576111e+000,5.5533258701e+000,5.5111061634e+000,5.8987847619e+000,5.2369999726e+000,5.4983725756e+000,5.4316199684e+000,5.6242819874e+000,
1.8187500000e+001,5.5979226997e+000,5.7026893485e+000,5.4289446503e+000,5.6093403349e+000,5.5880581968e+000,5.6723840846e+000,5.4257045059e+000,5.5498296715e+000,5.5072177862e+000,5.8930957888e+000,5.2331950608e+000,5.4917142501e+000,5.4226969157e+000,5.6123479173e+000,
1.8281250000e+001,5.0641926756e+000,5.1964414581e+000,4.9256652085e+000,5.1245760922e+000,5.0897688174e+000,5.1992203052e+000,4.9281976629e+000,5.0183749250e+000,5.0528237021e+000,5.4356708459e+000,4.7241601528e+000,5.0091188930e+000,4.9304465606e+000,5.1438747632e+000,
1.8375000000e+001,3.7033994428e+000,3.8113680196e+000,3.3706941594e+000,3.6000704874e+000,3.7235335781e+000,3.7865023095e+000,3.3992698859e+000,3.7019745706e+000,3.6872216201e+000,3.9622329169e+000,3.3359370982e+000,3.5893048270e+000,3.4959407359e+000,3.6101612437e+000,
1.8468750000e+001,3.4551905582e+000,3.4987305191e+000,2.8694641069e+000,3.1597605391e+000,3.4908619414e+000,3.3875402990e+000,2.9229373733e+000,3.3602890853e+000,3.3361055134e+000,3.5985939085e+000,2.7995706472e+000,3.3365033383e+000,3.0498936072e+000,3.1976302292e+000,
1.8562500000e+001,3.4481825543e+000,3.4702591460e+000,2.8727428917e+000,3.1909758915e+000,3.5162064051e+000,3.3871744408e+000,2.9089400111e+000,3.3303519704e+000,3.2307501637e+000,3.5539082620e+000,2.6944731572e+000,3.3435767198e+000,2.9605119443e+000,3.2518045110e+000,
1.8656250000e+001,3.2520838916e+000,3.3319921704e+000,2.5484684850e+000,2.9971104812e+000,3.4859855808e+000,3.3583805885e+000,2.7834501053e+000,3.2341789649e+000,3.1457830367e+000,3.3272743637e+000,2.7007205310e+000,3.2595790731e+000,2.9066496719e+000,3.1357238718e+000,
1.8750000000e+001,3.4092591801e+000,3.3842686248e+000,2.5650430909e+000,3.0506598570e+000,3.4956790680e+000,3.4412222104e+000,2.7734116951e+000,3.2408213188e+000,3.1387487704e+000,3.3704960893e+000,2.6752314248e+000,3.2891444807e+000,2.8563339401e+000,3.0719391104e+000,
1.8843750000e+001,3.7569784808e+000,3.8236705891e+000,2.5383554466e+000,3.0142351249e+000,3.7983446160e+000,3.5895573077e+000,2.7732120278e+000,3.2543863410e+000,3.1585665761e+000,3.3408464785e+000,2.7558587904e+000,3.2617158880e+000,2.9555724189e+000,3.0793374148e+000,
1.8937500000e+001,4.1703896007e+000,4.2412084771e+000,2.5973797827e+000,3.0964402144e+000,4.0683321464e+000,3.8743319277e+000,2.9382056027e+000,3.3796763270e+000,3.2767651372e+000,3.4389347943e+000,2.6867327994e+000,3.2993717133e+000,2.9909755390e+000,3.1065042003e+000,
1.9031250000e+001,4.2711805503e+000,4.3847890479e+000,2.7163142407e+000,3.1445824306e+000,4.0965976238e+000,3.9175708948e+000,3.0871435879e+000,3.4238633950e+000,3.2219659841e+000,3.4469772904e+000,2.6254778739e+000,3.2762057547e+000,2.8963797172e+000,3.0946492751e+000,
1.9125000000e+001,4.2820164800e+000,4.3971108008e+000,2.6896391936e+000,3.1596949978e+000,4.1144243106e+000,3.9488468434e+000,2.9963675442e+000,3.4766882932e+000,3.2322917513e+000,3.4653813822e+000,2.6797779526e+000,3.2483363859e+000,2.8456457552e+000,3.0895018252e+000,
1.9218750000e+001,4.2894103329e+000,4.4270189702e+000,2.6577343151e+000,3.1506021638e+000,4.0912967470e+000,3.9441492899e+000,2.9107735065e+000,3.4788515665e+000,3.2172321524e+000,3.4406943212e+000,2.5732514765e+000,3.2496941651e+000,2.7842877676e+000,3.0832986118e+000,
1.9312500000e+001,4.3312660546e+000,4.4452028573e+000,2.5998838422e+000,3.1046840177e+000,4.0992406119e+000,3.8790261740e+000,2.9032020417e+000,3.3520859509e+000,3.1920302979e+000,3.3759898872e+000,2.5849176488e+000,3.1575535443e+000,2.6937698461e+000,3.0512407873e+000,
1.9406250000e+001,4.3180493838e+000,4.4323587539e+000,2.6353633807e+000,3.1577609320e+000,4.1006339584e+000,3.8664491512e+000,2.9411395692e+000,3.3137289033e+000,3.1606308173e+000,3.3791720554e+000,2.5939372368e+000,3.2576023328e+000,2.6039971708e+000,3.1784369363e+000,
1.9500000000e+001,4.3240432700e+000,4.4222245971e+000,2.5678957232e+000,3.1266306114e+000,4.0998892152e+000,3.8843857277e+000,2.9717000029e+000,3.3736808773e+000,3.0943529583e+000,3.3659875301e+000,2.5979353139e+000,3.1537789603e+000,2.6072225749e+000,3.0425312009e+000,
1.9593750000e+001,4.3471130177e+000,4.4109926800e+000,2.6342844441e+000,3.1708189536e+000,4.0787156296e+000,3.8926365215e+000,3.0265309837e+000,3.4186541627e+000,3.0506266013e+000,3.4482360950e+000,2.6414180173e+000,3.1250442677e+000,2.6513384370e+000,3.0607464012e+000,
1.9687500000e+001,4.3573885807e+000,4.4018863883e+000,2.7156824707e+000,3.1681447403e+000,4.0794613020e+000,3.7982579823e+000,3.0913383761e+000,3.3688941906e+000,3.0811438160e+000,3.4752261636e+000,2.6770961493e+000,3.1016033477e+000,2.6859223135e+000,3.0553131395e+000,
1.9781250000e+001,4.3220671130e+000,4.4046082830e+000,2.7306918718e+000,3.1539626055e+000,4.1530615098e+000,3.7649728509e+000,3.1310743757e+000,3.3627072875e+000,3.1462306949e+000,3.4193814841e+000,2.8173898585e+000,3.0368752438e+000,2.8128331728e+000,3.1318987930e+000,
1.9875000000e+001,4.0323426899e+000,4.1526612571e+000,2.7514781094e+000,3.0771214295e+000,3.9115060162e+000,3.6228851691e+000,3.1611737078e+000,3.3666014968e+000,3.4523346020e+000,3.3802621498e+000,2.8304353257e+000,2.9297221481e+000,2.9030361140e+000,3.0774423200e+000,
1.9968750000e+001,4.4258320649e+000,4.5485409620e+000,3.0705555605e+000,3.2712783634e+000,5.5894062491e+000,3.7685019238e+000,4.1070309820e+000,3.6956963572e+000,3.7787849249e+000,3.7508166626e+000,3.3280159647e+000,3.2040777626e+000,3.2513399102e+000,3.2606105281e+000,
2.0062500000e+001,4.8046332799e+000,5.2765265698e+000,3.2391682791e+000,3.5078276396e+000,6.8459464711e+000,4.9642861465e+000,4.3326854588e+000,4.5261028600e+000,4.0327547768e+000,4.3326587399e+000,3.6036811722e+000,3.4129546444e+000,3.4668368404e+000,3.3844185893e+000,
2.0156250000e+001,4.8811462371e+000,5.4435091738e+000,3.3875347550e+000,3.6924881266e+000,6.9051026136e+000,5.6376527455e+000,4.3645141160e+000,4.6723687222e+000,4.0409743947e+000,4.6474074221e+000,3.5819969242e+000,3.4730910244e+000,3.5265070883e+000,3.4282535620e+000,
2.0250000000e+001,4.9287741202e+000,5.5494148876e+000,3.4157276355e+000,3.8301961889e+000,6.9656316448e+000,6.4433628287e+000,4.3831793786e+000,4.7080820500e+000,4.1284046698e+000,4.7467444873e+000,3.6606153284e+000,3.4665407794e+000,3.6455772602e+000,3.4593485595e+000,
2.0343750000e+001,4.9344119276e+000,5.5588114239e+000,3.4513503737e+000,3.8514483856e+000,6.9792847273e+000,6.5393471647e+000,4.5105340381e+000,4.7577834414e+000,4.1516513847e+000,4.7921182203e+000,3.6553129693e+000,3.5039847113e+000,3.6669474259e+000,3.4229681667e+000,
2.0437500000e+001,4.9451454074e+000,5.6145315266e+000,3.4494326364e+000,3.8239308838e+000,6.9868741979e+000,6.5460854161e+000,4.5151811435e+000,4.7536491019e+000,4.1556561842e+000,4.8032265626e+000,3.6701110758e+000,3.4722253502e+000,3.6811165631e+000,3.3742701269e+000,
2.0531250000e+001,5.0090371423e+000,5.6837192992e+000,3.4374970726e+000,3.8820398401e+000,6.9898581690e+000,6.5466572290e+000,4.5048378017e+000,4.7652690962e+000,4.1534580403e+000,4.9402306441e+000,3.6461272203e+000,3.5114473167e+000,3.6530646070e+000,3.4269338399e+000,
2.0625000000e+001,5.3140444274e+000,5.9645082174e+000,3.5241672805e+000,4.1649582501e+000,7.0261418633e+000,6.5631148477e+000,4.5457252445e+000,4.8250984812e+000,4.1653926413e+000,5.4320836349e+000,3.6313480679e+000,3.5534307493e+000,3.6564975538e+000,3.5041152666e+000,
2.0718750000e+001,5.3653766074e+000,6.0098645154e+000,3.5365478029e+000,4.2369449398e+000,7.0384204070e+000,6.5682586455e+000,4.5696765264e+000,4.8431466642e+000,4.1733381481e+000,5.4499296361e+000,3.5849715912e+000,3.4929821085e+000,3.6306110812e+000,3.4167925853e+000,
2.0812500000e+001,5.3802747235e+000,6.0202459424e+000,3.5916454422e+000,4.2389586514e+000,7.0355003530e+000,6.5744686202e+000,4.5742335188e+000,4.8446901810e+000,4.1717308390e+000,5.4581475092e+000,3.5668815667e+000,3.5112070612e+000,3.6266595406e+000,3.3915701177e+000,
2.0906250000e+001,5.8921748978e+000,6.2705078082e+000,5.0643518228e+000,5.3582734711e+000,7.1589241425e+000,6.7665659973e+000,5.4319002898e+000,5.6000978314e+000,5.2268651526e+000,6.0294477309e+000,4.9478904526e+000,5.1005015666e+000,5.0362236255e+000,5.1444675669e+000,
2.1000000000e+001,5.8939382867e+000,6.2837532705e+000,5.3371030297e+000,5.6176443725e+000,6.8418066992e+000,6.8271933106e+000,5.4713433954e+000,5.7595560971e+000,5.4774275795e+000,6.1884889503e+000,5.1897035872e+000,5.4069452582e+000,5.3209291772e+000,5.4837556969e+000,
2.1093750000e+001,5.8591978572e+000,6.1282083012e+000,5.3650502219e+000,5.6343898385e+000,6.1003268825e+000,6.7014140184e+000,5.4968468109e+000,5.6125310630e+000,5.4840839010e+000,6.1164013861e+000,5.2230493226e+000,5.4399914001e+000,5.3473433992e+000,5.5280815210e+000,
2.1187500000e+001,5.8151879073e+000,6.0272514531e+000,5.3475305756e+000,5.5985382050e+000,6.0117738038e+000,6.3278158743e+000,5.4843165756e+000,5.5727988573e+000,5.4761023309e+000,6.0935231707e+000,5.2205653264e+000,5.4307535775e+000,5.3364812311e+000,5.5262215383e+000,
2.1281250000e+001,5.8071090334e+000,6.0002196218e+000,5.3489356571e+000,5.5945497625e+000,5.8578688904e+000,5.7271770289e+000,5.4729372127e+000,5.5674136051e+000,5.4553093935e+000,6.0754640124e+000,5.2114295797e+000,5.4273528836e+000,5.3258261100e+000,5.5234159351e+000,
2.1375000000e+001,5.8013337611e+000,5.9951146135e+000,5.3472102839e+000,5.6050410950e+000,5.8283503555e+000,5.6991284819e+000,5.4297104634e+000,5.5579416969e+000,5.4538846081e+000,6.0822374013e+000,5.2135680486e+000,5.4316249373e+000,5.3248423091e+000,5.5271914588e+000,
2.1468750000e+001,5.7980769084e+000,5.9634621868e+000,5.3516184735e+000,5.6065048260e+000,5.8137317098e+000,5.6940409242e+000,5.4386674111e+000,5.5536267036e+000,5.4659025318e+000,6.0819425915e+000,5.2126255340e+000,5.4312445484e+000,5.3260290720e+000,5.5306953448e+000,
2.1562500000e+001,5.6872419632e+000,5.7942379012e+000,5.3517163725e+000,5.5770977448e+000,5.7677154545e+000,5.6820627899e+000,5.4344070697e+000,5.5400541992e+000,5.4692821937e+000,5.9234034484e+000,5.2118654528e+000,5.4342987691e+000,5.3271024344e+000,5.5217495299e+000,
2.1656250000e+001,5.5608733704e+000,5.5980586963e+000,5.3417082321e+000,5.5252990527e+000,5.6522103766e+000,5.6516039515e+000,5.4159372987e+000,5.5239366833e+000,5.4641157249e+000,5.7912898499e+000,5.2170292265e+000,5.4344712760e+000,5.3316949432e+000,5.5154193527e+000,
2.1750000000e+001,5.5158561059e+000,5.5292527578e+000,5.3293140247e+000,5.5181961470e+000,5.6191654086e+000,5.6305216988e+000,5.4009231800e+000,5.5208087799e+000,5.4518829764e+000,5.7829244312e+000,5.2260915580e+000,5.4432095420e+000,5.3194959177e+000,5.5312090039e+000,
2.1843750000e+001,5.5115608049e+000,5.5248428876e+000,5.3260024684e+000,5.5122218070e+000,5.6178002391e+000,5.6340534247e+000,5.3950690258e+000,5.5195083584e+000,5.4410154945e+000,5.7752998909e+000,5.2347565912e+000,5.4367310073e+000,5.3164439871e+000,5.5396722936e+000,
2.1937500000e+001,4.5382733183e+000,4.4940905670e+000,4.2791238781e+000,4.5079862382e+000,4.5867274298e+000,4.6666846774e+000,4.3552264786e+000,4.5040975896e+000,4.4908907798e+000,4.7771138040e+000,4.2709560726e+000,4.4596857194e+000,4.2755830066e+000,4.6200118485e+000,
2.2031250000e+001,3.3780436430e+000,3.2596815085e+000,2.9604367581e+000,3.1655338935e+000,3.5197311611e+000,3.4881208779e+000,3.0889954601e+000,3.2890819688e+000,3.2581854123e+000,3.5006664359e+000,3.0561953100e+000,3.2176176191e+000,2.8858376717e+000,3.3721090855e+000,
2.2125000000e+001,3.1996898570e+000,3.2665015740e+000,2.8467849336e+000,3.0705856982e+000,3.4551002282e+000,3.3848794030e+000,2.8140457541e+000,3.3923007149e+000,3.1201133827e+000,3.5378633045e+000,2.8850109254e+000,3.1339732324e+000,2.7614527638e+000,3.3176216343e+000,
2.2218750000e+001,3.2794257116e+000,3.2744484584e+000,2.8384597264e+000,3.0960923658e+000,3.5661771212e+000,3.4278730945e+000,2.8745109676e+000,3.3419446231e+000,3.1626522328e+000,3.4937677702e+000,2.8464703887e+000,3.1215195235e+000,2.7323144799e+000,3.3211892155e+000,
2.2312500000e+001,3.2677177944e+000,3.2050553128e+000,2.7925047720e+000,3.0150113703e+000,3.5800810688e+000,3.3522842032e+000,2.8502658606e+000,3.4207015512e+000,3.2001269070e+000,3.3933587041e+000,2.8661073782e+000,3.1621425345e+000,2.7603921169e+000,3.3980213375e+000,
2.2406250000e+001,3.2645155740e+000,3.2069060964e+000,2.7631939861e+000,2.9798560078e+000,3.5303033746e+000,3.2708237759e+000,2.8160583127e+000,3.4704417554e+000,3.2546310322e+000,3.3631026995e+000,2.9349433518e+000,3.1775244646e+000,2.8330427212e+000,3.4446412073e+000,
2.2500000000e+001,3.2030174671e+000,3.1434954223e+000,2.6685884179e+000,2.9107211134e+000,3.5041373466e+000,3.2917228733e+000,2.7330655253e+000,3.4341876651e+000,3.1739453092e+000,3.3003569902e+000,2.9272172017e+000,3.1103902845e+000,2.8149684755e+000,3.3310762446e+000,
2.2593750000e+001,3.2646786846e+000,3.1699101409e+000,2.5900549341e+000,2.9366067607e+000,3.4855092735e+000,3.3934682907e+000,2.7109527866e+000,3.3890005706e+000,3.1652152058e+000,3.2466167831e+000,2.8976199279e+000,3.1062340475e+000,2.8290808844e+000,3.3688095969e+000,
2.2687500000e+001,4.1121978131e+000,4.2138465909e+000,2.7150089619e+000,3.0797345801e+000,4.4273117003e+000,3.7950215475e+000,2.9650281640e+000,3.5283419627e+000,3.4096725980e+000,3.4343505765e+000,3.2943926040e+000,3.3656178378e+000,3.1073114499e+000,3.5535635527e+000,
2.2781250000e+001,4.7622801023e+000,5.6131656488e+000,2.6707848466e+000,3.3174428274e+000,5.3432814463e+000,4.4327430274e+000,3.3621822388e+000,3.9088388581e+000,3.7568177424e+000,3.8938982786e+000,3.4676276290e+000,3.5610362607e+000,3.4553028777e+000,3.6821066310e+000,
2.2875000000e+001,4.8785032167e+000,5.7427994695e+000,2.8202411741e+000,3.4815757120e+000,5.3610273128e+000,4.5877075732e+000,3.4280821289e+000,4.0289832955e+000,3.8112949123e+000,3.9788887096e+000,3.4402841609e+000,3.5728919415e+000,3.4907084452e+000,3.6880572652e+000,
2.2968750000e+001,4.8837538752e+000,5.7594548057e+000,2.9783909728e+000,3.5023064971e+000,5.3575926724e+000,4.6163537548e+000,3.5970238185e+000,4.0285024121e+000,3.8461774072e+000,3.9761260787e+000,3.4659630140e+000,3.5894668251e+000,3.5289132656e+000,3.7015700274e+000,
2.3062500000e+001,4.8977457114e+000,5.7591786186e+000,2.9708612256e+000,3.4908083446e+000,5.3851598119e+000,4.6137908711e+000,3.5941032635e+000,3.9970936143e+000,3.8639190159e+000,3.9715504615e+000,3.4385274903e+000,3.5458005128e+000,3.5247878888e+000,3.6929532385e+000,
2.3156250000e+001,4.9144599291e+000,5.7590589537e+000,2.8985146589e+000,3.5024552603e+000,5.4038921647e+000,4.6201740327e+000,3.6090109163e+000,3.9362739996e+000,3.8793676012e+000,3.9508206772e+000,3.4451504330e+000,3.5759018041e+000,3.5404403374e+000,3.6590382148e+000,
2.3250000000e+001,4.9161009354e+000,5.7656352583e+000,2.9095256162e+000,3.5458635861e+000,5.4224842768e+000,4.6272546023e+000,3.5891201433e+000,3.9558747607e+000,3.8760712108e+000,4.0032246445e+000,3.4582306069e+000,3.6378690579e+000,3.5388829953e+000,3.6980844192e+000,
2.3343750000e+001,5.0985289397e+000,5.8659567536e+000,3.2316580093e+000,3.7115413498e+000,5.4891925647e+000,4.7584727588e+000,3.7410767797e+000,3.9796206183e+000,3.9257315855e+000,4.0003817892e+000,3.5148472367e+000,3.6003185513e+000,3.5744487841e+000,3.6484758485e+000,
2.3437500000e+001,5.2072015647e+000,5.9251323080e+000,3.3719666963e+000,3.7893153938e+000,5.5481331247e+000,4.8662158564e+000,3.7728839515e+000,4.0728254893e+000,3.9166033846e+000,4.0706516272e+000,3.4950952590e+000,3.5603103565e+000,3.5771706204e+000,3.6338497662e+000,
2.3531250000e+001,5.2144194470e+000,5.9308163525e+000,3.3569040643e+000,3.8214536318e+000,5.5529976165e+000,4.8729516814e+000,3.7963615736e+000,4.0994352601e+000,3.9142392471e+000,4.1002806311e+000,3.4770462403e+000,3.6193367715e+000,3.5773325143e+000,3.6871826482e+000,
2.3625000000e+001,5.2018842749e+000,5.9357640911e+000,3.4178372868e+000,3.8255554240e+000,5.5322268058e+000,4.8935852686e+000,3.8115526435e+000,4.1571492523e+000,3.8710780782e+000,4.1127372753e+000,3.4669324704e+000,3.6030619220e+000,3.5491195017e+000,3.6465319332e+000,
2.3718750000e+001,4.7866518203e+000,5.2673241015e+000,3.3671889612e+000,3.6343931791e+000,4.5823276466e+000,4.5194044232e+000,3.4107829791e+000,3.8894600495e+000,3.5560622093e+000,3.8080860412e+000,2.8435390079e+000,3.2362646113e+000,3.0691429720e+000,3.2278918359e+000,
2.3812500000e+001,4.5001716460e+000,4.7690319344e+000,3.3219831382e+000,3.5165437955e+000,4.3487232968e+000,4.2670034371e+000,3.3982410329e+000,3.7278512435e+000,3.4601808443e+000,3.6069603835e+000,2.6295555888e+000,3.0519273867e+000,2.8876199231e+000,3.0546234347e+000,
2.3906250000e+001,4.3917506187e+000,4.5478210856e+000,3.2399047479e+000,3.4523931045e+000,4.3231071171e+000,4.1611115010e+000,3.2908825305e+000,3.7048957972e+000,3.3497887111e+000,3.6100334117e+000,2.5435380043e+000,3.0117380003e+000,2.7670941551e+000,2.9314444111e+000,
2.4000000000e+001,4.3627758608e+000,4.5337344902e+000,3.2151920251e+000,3.4470603834e+000,4.2514377056e+000,4.1385432977e+000,3.1252744314e+000,3.7054165793e+000,3.2619775683e+000,3.5866154432e+000,2.6269072745e+000,2.9611827654e+000,2.7334507051e+000,2.9135823092e+000,
2.4093750000e+001,4.3255819163e+000,4.5191737303e+000,3.1783503336e+000,3.4563689462e+000,4.1913886020e+000,4.1275261982e+000,3.1170928397e+000,3.7033165508e+000,3.1819670668e+000,3.6581957372e+000,2.6862448783e+000,3.0060514772e+000,2.7238970198e+000,2.9297914896e+000,
2.4187500000e+001,4.3572346394e+000,4.5344992637e+000,3.2915734243e+000,3.5138963755e+000,4.1239976303e+000,4.1809095759e+000,3.2149094280e+000,3.8967496608e+000,3.2490678285e+000,3.6531767238e+000,2.6813602234e+000,2.8950286581e+000,2.7647801849e+000,3.1142836298e+000,
2.4281250000e+001,5.2460013039e+000,5.4676900449e+000,4.8109594270e+000,5.0404960064e+000,5.0935663100e+000,5.2657497899e+000,4.8619240477e+000,5.0499468531e+000,4.6773686816e+000,5.2673272796e+000,4.5486872523e+000,4.8264330210e+000,4.6342032964e+000,5.0291630035e+000,
2.4375000000e+001,5.5252387530e+000,5.7212260871e+000,5.2832673019e+000,5.5602604847e+000,5.4981188738e+000,5.6727467991e+000,5.3738637106e+000,5.5690626687e+000,5.2870795181e+000,5.8267530588e+000,5.0484491425e+000,5.3698487332e+000,5.2162814283e+000,5.4896425644e+000,
2.4468750000e+001,5.5177440428e+000,5.7044612879e+000,5.3133568093e+000,5.5736579351e+000,5.4941809375e+000,5.6616080250e+000,5.3952834772e+000,5.5652192029e+000,5.3212236649e+000,5.8283199190e+000,5.0852478251e+000,5.3856617191e+000,5.2416334625e+000,5.4997074190e+000,
2.4562500000e+001,5.5129527745e+000,5.7051278929e+000,5.3167158252e+000,5.5740977871e+000,5.4961293913e+000,5.6612602372e+000,5.3979679699e+000,5.5790112839e+000,5.3231496427e+000,5.8365569486e+000,5.0875983107e+000,5.3894188803e+000,5.2442974556e+000,5.5045644162e+000,
2.4656250000e+001,5.5090428069e+000,5.6980568540e+000,5.3156010556e+000,5.5756201458e+000,5.4947470267e+000,5.6448179709e+000,5.4044543598e+000,5.5625886068e+000,5.3281103364e+000,5.8343466173e+000,5.1055249621e+000,5.3933326384e+000,5.2523006100e+000,5.5148420178e+000,
2.4750000000e+001,5.5138212318e+000,5.6970044731e+000,5.3156329982e+000,5.5756193677e+000,5.4966647216e+000,5.6384471518e+000,5.4121984947e+000,5.5574114075e+000,5.3289568719e+000,5.8322935759e+000,5.1033678984e+000,5.3945208482e+000,5.2542978966e+000,5.5212701314e+000,
2.4843750000e+001,5.5188428501e+000,5.6955323219e+000,5.3188765470e+000,5.5790729660e+000,5.4993539671e+000,5.6335498264e+000,5.4078710055e+000,5.5475075761e+000,5.3235095263e+000,5.8243141599e+000,5.1020615969e+000,5.3947714931e+000,5.2511835796e+000,5.5250753780e+000,
2.4937500000e+001,5.5231918686e+000,5.6816089073e+000,5.3183482394e+000,5.5831405251e+000,5.5267469069e+000,5.6299770876e+000,5.4081258473e+000,5.5483322747e+000,5.3282822921e+000,5.8240979451e+000,5.0986732970e+000,5.4041414758e+000,5.2490210870e+000,5.5321398917e+000,
2.5031250000e+001,5.5301781247e+000,5.6895670457e+000,5.3152635320e+000,5.5847467893e+000,5.5366756586e+000,5.6313760014e+000,5.4014341183e+000,5.5446327299e+000,5.3265538333e+000,5.8248013651e+000,5.0849545831e+000,5.4150214622e+000,5.2428219611e+000,5.5341980652e+000,
2.5125000000e+001,5.5360420114e+000,5.7084564480e+000,5.3249377761e+000,5.5831367293e+000,5.5289627614e+000,5.6337715578e+000,5.4065552588e+000,5.5455134143e+000,5.3350579805e+000,5.8230682593e+000,5.0874049580e+000,5.4155662593e+000,5.2457788007e+000,5.5262058528e+000,
2.5218750000e+001,5.5156883054e+000,5.7022809993e+000,5.3358925886e+000,5.5770355851e+000,5.5109651560e+000,5.6188866133e+000,5.3970789682e+000,5.5183532656e+000,5.3216227056e+000,5.8172196788e+000,5.0831775709e+000,5.4123538018e+000,5.2366576902e+000,5.5155101502e+000,
2.5312500000e+001,4.6444289790e+000,4.7317060134e+000,4.4165629801e+000,4.6415846345e+000,4.5827985286e+000,4.6389302858e+000,4.5430654864e+000,4.6915477962e+000,4.5084739897e+000,4.8217452017e+000,4.0812796285e+000,4.4843220349e+000,4.3364418255e+000,4.4982783338e+000,
2.5406250000e+001,3.4941840790e+000,3.6052750388e+000,3.1531718284e+000,3.0684932872e+000,3.6398728988e+000,3.2345759289e+000,2.9872237644e+000,3.3346663227e+000,3.1283532700e+000,3.3574394830e+000,2.7456232771e+000,3.2373318721e+000,2.6320266302e+000,3.2815915106e+000,
2.5500000000e+001,3.4552548020e+000,3.5766149766e+000,3.0738594111e+000,3.0312125908e+000,3.5085278682e+000,3.0276542418e+000,3.0155191791e+000,3.2881994518e+000,3.0192421689e+000,3.3375137722e+000,2.6447575779e+000,3.2322240927e+000,2.6345316788e+000,3.3642643786e+000,
2.5593750000e+001,3.7235524087e+000,3.6446263642e+000,3.3434307884e+000,3.3001702365e+000,3.7602961297e+000,3.3428484513e+000,3.4803887490e+000,3.4986948625e+000,3.5112356188e+000,3.6475368251e+000,3.2107220413e+000,3.4623275293e+000,3.2002689825e+000,3.5856482862e+000,
2.5687500000e+001,3.8067105608e+000,3.7010584999e+000,3.4359022518e+000,3.4431757430e+000,3.8278999029e+000,3.5826535308e+000,3.5209593917e+000,3.7096022648e+000,3.5740616731e+000,3.8255372273e+000,3.2578389959e+000,3.5549167828e+000,3.2961654232e+000,3.7243878716e+000,
2.5781250000e+001,3.7365851535e+000,3.6744042303e+000,3.4214180364e+000,3.4463961462e+000,3.8415617600e+000,3.5834488525e+000,3.4858466101e+000,3.6843954737e+000,3.5793743964e+000,3.8547005734e+000,3.2944993679e+000,3.5686575229e+000,3.3202255123e+000,3.6912530027e+000,
2.5875000000e+001,3.6265743120e+000,3.6512481331e+000,3.4423747564e+000,3.3855135475e+000,3.7368561307e+000,3.6142840106e+000,3.4941049995e+000,3.7047008573e+000,3.5808846981e+000,3.8497689026e+000,3.2993868491e+000,3.5558226908e+000,3.3285938902e+000,3.6490710225e+000,
2.5968750000e+001,3.6969657010e+000,3.7940639878e+000,3.4905927936e+000,3.4843089874e+000,3.7711613902e+000,3.6764141374e+000,3.5700911522e+000,3.7810140704e+000,3.6123061142e+000,3.8665374018e+000,3.3665343072e+000,3.5211494326e+000,3.4065404715e+000,3.6883573779e+000,
2.6062500000e+001,3.7440236107e+000,3.6577680227e+000,3.4721138293e+000,3.5057365560e+000,3.8714866684e+000,3.6737541690e+000,3.5964383780e+000,3.7728106491e+000,3.6420031349e+000,3.8783333448e+000,3.4163728748e+000,3.5178681813e+000,3.4512765541e+000,3.6809752561e+000,
2.6156250000e+001,3.8195415483e+000,3.7207801071e+000,3.3739115219e+000,3.5300298772e+000,4.0910267567e+000,3.8124633817e+000,3.5462490283e+000,3.8753369644e+000,3.6189036350e+000,3.9730346867e+000,3.4631011779e+000,3.6437921239e+000,3.4653132422e+000,3.7722188832e+000,
2.6250000000e+001,3.8344291534e+000,3.7734128081e+000,3.3280408038e+000,3.5289525212e+000,4.2015724752e+000,3.8619421317e+000,3.5327148718e+000,3.8442291130e+000,3.6547616702e+000,3.9570737415e+000,3.4907036428e+000,3.6734733362e+000,3.4948608468e+000,3.7954896231e+000,
2.6343750000e+001,3.8231752379e+000,3.8138222192e+000,3.3582348769e+000,3.5369749413e+000,4.1756644132e+000,3.9020229235e+000,3.5815409827e+000,3.8705389521e+000,3.6642132933e+000,3.9428418477e+000,3.4661520927e+000,3.6560881208e+000,3.4878639423e+000,3.7989918098e+000,
2.6437500000e+001,3.7815751153e+000,3.8331240394e+000,3.3459542330e+000,3.5333507610e+000,4.1686412012e+000,3.8866335789e+000,3.5264922122e+000,3.8638782040e+000,3.6520953269e+000,3.9296150697e+000,3.4396910680e+000,3.6167615982e+000,3.4480955882e+000,3.7228475737e+000,
2.6531250000e+001,3.6546858619e+000,3.7368805195e+000,3.2398679881e+000,3.4910969622e+000,4.1116532903e+000,4.1269832410e+000,3.2839504009e+000,3.9218965252e+000,3.5582045430e+000,3.9841264791e+000,3.3249667575e+000,3.5591343197e+000,3.2831752210e+000,3.5852594324e+000,
2.6625000000e+001,3.4991914202e+000,3.6071460714e+000,2.9397809631e+000,3.1985023648e+000,4.0040629785e+000,4.0341058947e+000,2.9589576028e+000,3.7815474095e+000,3.2223755832e+000,3.7501431046e+000,2.9938676265e+000,3.4217904299e+000,2.9667197723e+000,3.5024362386e+000,
2.6718750000e+001,3.3783853305e+000,3.5531178486e+000,2.8798995618e+000,3.1272967781e+000,4.0007667124e+000,3.9783786655e+000,2.9427134986e+000,3.7527252084e+000,3.0712097748e+000,3.6910354570e+000,2.8987362242e+000,3.3412698293e+000,2.8310961235e+000,3.3573018464e+000,
2.6812500000e+001,3.3748356484e+000,3.5778710023e+000,2.8794491420e+000,3.1701927553e+000,4.0592045493e+000,4.0137184353e+000,3.1054374625e+000,3.7889916790e+000,3.2035669476e+000,3.7154890924e+000,2.9321095456e+000,3.3733813290e+000,2.9196341168e+000,3.3358321199e+000,
2.6906250000e+001,3.3932497549e+000,3.5902750897e+000,2.8037876067e+000,3.1452818577e+000,3.9976716734e+000,4.0140526171e+000,3.0624130214e+000,3.7827715809e+000,3.1137255326e+000,3.7082954496e+000,2.8631324512e+000,3.3560295835e+000,2.8369162588e+000,3.2378111760e+000,
2.7000000000e+001,3.2260861332e+000,3.3524296518e+000,2.5837029968e+000,2.8776471297e+000,3.8847899024e+000,3.9376672990e+000,2.9324202375e+000,3.6501928656e+000,2.9457207972e+000,3.5910238616e+000,2.7451872656e+000,3.3088387971e+000,2.6914488633e+000,3.2234382837e+000,
2.7093750000e+001,3.2169677824e+000,3.4002607174e+000,2.5115953767e+000,2.8895599224e+000,3.8081599962e+000,3.9326420526e+000,2.9218906185e+000,3.6628964670e+000,2.8750591368e+000,3.5790245418e+000,2.7779399413e+000,3.3334928326e+000,2.6663933872e+000,3.1264040699e+000,
2.7187500000e+001,3.1800369695e+000,3.3451281011e+000,2.4887952698e+000,2.9313596548e+000,3.5460278512e+000,3.8594552750e+000,2.8746014275e+000,3.5645013512e+000,2.8555230412e+000,3.5334302724e+000,2.9087080802e+000,3.2947315409e+000,2.6162826093e+000,3.0170363928e+000,
2.7281250000e+001,3.8242035634e+000,3.8684568218e+000,3.5313499423e+000,3.7816778942e+000,4.0242744383e+000,4.3055614451e+000,3.7266039521e+000,4.0324731902e+000,3.6958738691e+000,4.2341155685e+000,3.6854103572e+000,3.9611627044e+000,3.5691594957e+000,3.9116835653e+000,
2.7375000000e+001,5.3386237261e+000,5.3723033915e+000,5.1257912145e+000,5.3823265610e+000,5.3778887737e+000,5.5167700880e+000,5.2312183746e+000,5.3406789919e+000,5.2824730412e+000,5.6736816325e+000,5.0564154106e+000,5.3326194949e+000,5.2056330673e+000,5.4678982917e+000,
2.7468750000e+001,5.3803532395e+000,5.4095465604e+000,5.1694702091e+000,5.4226418682e+000,5.4207178513e+000,5.5316958735e+000,5.2933591595e+000,5.3957690075e+000,5.3275628841e+000,5.7036793187e+000,5.0945938151e+000,5.3661363916e+000,5.2546029787e+000,5.4895381321e+000,
2.7562500000e+001,5.3820665583e+000,5.4097703886e+000,5.1717879856e+000,5.4108692275e+000,5.4090974847e+000,5.4621187393e+000,5.2945631269e+000,5.3534154157e+000,5.3270683896e+000,5.6733821847e+000,5.0962953964e+000,5.3466660257e+000,5.2543741038e+000,5.4771832914e+000,
2.7656250000e+001,5.3957407467e+000,5.4557653935e+000,5.1829164550e+000,5.4170570627e+000,5.4178661190e+000,5.4707632578e+000,5.3189343313e+000,5.3604890736e+000,5.3437856681e+000,5.6843039963e+000,5.1084532820e+000,5.3620154955e+000,5.2737895814e+000,5.4942667659e+000,
2.7750000000e+001,5.3999840604e+000,5.4628471727e+000,5.1813987234e+000,5.4192899951e+000,5.4160254904e+000,5.4680043022e+000,5.3141264602e+000,5.3615000441e+000,5.3595001623e+000,5.6873687103e+000,5.1154737017e+000,5.3643600935e+000,5.2790983800e+000,5.4997680504e+000,
2.7843750000e+001,5.4214597851e+000,5.4841801587e+000,5.1954876092e+000,5.4345788768e+000,5.4448225805e+000,5.4725964849e+000,5.3261281444e+000,5.3862681346e+000,5.3744234085e+000,5.7071887974e+000,5.1200426947e+000,5.3788749281e+000,5.2971848109e+000,5.5212843230e+000,
2.7937500000e+001,5.4201523342e+000,5.4830904774e+000,5.1958440418e+000,5.4316830063e+000,5.4508633022e+000,5.4672584868e+000,5.3243717152e+000,5.3768757276e+000,5.3748603956e+000,5.7055847179e+000,5.1187219760e+000,5.3757742978e+000,5.2946614130e+000,5.5264348227e+000,
2.8031250000e+001,5.4222848145e+000,5.4783925132e+000,5.2026957412e+000,5.4315610126e+000,5.4502032092e+000,5.4629328741e+000,5.3313550262e+000,5.3797410638e+000,5.3768550718e+000,5.7060653513e+000,5.1260204795e+000,5.3723770645e+000,5.2953921297e+000,5.5250569704e+000,
2.8125000000e+001,5.4258147953e+000,5.4849852739e+000,5.2064822329e+000,5.4377508361e+000,5.4481304060e+000,5.4528903852e+000,5.3333865207e+000,5.3800220576e+000,5.3813731472e+000,5.7031289552e+000,5.1146877515e+000,5.3611168977e+000,5.2947812861e+000,5.5295365931e+000,
2.8218750000e+001,5.4158724576e+000,5.4941816245e+000,5.2128936650e+000,5.4410857403e+000,5.4444769718e+000,5.4560112852e+000,5.3348910257e+000,5.3771491197e+000,5.3829270788e+000,5.7014965521e+000,5.1081939073e+000,5.3509253995e+000,5.2973654819e+000,5.5272714710e+000,
2.8312500000e+001,4.8623528506e+000,4.9844113310e+000,4.6539408689e+000,4.8493499226e+000,4.8656731167e+000,4.8738321844e+000,4.7860341715e+000,4.8545960460e+000,4.8779648910e+000,5.1086786445e+000,4.5321631717e+000,4.7548095112e+000,4.7591036877e+000,4.9392716249e+000,
2.8406250000e+001,3.4843406877e+000,3.7470388344e+000,2.8984026034e+000,3.1669491530e+000,3.7055643655e+000,3.3213632176e+000,3.2954484134e+000,3.3988551964e+000,3.4444574600e+000,3.5549278655e+000,3.2130605807e+000,3.2933347159e+000,3.1848119036e+000,3.3404234635e+000,
2.8500000000e+001,3.4328635114e+000,3.6791910463e+000,2.7455642534e+000,3.0421761915e+000,3.6240048980e+000,3.2468530889e+000,3.1332561138e+000,3.3263123738e+000,3.3415292306e+000,3.5253466312e+000,3.0686081464e+000,3.2228378345e+000,3.1136829822e+000,3.3426845039e+000,
2.8593750000e+001,3.4177361853e+000,3.6878423019e+000,2.7250769104e+000,3.0888080418e+000,3.5579934209e+000,3.3114360792e+000,3.1560683118e+000,3.2621393612e+000,3.3945557383e+000,3.5144770635e+000,3.0473930701e+000,3.2250593310e+000,3.1319046724e+000,3.3547655519e+000,
2.8687500000e+001,3.2394529900e+000,3.3830302166e+000,2.5087982852e+000,2.9755919047e+000,3.5678054345e+000,3.2434760421e+000,2.8167782439e+000,3.1717255172e+000,3.3035718264e+000,3.3631234016e+000,2.7667026822e+000,3.0499183145e+000,2.9249847955e+000,3.0164461829e+000,
2.8781250000e+001,3.1648687697e+000,3.3057842545e+000,2.3109895246e+000,2.8938503698e+000,3.5286368540e+000,3.1584498182e+000,2.7178054968e+000,3.0927605023e+000,3.1162438970e+000,3.2373734946e+000,2.7116756809e+000,2.9446963652e+000,2.7997231425e+000,2.9088736576e+000,
2.8875000000e+001,3.0677356393e+000,3.2230019749e+000,2.2204521976e+000,2.6709234340e+000,3.3036906041e+000,3.1001796142e+000,2.5249243468e+000,2.8228256305e+000,2.9774228550e+000,3.0759942639e+000,2.6077281578e+000,2.8050483463e+000,2.5843063691e+000,2.7091329968e+000,
2.8968750000e+001,3.0758294106e+000,3.2581034148e+000,2.3144905472e+000,2.6996683597e+000,3.3967090794e+000,3.1426750724e+000,2.4423941182e+000,2.7899252604e+000,3.0398725777e+000,3.0320042926e+000,2.6129625833e+000,2.8356761535e+000,2.5667169345e+000,2.6100476820e+000,
2.9062500000e+001,3.1898644742e+000,3.3169183765e+000,2.3616669549e+000,2.7025942491e+000,3.3426979917e+000,3.1695844865e+000,2.3105168376e+000,2.8439422462e+000,3.0216045922e+000,3.0448636553e+000,2.7609100690e+000,2.7988454524e+000,2.5934313717e+000,2.7993939095e+000,
2.9156250000e+001,3.2085029431e+000,3.2351848264e+000,2.2712532552e+000,2.7062893927e+000,3.4547246404e+000,3.1412324497e+000,2.3521663615e+000,2.8403707007e+000,3.1202069988e+000,3.0741446958e+000,2.7809124302e+000,2.8750495177e+000,2.6726140425e+000,2.7582163539e+000,
2.9250000000e+001,3.2455269458e+000,3.1972933750e+000,2.1592734910e+000,2.6702608202e+000,3.4526657163e+000,3.1194858528e+000,2.3867188946e+000,2.8703037868e+000,3.0706823989e+000,3.0006084875e+000,2.7337835207e+000,2.7735861053e+000,2.6374057294e+000,2.7795098510e+000,
2.9343750000e+001,3.3012599089e+000,3.1886159299e+000,2.1926204619e+000,2.6995215422e+000,3.4425900314e+000,3.0503956472e+000,2.4773804216e+000,2.8524935801e+000,3.0769353543e+000,2.9466011856e+000,2.6539872882e+000,2.6638715411e+000,2.7138880245e+000,2.8697564770e+000,
2.9437500000e+001,3.2580574634e+000,3.2792682767e+000,2.2213224562e+000,2.6811980546e+000,3.3038740871e+000,2.9956860980e+000,2.5493897011e+000,2.8514026211e+000,3.0783826441e+000,2.9611775558e+000,2.6287307758e+000,2.8592362699e+000,2.6807081901e+000,2.9116287811e+000,
2.9531250000e+001,3.3288309762e+000,3.2873985404e+000,2.4306993557e+000,2.8192626077e+000,3.3791958027e+000,2.9532330173e+000,2.6739323138e+000,2.9549178675e+000,3.0723851578e+000,3.0037939876e+000,2.6628263634e+000,2.8669542914e+000,2.7074784254e+000,2.8946533108e+000,
2.9625000000e+001,3.3829385533e+000,3.3051529774e+000,2.6089641307e+000,2.8737520991e+000,3.3929544511e+000,3.0391895839e+000,2.7632074290e+000,2.9927035551e+000,3.1367498751e+000,3.0131435881e+000,2.7492452711e+000,2.8643641684e+000,2.8191464368e+000,2.9434772229e+000,
2.9718750000e+001,3.4271733661e+000,3.4315484567e+000,2.7267555953e+000,2.9787653727e+000,3.4219490779e+000,3.2333224770e+000,2.8177009497e+000,3.1031974669e+000,3.1727757329e+000,3.1290834564e+000,2.9226287676e+000,2.8815476550e+000,2.9330093987e+000,3.0643912370e+000,
2.9812500000e+001,3.5005551809e+000,3.5721384714e+000,2.8353262358e+000,3.1354601760e+000,3.5598309314e+000,3.3132321026e+000,2.8542140292e+000,3.2555061115e+000,3.2043041775e+000,3.2609661231e+000,2.9620495799e+000,3.0008935090e+000,2.9400294848e+000,3.0774450470e+000,
2.9906250000e+001,3.5004985341e+000,3.6181607926e+000,2.7921469773e+000,3.1709985431e+000,3.5585835242e+000,3.4357685991e+000,2.8842415168e+000,3.3241329399e+000,3.2213906700e+000,3.2965014444e+000,3.0028420106e+000,3.0099206659e+000,2.9635734919e+000,3.1094638512e+000,
3.0000000000e+001,3.4872770705e+000,3.5996404024e+000,2.7808003605e+000,3.2771048135e+000,3.5992048629e+000,3.4675810376e+000,2.9430932150e+000,3.4588582701e+000,3.2813332047e+000,3.4052817685e+000,2.9243031884e+000,3.1354057059e+000,3.0196614974e+000,3.2469029612e+000,
3.0093750000e+001,3.4211763734e+000,3.6098303587e+000,2.8430750898e+000,3.2996844518e+000,3.5913120473e+000,3.4941535758e+000,3.1113117744e+000,3.5063320393e+000,3.2567931339e+000,3.4565361675e+000,2.8066996507e+000,3.1848252106e+000,2.9578445373e+000,3.1786593672e+000,
3.0187500000e+001,3.3677550332e+000,3.5783928926e+000,2.8634135827e+000,3.3161824910e+000,3.5252504835e+000,3.5471040573e+000,3.1958716029e+000,3.4960675464e+000,3.2757892016e+000,3.4358303120e+000,2.7153417374e+000,3.1566832230e+000,2.9982625743e+000,3.1292161376e+000,
3.0281250000e+001,3.4042750029e+000,3.5779535526e+000,3.0139018584e+000,3.3708560472e+000,3.5826486484e+000,3.5154461502e+000,3.1683405890e+000,3.5202561269e+000,3.3189953894e+000,3.4384592366e+000,2.8020654395e+000,3.2586190935e+000,3.0442278710e+000,3.2462655412e+000,
3.0375000000e+001,3.4206741888e+000,3.5533560087e+000,3.0285001953e+000,3.3751223644e+000,3.5790206985e+000,3.5155380202e+000,3.2216382953e+000,3.5024983501e+000,3.3442995069e+000,3.5014876961e+000,2.7901696858e+000,3.2189258427e+000,3.0264496480e+000,3.2062368559e+000,
3.0468750000e+001,3.4123230859e+000,3.4816728769e+000,3.0173639659e+000,3.4096639827e+000,3.5748114003e+000,3.5653708579e+000,3.1817675681e+000,3.5728072332e+000,3.3542609668e+000,3.6279107214e+000,2.7467357366e+000,3.1790556735e+000,3.0419854090e+000,3.1954285610e+000,
3.0562500000e+001,3.3639327114e+000,3.4587463181e+000,2.9452658213e+000,3.3110394983e+000,3.5286798706e+000,3.4939128217e+000,3.1606473919e+000,3.5597176623e+000,3.2581226879e+000,3.5723011747e+000,2.7512988415e+000,3.1553431287e+000,2.9642768376e+000,3.1323452539e+000,
3.0656250000e+001,3.2998430703e+000,3.3194626028e+000,2.8102835372e+000,3.2701100289e+000,3.5210578139e+000,3.2167487619e+000,3.0830472361e+000,3.4560207086e+000,3.1904396243e+000,3.5210000270e+000,2.6810161682e+000,3.0930670590e+000,2.8301221974e+000,3.1404194278e+000,
3.0750000000e+001,3.1859985154e+000,3.3385587164e+000,2.7047653308e+000,3.1913066719e+000,3.3652817520e+000,3.1866794233e+000,3.0394287158e+000,3.4567439237e+000,3.1720245356e+000,3.4444578680e+000,2.6291094051e+000,3.0295376810e+000,2.7957149817e+000,3.2036307596e+000,
3.0843750000e+001,3.2086361669e+000,3.1356064309e+000,2.7179958035e+000,3.1704402226e+000,3.3826718881e+000,3.1490644083e+000,3.1959250610e+000,3.5021958258e+000,3.3956153674e+000,3.4948473258e+000,2.8271647938e+000,3.0630200204e+000,3.0025012745e+000,3.2201972902e+000,
3.0937500000e+001,3.4991480980e+000,3.4896772768e+000,3.0997540404e+000,3.4683517332e+000,3.5724050934e+000,3.4592560222e+000,3.5563179797e+000,3.6707792926e+000,3.5692734982e+000,3.7439592340e+000,3.1191668097e+000,3.2915913631e+000,3.2476640157e+000,3.3500372819e+000,
3.1031250000e+001,3.4712162748e+000,3.4780782501e+000,3.1701426271e+000,3.4391938762e+000,3.5125866627e+000,3.5007873399e+000,3.5443527457e+000,3.6557974569e+000,3.5901824621e+000,3.7782024386e+000,3.1884423490e+000,3.2556148006e+000,3.2668505239e+000,3.3761879161e+000,
3.1125000000e+001,3.8327140056e+000,3.8934357383e+000,3.6327811689e+000,3.8834358365e+000,3.9001272991e+000,3.9342069815e+000,3.8695863014e+000,3.8727508234e+000,4.0059250240e+000,4.2146986671e+000,3.7339422780e+000,3.7887509846e+000,3.7890828506e+000,3.9833256091e+000,
3.1218750000e+001,3.9354804003e+000,3.9829663795e+000,3.7089053858e+000,3.9703704762e+000,4.0277156201e+000,4.0378716541e+000,3.9196325633e+000,3.9909950225e+000,4.1093795289e+000,4.3436244772e+000,3.8680358243e+000,3.8904578465e+000,3.9207174095e+000,4.1041257755e+000,
3.1312500000e+001,4.0084797041e+000,4.0253372697e+000,3.6606659473e+000,3.9479038677e+000,4.0190994548e+000,4.0453826730e+000,3.9388509256e+000,4.0025195772e+000,4.0759089465e+000,4.3917302007e+000,3.8618398617e+000,3.8545782767e+000,3.9043369492e+000,4.0680955500e+000,
3.1406250000e+001,4.0192199668e+000,4.0313333186e+000,3.6699798502e+000,3.9675154534e+000,4.0403962218e+000,4.0554557566e+000,3.9370385833e+000,4.0107822242e+000,4.0841895947e+000,4.3374544922e+000,3.8706053504e+000,3.8847164031e+000,3.9073748358e+000,4.0696191492e+000,
3.1500000000e+001,4.0665825298e+000,4.1283826614e+000,3.7135817908e+000,4.0122976234e+000,4.0668959685e+000,4.1035811599e+000,4.0007330943e+000,4.0108432676e+000,4.1252385615e+000,4.3449474737e+000,3.9135589191e+000,3.9012448431e+000,3.9612674112e+000,4.0704136789e+000,
3.1593750000e+001,4.0376091207e+000,4.1488676324e+000,3.7576256576e+000,4.0319661470e+000,4.1037206991e+000,4.1573499789e+000,4.0226350090e+000,4.0707232831e+000,4.1497233278e+000,4.3553399076e+000,3.8951090785e+000,3.9182127729e+000,3.9785334664e+000,4.0883212964e+000,
3.1687500000e+001,4.1019672666e+000,4.1601924150e+000,3.7794549858e+000,4.0344604102e+000,4.0615341586e+000,4.1706895363e+000,4.0099289709e+000,4.0977991358e+000,4.1679310192e+000,4.3391275168e+000,3.8918509722e+000,3.9490973379e+000,3.9919740776e+000,4.0576124587e+000,
3.1781250000e+001,4.1816663211e+000,4.1469462967e+000,3.8273982696e+000,4.0424072040e+000,4.1083475579e+000,4.1933799178e+000,4.0358477756e+000,4.1385417454e+000,4.2031126246e+000,4.3772904990e+000,3.9470254674e+000,4.0430550844e+000,4.0379247057e+000,4.1328901404e+000,
3.1875000000e+001,4.1152377022e+000,4.0327036686e+000,3.6786175021e+000,3.9050698153e+000,4.0826708221e+000,4.0537251914e+000,3.8477648510e+000,3.9820836873e+000,4.0355733144e+000,4.2714194811e+000,3.8453316305e+000,3.9610247881e+000,3.9010604457e+000,4.0805571039e+000,
3.1968750000e+001,4.0628070769e+000,3.9810040569e+000,3.6185946174e+000,3.8556289286e+000,3.9668793075e+000,4.0194092270e+000,3.7635678180e+000,3.9863118980e+000,3.9901091903e+000,4.2447014696e+000,3.8225380012e+000,3.9880708670e+000,3.8460326083e+000,4.0642188051e+000,
3.2062500000e+001,4.0618228825e+000,4.0146225251e+000,3.5357145020e+000,3.7955067384e+000,3.9533918269e+000,3.9618009181e+000,3.7169480415e+000,3.9202781836e+000,3.9254810694e+000,4.1978723097e+000,3.7586703565e+000,3.9266003221e+000,3.7815070084e+000,4.0256951896e+000,
3.2156250000e+001,3.8225963333e+000,3.6843907540e+000,3.0878242613e+000,3.3487380995e+000,3.5822948561e+000,3.5668741563e+000,3.3361794472e+000,3.7556192875e+000,3.4884601023e+000,3.8394006786e+000,3.3010713200e+000,3.5690972892e+000,3.3198668333e+000,3.5406057510e+000,
3.2250000000e+001,4.2471005851e+000,4.2301703917e+000,3.8372806311e+000,4.0121902172e+000,4.1800264187e+000,4.1710740651e+000,3.9303671852e+000,4.1882386305e+000,4.0145927758e+000,4.3768909113e+000,3.8326270253e+000,4.0591596680e+000,3.9698381523e+000,4.1901485527e+000,
3.2343750000e+001,4.2762606277e+000,4.3328968510e+000,3.9600460214e+000,4.1215346050e+000,4.3145723583e+000,4.2992595199e+000,4.0676686037e+000,4.3026475433e+000,4.1813619869e+000,4.4743586323e+000,3.9540459273e+000,4.1693559845e+000,4.1107985471e+000,4.3304884563e+000,
3.2437500000e+001,4.3291602968e+000,4.4447483454e+000,3.9907374215e+000,4.1562790412e+000,4.3611409214e+000,4.3337634210e+000,4.0849583474e+000,4.3113940766e+000,4.2541955875e+000,4.5060799962e+000,4.2806337960e+000,4.1977280317e+000,4.1692945298e+000,4.3904129622e+000,
3.2531250000e+001,4.2907478664e+000,4.3896997739e+000,3.9704819760e+000,4.1380135337e+000,4.3219661809e+000,4.3134498725e+000,4.0353087046e+000,4.2684490244e+000,4.2335616212e+000,4.5466586325e+000,4.4827957069e+000,4.2632923533e+000,4.1405269036e+000,4.4015804623e+000,
3.2625000000e+001,4.3322606988e+000,4.3679577880e+000,4.0106189187e+000,4.1878005512e+000,4.3142085188e+000,4.3183005334e+000,4.0436190441e+000,4.2770496056e+000,4.2104107410e+000,4.6261083975e+000,4.4844460857e+000,4.2643791974e+000,4.1832270870e+000,4.3990942752e+000,
3.2718750000e+001,4.3378097452e+000,4.3854583623e+000,4.0461853829e+000,4.2257834277e+000,4.3330894733e+000,4.3594245396e+000,4.0676802383e+000,4.3146119939e+000,4.2291744512e+000,4.6823909038e+000,4.4928690475e+000,4.3114232924e+000,4.2174244684e+000,4.4355981841e+000,
3.2812500000e+001,4.2663405002e+000,4.3725623314e+000,4.0141256795e+000,4.2232263181e+000,4.2807346450e+000,4.3526264899e+000,4.0380105997e+000,4.2907849995e+000,4.2052578534e+000,4.6816292405e+000,4.4581749910e+000,4.2605093521e+000,4.1701214075e+000,4.3822764383e+000,
3.2906250000e+001,4.2803989008e+000,4.3638160336e+000,4.0330515567e+000,4.2466524805e+000,4.2852091107e+000,4.3915614903e+000,4.0925364262e+000,4.3386725749e+000,4.2329137986e+000,4.6998442824e+000,4.4713101731e+000,4.2851400046e+000,4.1961140524e+000,4.4411737041e+000,
3.3000000000e+001,4.3360333900e+000,4.3843549702e+000,4.0577555711e+000,4.2622339577e+000,4.3117634671e+000,4.4365544140e+000,4.0803826795e+000,4.3624297797e+000,4.2646243598e+000,4.7201808203e+000,4.4838155198e+000,4.2904315328e+000,4.2211576120e+000,4.4674590666e+000,
3.3093750000e+001,4.4025003907e+000,4.3849834733e+000,4.1433908942e+000,4.3131941436e+000,4.3792897649e+000,4.4677402933e+000,4.1255962048e+000,4.4061543705e+000,4.3070434701e+000,4.7592502085e+000,4.5136743126e+000,4.3508474804e+000,4.2487825205e+000,4.5128478590e+000,
3.3187500000e+001,4.3704841706e+000,4.3567180972e+000,4.0758420535e+000,4.2479413678e+000,4.3362076033e+000,4.4007364456e+000,4.0595184133e+000,4.3088019153e+000,4.2985188253e+000,4.6792260637e+000,4.4814889120e+000,4.2834022336e+000,4.1720589291e+000,4.4497406747e+000,
3.3281250000e+001,4.0132689531e+000,3.9093808512e+000,3.5294508988e+000,3.7031082963e+000,3.7870591394e+000,3.8934024607e+000,3.4920849951e+000,3.8878747239e+000,3.7908471476e+000,4.2490718227e+000,4.1175518730e+000,3.8532873732e+000,3.5020394412e+000,3.9336112491e+000,
3.3375000000e+001,3.9785749940e+000,3.9120956308e+000,3.4189191108e+000,3.5993847424e+000,3.6430846170e+000,3.7362916052e+000,3.3995022227e+000,3.7920477692e+000,3.6665330162e+000,4.1049379651e+000,4.0962156147e+000,3.7732531980e+000,3.4257924511e+000,3.7862957007e+000,
3.3468750000e+001,3.9934974822e+000,3.8338462372e+000,3.3962604112e+000,3.5843291001e+000,3.6040525047e+000,3.7348724306e+000,3.3939814154e+000,3.8575900422e+000,3.6047392503e+000,4.1070468052e+000,3.5478425969e+000,3.7291824654e+000,3.3515018071e+000,3.7149320875e+000,
3.3562500000e+001,4.1012380260e+000,3.9380100307e+000,3.4343901937e+000,3.6891810079e+000,3.6755347463e+000,3.8252237344e+000,3.4896724538e+000,3.9260148279e+000,3.7061207954e+000,4.1071720116e+000,3.2854107109e+000,3.7963452966e+000,3.4043253251e+000,3.8256304573e+000,
3.3656250000e+001,4.0819947940e+000,3.9695527443e+000,3.2879491861e+000,3.5886231319e+000,3.7388004749e+000,3.8131649089e+000,3.4581032004e+000,3.9078136200e+000,3.6980696328e+000,3.9675772524e+000,3.2818008439e+000,3.7718630284e+000,3.2580975355e+000,3.8286801431e+000,
3.3750000000e+001,4.0488825126e+000,3.9325869758e+000,3.2474983731e+000,3.5591063697e+000,3.7085361739e+000,3.7678440855e+000,3.4293699465e+000,3.8590311312e+000,3.6880247810e+000,3.8786541773e+000,3.1883314411e+000,3.6854955133e+000,3.2003913052e+000,3.7416213174e+000,
3.3843750000e+001,4.0428451286e+000,3.9170533344e+000,3.1586572841e+000,3.5038323308e+000,3.7079392728e+000,3.6543387788e+000,3.2996145316e+000,3.7755046844e+000,3.5773427819e+000,3.7874978162e+000,3.0628415709e+000,3.6082065918e+000,3.1442973032e+000,3.6430455526e+000,
3.3937500000e+001,4.1366821579e+000,4.0692659832e+000,3.4082445518e+000,3.7632745715e+000,3.9202263202e+000,3.8270679263e+000,3.5589286286e+000,3.9964267475e+000,3.7317667132e+000,3.9511007938e+000,3.3378798272e+000,3.8315784674e+000,3.3712176494e+000,3.8438660751e+000,
3.4031250000e+001,4.0854800748e+000,4.0880326400e+000,3.4318073341e+000,3.8346764733e+000,3.9782623589e+000,3.8541702601e+000,3.6676812802e+000,3.9718399081e+000,3.8154257888e+000,4.0801312372e+000,3.4340967709e+000,3.8861191347e+000,3.5660432797e+000,3.9615896079e+000,
3.4125000000e+001,4.0039486455e+000,4.0353153885e+000,3.2890268415e+000,3.7381933753e+000,3.9198511136e+000,3.8095436109e+000,3.5695729073e+000,3.9708264062e+000,3.7548984365e+000,4.0042546864e+000,3.4127701551e+000,3.8595127352e+000,3.5071026606e+000,3.8897667266e+000,
3.4218750000e+001,3.9185948469e+000,3.9906718742e+000,3.2700396582e+000,3.7603214580e+000,3.9154463739e+000,3.8005375028e+000,3.5466361117e+000,3.9379019122e+000,3.6423081376e+000,4.0016297836e+000,3.3993555528e+000,3.8878763810e+000,3.4674605853e+000,3.9237266575e+000,
3.4312500000e+001,3.9617336327e+000,4.0741027138e+000,3.8724377035e+000,3.7722798158e+000,3.8754535414e+000,4.0587957173e+000,3.5411761954e+000,4.2502477746e+000,3.6258828566e+000,4.0260416241e+000,3.3609095552e+000,4.2684233619e+000,3.5762339818e+000,4.3416148137e+000,
3.4406250000e+001,3.9447621129e+000,4.0959442379e+000,3.9682540160e+000,3.7834816731e+000,3.8718088701e+000,4.0629991658e+000,3.5643625909e+000,4.3418215327e+000,3.5758246756e+000,3.9654648204e+000,3.3600132094e+000,4.3187830307e+000,3.5982396400e+000,4.3971281186e+000,
3.4500000000e+001,3.8216157193e+000,3.9829101258e+000,3.9651145088e+000,3.6912448970e+000,3.8104907778e+000,3.9626355369e+000,3.4955641941e+000,4.2780428732e+000,3.5625589301e+000,3.8911595027e+000,3.2706069587e+000,4.2375107567e+000,3.6029936010e+000,4.3443779851e+000,
3.4593750000e+001,3.7623149452e+000,3.9135923782e+000,3.9607278758e+000,3.6270598368e+000,3.7940903278e+000,3.9211097012e+000,3.4620974847e+000,4.2693838937e+000,3.4892007146e+000,3.8697431547e+000,3.2132480291e+000,4.2137986053e+000,3.5453356582e+000,4.3179710041e+000,
3.4687500000e+001,3.7561423754e+000,3.8997971017e+000,3.9736989833e+000,3.6198086388e+000,3.7568341631e+000,3.9501816542e+000,3.5169438529e+000,4.2651002799e+000,3.4994069636e+000,3.8616977313e+000,3.2314675870e+000,4.2493437562e+000,3.5531477071e+000,4.3409839901e+000,
3.4781250000e+001,3.8262883464e+000,3.9274606469e+000,3.9923697782e+000,3.6113325621e+000,3.7913120465e+000,3.9595037259e+000,3.5056289092e+000,4.2922524753e+000,3.4096972481e+000,3.8712646862e+000,3.2714753847e+000,4.2609885958e+000,3.5347407381e+000,4.3787452629e+000,
3.4875000000e+001,3.7763297250e+000,3.9507119090e+000,3.9807593715e+000,3.5148980439e+000,3.7149555901e+000,3.8931210376e+000,3.4315297236e+000,4.2026886909e+000,3.4114781675e+000,3.7471250369e+000,3.1503119501e+000,4.2073511972e+000,3.4888575007e+000,4.3583325857e+000,
3.4968750000e+001,3.7220781386e+000,3.8904626613e+000,3.8857495426e+000,3.2549594478e+000,3.4983746011e+000,3.7992175584e+000,3.2748221949e+000,4.1448731054e+000,3.2217595611e+000,3.5522865570e+000,2.8287345019e+000,4.0962722088e+000,3.3024063368e+000,4.2713296613e+000,
3.5062500000e+001,3.7378480711e+000,3.8267024616e+000,3.8921549978e+000,3.0957735508e+000,3.3254370241e+000,3.7749977116e+000,3.2000496339e+000,4.0827406355e+000,3.0535520494e+000,3.2932734272e+000,2.6216398870e+000,4.0781741007e+000,3.1351129539e+000,4.2161160157e+000,
3.5156250000e+001,3.6712861021e+000,3.8637640611e+000,3.8700708884e+000,3.0788807411e+000,3.2732062984e+000,3.7467101531e+000,3.1426333973e+000,4.0915367316e+000,3.0487807865e+000,3.1822286964e+000,2.6513950416e+000,4.0466946363e+000,3.1241121055e+000,4.2408340192e+000,
3.5250000000e+001,3.5690578032e+000,3.7434982918e+000,3.6496687580e+000,2.9259362619e+000,3.1912520028e+000,3.5616778546e+000,3.1469715596e+000,3.9768425509e+000,3.0954772376e+000,3.1895643785e+000,2.6451799254e+000,3.7860147594e+000,3.1256582282e+000,3.9539476076e+000,
3.5343750000e+001,3.5286104567e+000,3.4576322788e+000,3.0142102554e+000,2.9097138859e+000,3.1809129892e+000,3.2869054642e+000,3.0975569383e+000,3.6789704272e+000,3.0758414011e+000,3.1732058090e+000,2.6734203649e+000,3.3556630164e+000,2.9227269550e+000,3.6047945711e+000,
3.5437500000e+001,3.7192142972e+000,3.8820336596e+000,2.9224039839e+000,2.8895609731e+000,4.1073770604e+000,3.4521940935e+000,3.0874174894e+000,3.5791352152e+000,3.3965435266e+000,3.2325498433e+000,2.7453922141e+000,3.2976733732e+000,3.0742593552e+000,3.5113254165e+000,
3.5531250000e+001,3.8461929922e+000,4.0233712326e+000,2.9577592018e+000,3.0085524929e+000,4.1232322890e+000,3.5541407831e+000,3.0701296323e+000,3.5863230985e+000,3.4514928123e+000,3.3916640483e+000,2.7510749931e+000,3.4029869852e+000,3.1074686109e+000,3.5477487651e+000,
3.5625000000e+001,4.2242351176e+000,4.2972370494e+000,3.5678902632e+000,3.6000220129e+000,4.4697957117e+000,3.9749353355e+000,3.7521367520e+000,4.0309154877e+000,3.9485231636e+000,3.8536934226e+000,3.5875423988e+000,3.8182153276e+000,3.7550024568e+000,4.0617511628e+000,
3.5718750000e+001,6.7457422815e+000,6.8236880168e+000,6.5067247482e+000,6.7293083654e+000,6.7912829645e+000,6.8696822419e+000,6.6269750422e+000,6.7174760129e+000,6.6996157396e+000,7.0252853499e+000,6.4542690392e+000,6.6754288144e+000,6.5995691300e+000,6.8013152968e+000,
3.5812500000e+001,6.7953234516e+000,6.8863141205e+000,6.6029199163e+000,6.8305274184e+000,6.8662185033e+000,6.9442764178e+000,6.7196718036e+000,6.8032826778e+000,6.8044599689e+000,7.1374418203e+000,6.5597389455e+000,6.7841124045e+000,6.7094320617e+000,6.9123003343e+000,
3.5906250000e+001,6.7953220509e+000,6.8872721898e+000,6.6006855017e+000,6.8309336430e+000,6.8730588583e+000,6.9496468447e+000,6.7187653678e+000,6.8022764127e+000,6.8010517980e+000,7.1402415778e+000,6.5603032640e+000,6.7823499344e+000,6.7073412777e+000,6.9048083482e+000,
3.6000000000e+001,6.7943946625e+000,6.8904707316e+000,6.5982860933e+000,6.8303524981e+000,6.8781089520e+000,6.9477633432e+000,6.7170711474e+000,6.8009028656e+000,6.8040085632e+000,7.1388263171e+000,6.5612883846e+000,6.7840145675e+000,6.7095656097e+000,6.9042250730e+000,
3.6093750000e+001,6.7939140499e+000,6.8894359500e+000,6.5986551193e+000,6.8319311434e+000,6.8793329767e+000,6.9449402247e+000,6.7175854930e+000,6.8000059008e+000,6.8056436882e+000,7.1390329619e+000,6.5612070173e+000,6.7800268323e+000,6.7090364347e+000,6.9015885183e+000,
3.6187500000e+001,6.7950882538e+000,6.8884582174e+000,6.5985465418e+000,6.8311906342e+000,6.8779174782e+000,6.9432065430e+000,6.7194634806e+000,6.7971175614e+000,6.8060552804e+000,7.1393314135e+000,6.5628226977e+000,6.7787245036e+000,6.7111882955e+000,6.9014957249e+000,
3.6281250000e+001,6.7965540038e+000,6.8870318490e+000,6.5977355783e+000,6.8303105868e+000,6.8788709758e+000,6.9437809845e+000,6.7173298179e+000,6.7954847636e+000,6.8047401734e+000,7.1383605545e+000,6.5628067947e+000,6.7800995855e+000,6.7099072147e+000,6.9059523915e+000,
3.6375000000e+001,6.7940868358e+000,6.8966429346e+000,6.5995002196e+000,6.8290900489e+000,6.8766302938e+000,6.9446933024e+000,6.7152868675e+000,6.7914711098e+000,6.8005558422e+000,7.1386623626e+000,6.5632201401e+000,6.7802337482e+000,6.7081440376e+000,6.9047807162e+000,
3.6468750000e+001,6.7889485160e+000,6.8749802519e+000,6.6011161586e+000,6.8290723492e+000,6.8433045828e+000,6.9394559752e+000,6.7167175295e+000,6.7910927002e+000,6.7931053082e+000,7.1352652703e+000,6.5617188423e+000,6.7781646995e+000,6.7042310988e+000,6.9036516753e+000,
3.6562500000e+001,6.7896632442e+000,6.8730141477e+000,6.6013033756e+000,6.8286547290e+000,6.8433053321e+000,6.9397403435e+000,6.7163699917e+000,6.7915684818e+000,6.7942474133e+000,7.1357303505e+000,6.5615447978e+000,6.7764595860e+000,6.7045987524e+000,6.9045386118e+000,
3.6656250000e+001,6.4026021620e+000,6.4964442370e+000,6.1915505314e+000,6.4542829872e+000,6.4215469055e+000,6.5326459596e+000,6.3139548565e+000,6.3926963896e+000,6.3723062595e+000,6.7781557707e+000,6.1345850366e+000,6.3871423352e+000,6.2866075477e+000,6.5224679102e+000,
3.6750000000e+001,3.9088838328e+000,4.1542960927e+000,3.4653410080e+000,3.6058654658e+000,4.0083954857e+000,3.6328426187e+000,3.4934281342e+000,3.5955818389e+000,3.7764687413e+000,3.9518898943e+000,3.5249673312e+000,3.6139289847e+000,3.6845061973e+000,3.7828828474e+000,
3.6843750000e+001,4.0529791210e+000,4.1416752851e+000,3.3024347752e+000,3.5939212870e+000,4.1010725480e+000,3.7251255264e+000,3.4305140525e+000,3.5748215711e+000,3.6485375852e+000,3.9229699859e+000,3.4665441608e+000,3.4349879340e+000,3.5213255010e+000,3.5276975863e+000,
3.6937500000e+001,4.1073327270e+000,4.1514791057e+000,3.4341060673e+000,3.7074535354e+000,4.0160985036e+000,3.8123674381e+000,3.5747076300e+000,3.6166267823e+000,3.7618758609e+000,4.0194037893e+000,3.5162443612e+000,3.4964474395e+000,3.6344062460e+000,3.5999148711e+000,
3.7031250000e+001,4.1481165432e+000,4.1583403311e+000,3.4390568159e+000,3.7403046943e+000,4.0144527634e+000,3.8565749321e+000,3.5774844210e+000,3.7070186643e+000,3.7454385020e+000,4.0847426404e+000,3.5270841208e+000,3.4791037224e+000,3.6137288314e+000,3.6232269248e+000,
3.7125000000e+001,4.2060824430e+000,4.2277479740e+000,3.4995852822e+000,3.8123959634e+000,4.0699680721e+000,3.9822009919e+000,3.5923644190e+000,3.8773247301e+000,3.7665175478e+000,4.1337371643e+000,3.5307439986e+000,3.5681435523e+000,3.6536194559e+000,3.7194766559e+000,
3.7218750000e+001,4.2411797066e+000,4.2868229963e+000,3.5005382136e+000,3.8155809243e+000,4.1072308612e+000,4.0016662123e+000,3.6018672311e+000,3.9049558985e+000,3.7651266509e+000,4.1288773333e+000,3.5408002716e+000,3.5421595760e+000,3.6365946596e+000,3.6183240901e+000,
3.7312500000e+001,4.2367204671e+000,4.3265544221e+000,3.5183009974e+000,3.8666356498e+000,4.1722540146e+000,4.0768475049e+000,3.6479358976e+000,3.9929761682e+000,3.8931692356e+000,4.1843131400e+000,3.6028288203e+000,3.5784494284e+000,3.7061962038e+000,3.6108250292e+000,
3.7406250000e+001,4.2903129012e+000,4.3724639730e+000,3.5567311393e+000,3.9273865714e+000,4.2299400793e+000,4.1491186799e+000,3.6913528712e+000,4.0871677994e+000,3.9420879428e+000,4.2722214331e+000,3.6092929608e+000,3.7171750337e+000,3.7583583755e+000,3.8012636629e+000,
3.7500000000e+001,4.2468375028e+000,4.4200710915e+000,3.5424027663e+000,3.9252054409e+000,4.2647410754e+000,4.1593810393e+000,3.6884033727e+000,4.0870283462e+000,3.9839277377e+000,4.2901088554e+000,3.6257663614e+000,3.7911098290e+000,3.7668956061e+000,3.9141365788e+000,
3.7593750000e+001,4.2273142285e+000,4.4203251032e+000,3.5332000575e+000,3.9253560513e+000,4.2700402334e+000,4.1490673671e+000,3.7126549996e+000,4.0836729365e+000,3.9648688185e+000,4.2823863268e+000,3.6229481856e+000,3.7992611270e+000,3.7435401181e+000,3.8791685115e+000,
3.7687500000e+001,4.2199651869e+000,4.3256835633e+000,3.5218526300e+000,3.8995036006e+000,4.2582094149e+000,4.1602065642e+000,3.7239297691e+000,4.1097862698e+000,3.9478505283e+000,4.2513031165e+000,3.5963827091e+000,3.7923575680e+000,3.7148974253e+000,3.9004861141e+000,
3.7781250000e+001,4.1911704995e+000,4.3219276735e+000,3.4845414022e+000,3.8714316618e+000,4.2384753910e+000,4.1122568771e+000,3.6887024996e+000,4.1104155918e+000,3.8759178731e+000,4.2140321078e+000,3.5533141389e+000,3.7191660520e+000,3.6544072226e+000,3.8669932920e+000,
3.7875000000e+001,3.7792979571e+000,4.0702165437e+000,3.0240065289e+000,3.4215863051e+000,3.8953767163e+000,3.7166618877e+000,3.1946214882e+000,3.7933690224e+000,3.4017362341e+000,3.7678529604e+000,2.9795174615e+000,3.4211765881e+000,3.1160488864e+000,3.6063141691e+000,
3.7968750000e+001,3.6371383406e+000,3.9864596899e+000,2.8799754229e+000,3.3004871624e+000,3.9469401469e+000,3.6394085997e+000,3.1297751446e+000,3.7937839014e+000,3.3653957736e+000,3.6363784884e+000,2.9782942544e+000,3.3741468501e+000,3.0301908356e+000,3.5018158819e+000,
3.8062500000e+001,3.6221721093e+000,3.9281462825e+000,2.8855515811e+000,3.2887911558e+000,3.9392583733e+000,3.5739793087e+000,3.1369656189e+000,3.6969695259e+000,3.2551489526e+000,3.5980281374e+000,2.8641871770e+000,3.4050362081e+000,2.9300417834e+000,3.5219850055e+000,
3.8156250000e+001,3.5621526281e+000,3.8157521638e+000,2.7264386023e+000,3.1306645598e+000,3.8505779533e+000,3.4292455132e+000,3.0711303182e+000,3.5168135338e+000,3.3027689243e+000,3.5020361257e+000,2.8497039068e+000,3.3323624597e+000,2.8569858160e+000,3.4668228649e+000,
3.8250000000e+001,3.6960807577e+000,3.7855043292e+000,2.6405682718e+000,3.0617207958e+000,3.8153572206e+000,3.3909397875e+000,3.0299756417e+000,3.4545341378e+000,3.2293036855e+000,3.4576584041e+000,2.7669135930e+000,3.3198244285e+000,2.8086351101e+000,3.4449885624e+000,
3.8343750000e+001,3.6429714274e+000,3.4965334855e+000,2.5761136560e+000,2.9347834812e+000,3.6544854163e+000,3.2205855015e+000,2.8822365456e+000,3.3721677714e+000,3.0106123421e+000,3.3151452732e+000,2.6868198411e+000,3.3325384671e+000,2.6605851853e+000,3.4226410094e+000,
3.8437500000e+001,3.5721210112e+000,3.2642788377e+000,2.4483107036e+000,2.8193058668e+000,3.5718545728e+000,3.1374897467e+000,2.7544989030e+000,3.1652455078e+000,2.8801936502e+000,3.1852767558e+000,2.6226212609e+000,3.1857296695e+000,2.5623234746e+000,3.0699961163e+000,
3.8531250000e+001,3.5352032294e+000,3.3025744248e+000,2.5136133277e+000,2.7963133232e+000,3.5530288415e+000,3.1724931815e+000,2.6846033417e+000,3.1997339899e+000,2.8595012691e+000,3.1311892832e+000,2.6060279446e+000,3.0841521440e+000,2.5855045605e+000,2.9836037551e+000,
3.8625000000e+001,3.5552486414e+000,3.2992889039e+000,2.5298152502e+000,2.7753910144e+000,3.5476782627e+000,3.0593151483e+000,2.6585570439e+000,3.1757116849e+000,2.8108524554e+000,3.0963496995e+000,2.6213666734e+000,3.0500116271e+000,2.5345373438e+000,3.0329272955e+000,
3.8718750000e+001,3.6463701856e+000,3.3499069260e+000,2.4877464825e+000,2.7573993358e+000,3.5129608924e+000,3.1135889646e+000,2.6652708945e+000,3.0878534990e+000,2.8722207722e+000,3.1598223232e+000,2.6385740344e+000,3.1836492276e+000,2.5717287582e+000,3.0530824203e+000,
3.8812500000e+001,3.6376439038e+000,3.1983684375e+000,2.5057390310e+000,2.6749601186e+000,3.4697731586e+000,3.0974131136e+000,2.6185874125e+000,3.1444830394e+000,2.9836371692e+000,3.2327805254e+000,2.6401289132e+000,3.2741546439e+000,2.6799669194e+000,3.0441977434e+000,
3.8906250000e+001,3.6121126309e+000,3.1902250024e+000,2.5849733902e+000,2.6889363457e+000,3.4132992557e+000,3.1463813522e+000,2.5008371098e+000,3.2038386033e+000,2.9797319667e+000,3.2182102485e+000,2.5489878516e+000,3.2847735473e+000,2.6602181663e+000,3.0697279174e+000,
3.9000000000e+001,3.6604675673e+000,3.1805550533e+000,2.5578308528e+000,2.6397187376e+000,3.3760888032e+000,3.1438693764e+000,2.3960797042e+000,3.1189436237e+000,3.0546762582e+000,3.1473746667e+000,2.7183515436e+000,3.1456973324e+000,2.7557502172e+000,3.0075035686e+000,
3.9093750000e+001,3.6035029025e+000,3.2127060473e+000,2.5569954143e+000,2.6366517125e+000,3.4466126809e+000,3.1447679249e+000,2.4287614172e+000,3.1345754402e+000,3.0666727312e+000,3.0937312595e+000,2.7316203500e+000,3.0747940162e+000,2.8268836647e+000,2.9116053299e+000,
3.9187500000e+001,3.5331370105e+000,3.2251774426e+000,2.5960968912e+000,2.6870313445e+000,3.4375321510e+000,3.3547187156e+000,2.4818734754e+000,3.1737677026e+000,3.0712907489e+000,3.1443234237e+000,2.6903808872e+000,3.0824136585e+000,2.8097099834e+000,2.8932056367e+000,
3.9281250000e+001,3.3791383767e+000,3.2290405416e+000,2.6140394854e+000,2.7401812651e+000,3.4551840948e+000,3.3973901757e+000,2.4027713008e+000,3.2158657104e+000,3.1033503779e+000,3.1456262263e+000,2.6879424569e+000,3.0486127983e+000,2.8389322678e+000,2.8469754042e+000,
3.9375000000e+001,3.3461125336e+000,3.1910677439e+000,2.5709330812e+000,2.7634079250e+000,3.4553962442e+000,3.3988968443e+000,2.3858076220e+000,3.1874600882e+000,3.0993887494e+000,3.0717897246e+000,2.6346337417e+000,2.8676100775e+000,2.8076719903e+000,2.7926573195e+000,
3.9468750000e+001,3.4477990041e+000,3.3591215622e+000,2.6896933061e+000,2.9055029299e+000,3.4860759768e+000,3.4650741819e+000,2.4676301589e+000,3.3094662230e+000,3.1556817520e+000,3.1304568640e+000,2.6766793459e+000,2.9927085330e+000,2.8367598356e+000,2.8698549977e+000,
3.9562500000e+001,3.4183632071e+000,3.2498879417e+000,2.6696961503e+000,2.8914090101e+000,3.4719991214e+000,3.4696932151e+000,2.6250555065e+000,3.3394398102e+000,3.2336151935e+000,3.1577703739e+000,2.7502495870e+000,3.0197765460e+000,2.8271896681e+000,2.8859286108e+000,
3.9656250000e+001,3.6128539732e+000,3.5867474082e+000,2.7635522321e+000,3.0247029759e+000,3.6854384906e+000,3.6535345862e+000,2.6897209493e+000,3.4357246993e+000,3.2631247335e+000,3.2579413165e+000,2.7461759270e+000,3.0574250006e+000,2.8511325388e+000,2.8609713382e+000,
3.9750000000e+001,3.7696216118e+000,3.8927874391e+000,2.8708460833e+000,3.2421956620e+000,3.8936510279e+000,3.8238467233e+000,2.9603225217e+000,3.5957331427e+000,3.3361566856e+000,3.5264590736e+000,2.7800319331e+000,3.2372725311e+000,2.8981085767e+000,2.9901018148e+000,
3.9843750000e+001,3.9060636190e+000,4.0538881278e+000,2.9902535237e+000,3.3908854234e+000,3.9762269471e+000,3.9502613830e+000,3.0815384498e+000,3.7501891384e+000,3.3471231732e+000,3.6539752230e+000,2.8147139195e+000,3.3168155824e+000,2.9165867259e+000,3.2026280060e+000,
3.9937500000e+001,3.9403893451e+000,4.1173639812e+000,3.1535557691e+000,3.5816855553e+000,4.1878192955e+000,3.9745932065e+000,3.2893823532e+000,3.8457614147e+000,3.5305500839e+000,3.7868040121e+000,3.1212540666e+000,3.5197857684e+000,3.2359716121e+000,3.4379341564e+000,
4.0031250000e+001,3.9307881346e+000,4.1439866364e+000,3.2360895411e+000,3.6555987920e+000,4.1787507350e+000,4.0173479993e+000,3.4198567865e+000,3.8472923652e+000,3.6246186227e+000,3.8743509930e+000,3.1110589751e+000,3.5855058273e+000,3.3481779574e+000,3.4834738657e+000,
4.0125000000e+001,3.9240607244e+000,4.1847778298e+000,3.3024639624e+000,3.6752111058e+000,4.1583668051e+000,3.9816935053e+000,3.4891149583e+000,3.9089372479e+000,3.5816512912e+000,3.9140744890e+000,3.1478715978e+000,3.6120317653e+000,3.3345289081e+000,3.5106511721e+000,
4.0218750000e+001,3.9245788433e+000,4.1998733604e+000,3.3250088329e+000,3.6790870287e+000,4.1830763434e+000,3.9220302313e+000,3.5316746476e+000,3.8900227435e+000,3.5571892774e+000,3.8836260606e+000,3.1403408968e+000,3.5634242624e+000,3.3214487681e+000,3.5209222872e+000,
4.0312500000e+001,4.0266228482e+000,4.2067407571e+000,3.3243716326e+000,3.6738348632e+000,4.1919990344e+000,3.9041534434e+000,3.5915683943e+000,3.9054384521e+000,3.6565317887e+000,3.9118920645e+000,3.1998682141e+000,3.6026991171e+000,3.3813815547e+000,3.5634337770e+000,
4.0406250000e+001,3.9728417222e+000,4.2308774072e+000,3.3113834443e+000,3.6617435609e+000,4.2211587108e+000,3.8832506398e+000,3.6265375712e+000,3.8903174292e+000,3.6924986791e+000,3.9205824862e+000,3.2341123608e+000,3.6353779225e+000,3.4067516760e+000,3.5561748036e+000,
4.0500000000e+001,3.9638779674e+000,4.2154749532e+000,3.2424014948e+000,3.6044487473e+000,4.2302406723e+000,3.8336067354e+000,3.6480080987e+000,3.7844406355e+000,3.6791469834e+000,3.8790400362e+000,3.1841804465e+000,3.6197703938e+000,3.4017774845e+000,3.5690931527e+000,
4.0593750000e+001,3.9517990547e+000,4.2173297650e+000,3.2204436703e+000,3.6081470503e+000,4.2131655600e+000,3.8198359091e+000,3.5944612908e+000,3.7784679109e+000,3.6794763656e+000,3.8978782720e+000,3.1957439710e+000,3.5778078329e+000,3.4022226072e+000,3.5435378384e+000,
4.0687500000e+001,3.7440306636e+000,4.0048442872e+000,3.1669994116e+000,3.4837460665e+000,4.0810698737e+000,3.6550745701e+000,3.5323916908e+000,3.6610273339e+000,3.6608391489e+000,3.8746492502e+000,3.2028272966e+000,3.5602201033e+000,3.3912910042e+000,3.5360986336e+000,
4.0781250000e+001,3.5716337266e+000,4.6610221728e+000,3.0477756684e+000,3.3193960504e+000,3.8948814771e+000,3.4591765851e+000,3.4071036177e+000,3.6184208414e+000,3.6049306372e+000,3.6865417945e+000,3.2096420276e+000,3.4022924320e+000,3.3907747555e+000,3.4844105443e+000,
4.0875000000e+001,3.6806042992e+000,4.7004145657e+000,2.9299502003e+000,3.1905173265e+000,3.7804539447e+000,3.3404850697e+000,3.2969239352e+000,3.4477683947e+000,3.5416811782e+000,3.5210090879e+000,3.1603857690e+000,3.2958624657e+000,3.3326206125e+000,3.3816004211e+000,
4.0968750000e+001,3.6940122898e+000,4.6636946431e+000,2.6374906980e+000,2.7808588114e+000,3.4715576120e+000,3.1414483216e+000,3.1071715400e+000,3.2513215108e+000,3.3256555822e+000,3.2590024941e+000,2.9033407131e+000,2.9281840502e+000,2.9620591794e+000,3.0982332243e+000,
4.1062500000e+001,3.7086305984e+000,4.6425083717e+000,2.3715522413e+000,2.5386748107e+000,3.3873792576e+000,3.0224114801e+000,2.8031545043e+000,3.1707154232e+000,3.1251199304e+000,3.1886138684e+000,2.7673744212e+000,2.8683853146e+000,2.6821307167e+000,3.1303282050e+000,
4.1156250000e+001,3.7407008974e+000,4.5976778558e+000,2.3416854430e+000,2.6002718648e+000,3.3386312946e+000,2.9835804364e+000,2.6209344777e+000,3.1060588457e+000,3.1093730233e+000,3.0344457883e+000,2.7933990984e+000,2.8845008395e+000,2.6253461767e+000,3.1605507337e+000,
