Time (s),AF3,AF4,F3,F4,F7,F8,FC5,FC6,T7,T8,P7,P8,O1,O2,Sampling Rate
0.0000000000e+000,3.6555341251e+000,3.8756175667e+000,3.3122995399e+000,3.5862380626e+000,3.2020160599e+000,3.9466598864e+000,2.7215496204e+000,3.3530958728e+000,2.8204679408e+000,4.2431927444e+000,2.1771305811e+000,4.1686647965e+000,2.9808961917e+000,3.6690178216e+000,1
9.3750000000e-002,3.7407046135e+000,3.8113522012e+000,3.4191407919e+000,3.5836351698e+000,3.3634692456e+000,3.9107905119e+000,2.9472534095e+000,3.3111409456e+000,2.9339269974e+000,4.2246563318e+000,2.2428477199e+000,4.1454180904e+000,2.9292167135e+000,3.5885512404e+000,
1.8750000000e-001,3.6301504122e+000,3.8497239974e+000,3.3800319712e+000,3.5973670259e+000,3.3370469042e+000,3.8830492321e+000,2.9559566381e+000,3.2586864432e+000,3.0372712729e+000,4.1603287558e+000,2.4391402174e+000,4.1560502929e+000,2.8848280153e+000,3.4427118371e+000,
2.8125000000e-001,3.7425455359e+000,3.8938172974e+000,3.4964390030e+000,3.6397751096e+000,3.4193733527e+000,3.8111391820e+000,2.9925295784e+000,3.2732331345e+000,3.0751068294e+000,4.1593789430e+000,2.4917242362e+000,4.1143339888e+000,2.8592932809e+000,3.4497722410e+000,
3.7500000000e-001,3.6115375722e+000,3.7784144718e+000,3.4203956900e+000,3.5365719989e+000,3.2836178138e+000,3.6893653317e+000,2.8754306023e+000,3.2310413061e+000,3.1532714169e+000,4.1647520056e+000,2.4767727102e+000,4.0892293118e+000,2.6824102113e+000,3.4289435171e+000,
4.6875000000e-001,3.5115022582e+000,3.6642440400e+000,3.3072717074e+000,3.3478911369e+000,3.1999529820e+000,3.5867231075e+000,2.8340505777e+000,3.1421088427e+000,3.0788097722e+000,4.0575751345e+000,2.5929622552e+000,3.9226988829e+000,2.5704033863e+000,3.0761978349e+000,
5.6250000000e-001,3.5319964021e+000,3.6572102310e+000,3.2975049650e+000,3.3560058614e+000,3.2926004309e+000,3.6173923136e+000,3.0143775474e+000,3.1969233353e+000,3.1640419921e+000,4.1638014832e+000,2.5995868447e+000,3.9499769759e+000,2.6687823434e+000,3.1387442140e+000,
6.5625000000e-001,3.6653093352e+000,3.7820360374e+000,3.4100842966e+000,3.4774677623e+000,3.5684374620e+000,3.7042823826e+000,3.0955853834e+000,3.3579184765e+000,3.2012451135e+000,4.2270946557e+000,2.6060083397e+000,3.9806841988e+000,2.7649647315e+000,3.0604533363e+000,
7.5000000000e-001,3.6640087738e+000,3.7743388047e+000,3.4755711249e+000,3.4287949456e+000,3.9166596652e+000,3.6674914285e+000,3.1839661781e+000,3.4542842155e+000,3.1682734506e+000,4.2223609408e+000,2.6098142406e+000,3.9779886174e+000,2.7405046672e+000,3.1087964566e+000,
8.4375000000e-001,3.6901024773e+000,3.8398731223e+000,3.5245987838e+000,3.5172808014e+000,4.4934173763e+000,4.4085548175e+000,3.3254432243e+000,3.7006734289e+000,3.1731730618e+000,4.1877996663e+000,2.6431339216e+000,4.0717790151e+000,2.7065582983e+000,3.1958916828e+000,
9.3750000000e-001,3.7918040505e+000,3.9401229991e+000,3.5892341735e+000,3.6242801785e+000,4.6827757391e+000,4.6153071899e+000,3.6099935387e+000,3.8470407312e+000,3.1984478052e+000,4.2331701721e+000,2.6435071076e+000,3.9879491882e+000,2.7292655895e+000,3.3033989289e+000,
1.0312500000e+000,3.7721802527e+000,3.9052982768e+000,3.5912490296e+000,3.6557507396e+000,4.7613699557e+000,4.6437976885e+000,3.6461453144e+000,4.0107600410e+000,3.1985121665e+000,4.1240130342e+000,2.6037153679e+000,4.0317684795e+000,2.7888681333e+000,3.5026918415e+000,
1.1250000000e+000,3.7261334559e+000,3.8999075564e+000,3.4968884579e+000,3.5787264789e+000,4.7844904673e+000,4.6542698704e+000,3.6146641180e+000,4.0913775193e+000,3.2448052817e+000,4.1987454881e+000,2.6358264648e+000,4.0385695399e+000,2.9091824840e+000,3.6723470731e+000,
1.2187500000e+000,3.6800685758e+000,3.9123371985e+000,3.4263870640e+000,3.5691389964e+000,4.8153759438e+000,4.7305740663e+000,3.6931356488e+000,4.1231245096e+000,3.3327816400e+000,4.1689569392e+000,2.4814628716e+000,4.0456011404e+000,2.9294964441e+000,3.6769106851e+000,
1.3125000000e+000,3.6903772343e+000,3.8911743820e+000,3.3650421174e+000,3.5735928389e+000,4.8254679224e+000,4.8096535598e+000,3.6738755731e+000,4.1556970249e+000,3.3334711290e+000,4.1378700178e+000,2.5568408781e+000,4.1056159436e+000,3.0477912102e+000,3.7741923145e+000,
1.4062500000e+000,3.7506357053e+000,3.8926947542e+000,3.3863556416e+000,3.5404817589e+000,4.9502621419e+000,4.8602934389e+000,3.8140172331e+000,4.2197573896e+000,3.2196823544e+000,4.1666582073e+000,2.4749441816e+000,4.0310783259e+000,3.0126094543e+000,3.7478090961e+000,
1.5000000000e+000,3.8300185369e+000,4.0133613149e+000,3.4563963771e+000,3.6373034921e+000,4.9877110137e+000,4.9430655044e+000,3.8967960074e+000,4.2628554284e+000,3.2343188179e+000,4.1287078346e+000,2.5511864975e+000,4.0468050540e+000,3.0220726509e+000,3.8024932005e+000,
1.5937500000e+000,3.8206794236e+000,4.0533557406e+000,3.4638754854e+000,3.6699928447e+000,5.0006866479e+000,4.9592193379e+000,3.8780152934e+000,4.2196447742e+000,3.2805644000e+000,4.2159718143e+000,2.5641273403e+000,4.3360818934e+000,3.0150152303e+000,3.9384749161e+000,
1.6875000000e+000,3.8171755141e+000,4.0053789587e+000,3.4440731422e+000,3.6709674946e+000,4.9559654212e+000,4.9985196617e+000,3.9012903560e+000,4.2414371185e+000,3.3145649648e+000,4.3191427466e+000,2.5437716243e+000,4.3998007492e+000,2.9667397468e+000,4.0142857946e+000,
1.7812500000e+000,3.8102506542e+000,3.9580413579e+000,3.3811044952e+000,3.6489773137e+000,4.7152043864e+000,5.0439962116e+000,3.8171875831e+000,4.2114597022e+000,3.3701906324e+000,4.3518333736e+000,2.5962632670e+000,4.4149652054e+000,3.0176214593e+000,4.0042653392e+000,
1.8750000000e+000,3.7829315423e+000,3.9945899285e+000,3.3757760107e+000,3.6684686837e+000,4.4560317197e+000,4.7452835103e+000,3.6479295236e+000,4.0647864293e+000,3.4341569272e+000,4.5189198487e+000,2.5714014659e+000,4.5402925262e+000,3.1489278763e+000,4.1055483019e+000,
1.9687500000e+000,3.7932557814e+000,3.9845856848e+000,3.3537167760e+000,3.6985025218e+000,4.4059238406e+000,4.7469045140e+000,3.4879947205e+000,3.9963969174e+000,3.4825813664e+000,4.5563814175e+000,2.5619424152e+000,4.5221217961e+000,3.1863184048e+000,4.0498058091e+000,
2.0625000000e+000,3.9109733375e+000,4.1078533024e+000,3.4729687868e+000,3.7861411453e+000,4.4105736055e+000,4.8173662319e+000,3.4476645639e+000,3.9249543452e+000,3.6150714609e+000,4.5432417365e+000,2.4768658871e+000,4.5630527147e+000,3.2438113267e+000,4.0463822065e+000,
2.1562500000e+000,3.9664897163e+000,4.1064249924e+000,3.5344368050e+000,3.8614294830e+000,4.3659758645e+000,4.8106589321e+000,3.3364103164e+000,3.8685794533e+000,3.5633138699e+000,4.5511920145e+000,2.3934310656e+000,4.4852366096e+000,3.2668978960e+000,4.0434591490e+000,
2.2500000000e+000,3.9804745796e+000,4.1227246131e+000,3.5906326535e+000,3.8851887356e+000,4.3578401354e+000,4.7409257555e+000,3.2349792648e+000,3.8317955192e+000,3.4362802354e+000,4.6070263783e+000,2.2502719699e+000,4.4407000859e+000,3.1997507361e+000,3.9472189798e+000,
2.3437500000e+000,3.9768441322e+000,4.1225566676e+000,3.5626857654e+000,3.9252481565e+000,4.2522043249e+000,4.7471691751e+000,3.1693142343e+000,3.7934308330e+000,3.5224790227e+000,4.6796469522e+000,2.3584543704e+000,4.4562076012e+000,3.2282460846e+000,3.9827426301e+000,
2.4375000000e+000,3.9857621116e+000,4.0903529966e+000,3.5606906582e+000,3.9332149264e+000,4.1442860948e+000,4.7025684417e+000,3.0874868737e+000,3.7526728422e+000,3.5321870382e+000,4.6672812345e+000,2.3065860925e+000,4.4884934241e+000,3.2898035294e+000,4.0481062421e+000,
2.5312500000e+000,3.9365275081e+000,3.9773669666e+000,3.4929010357e+000,3.9116158630e+000,4.0379816586e+000,4.5913216092e+000,2.8954140485e+000,3.6791247780e+000,3.6340549753e+000,4.6940695459e+000,2.3401063997e+000,4.6191545648e+000,3.3451217590e+000,4.1255925977e+000,
2.6250000000e+000,4.0274258322e+000,4.0865024483e+000,3.6294730507e+000,3.9764382735e+000,4.0709894530e+000,4.6298573191e+000,2.9145987968e+000,3.7216736023e+000,3.5914105584e+000,4.5611006997e+000,2.5010217690e+000,4.4096580296e+000,3.3592346530e+000,3.9835116678e+000,
2.7187500000e+000,4.0696307973e+000,4.1245746722e+000,3.6587961799e+000,4.0295625977e+000,4.0486669771e+000,4.5510171835e+000,2.9577518975e+000,3.8664107947e+000,3.5668233934e+000,4.5826996063e+000,2.4395222305e+000,4.3202265399e+000,3.4453077106e+000,4.0219294291e+000,
2.8125000000e+000,4.0687336351e+000,4.0870037382e+000,3.6827824423e+000,4.0121608177e+000,4.1011699823e+000,4.3780378608e+000,3.1605011450e+000,3.8638980242e+000,3.4743244389e+000,4.6706133981e+000,2.3754449521e+000,4.2538184298e+000,3.3867131145e+000,4.0054174278e+000,
2.9062500000e+000,4.0807052878e+000,4.0564009792e+000,3.6775355202e+000,4.0174011275e+000,4.1109931438e+000,4.3388282482e+000,3.1278749465e+000,3.9019137655e+000,3.4249422465e+000,4.5130510803e+000,2.3372622050e+000,4.1511380007e+000,3.3442204831e+000,3.9771624963e+000,
3.0000000000e+000,4.1269722504e+000,4.1073510527e+000,3.7617233057e+000,3.9999315351e+000,4.0149458206e+000,4.2586825440e+000,3.1821750215e+000,3.9057947288e+000,3.3464658656e+000,4.4522939925e+000,2.3569161928e+000,4.3223225751e+000,3.3081058181e+000,4.0922476377e+000,
3.0937500000e+000,4.1183535190e+000,4.1062376743e+000,3.7649581601e+000,4.0550891542e+000,3.9304393135e+000,4.2772770507e+000,3.2258201458e+000,4.0049668696e+000,3.2383957813e+000,4.4410935024e+000,2.3815320659e+000,4.3175448862e+000,3.2295774473e+000,4.0769234077e+000,
3.1875000000e+000,4.1659706402e+000,4.1454278042e+000,3.8130282670e+000,4.0469757593e+000,3.8804640886e+000,4.2493753764e+000,3.2418314138e+000,3.9909161090e+000,3.2171510633e+000,4.5359787696e+000,2.3595222726e+000,4.3268508999e+000,3.1968611054e+000,4.0453159934e+000,
3.2812500000e+000,4.1517789978e+000,4.1535094547e+000,3.8045684035e+000,4.0552619269e+000,3.8542561416e+000,4.1976992828e+000,3.2814617790e+000,3.9755857653e+000,3.2151810372e+000,4.4452897881e+000,2.4013347748e+000,4.2945614466e+000,3.2517997656e+000,4.0791488020e+000,
3.3750000000e+000,4.1021567687e+000,4.1430316441e+000,3.7879158591e+000,4.0049815304e+000,3.7831720544e+000,4.1511670050e+000,3.2603139547e+000,3.9943129985e+000,3.2277137053e+000,4.4188683870e+000,2.3300144719e+000,4.3608706305e+000,3.2607662256e+000,4.0701359788e+000,
3.4687500000e+000,4.1503492185e+000,4.1715223433e+000,3.8463787692e+000,4.0367109798e+000,3.8841158525e+000,4.1960020509e+000,3.2330724857e+000,4.0010255476e+000,3.2465058819e+000,4.4046807049e+000,2.4060747940e+000,4.2143257708e+000,3.2351888462e+000,4.0336786862e+000,
3.5625000000e+000,4.1094576420e+000,4.1109164936e+000,3.7738105989e+000,3.9524738523e+000,3.9273949335e+000,4.1121563233e+000,3.1917662001e+000,3.9207706059e+000,3.2201873321e+000,4.4774762874e+000,2.5044241684e+000,4.1444913684e+000,3.2375090131e+000,4.0190462377e+000,
3.6562500000e+000,3.9947601145e+000,3.9413725895e+000,3.7015504936e+000,3.8151841490e+000,3.9343153203e+000,3.9778153678e+000,3.1855103007e+000,3.7818913794e+000,3.2261456115e+000,4.4865319254e+000,2.4465916044e+000,4.1337052301e+000,3.2530119848e+000,3.9999435008e+000,
3.7500000000e+000,4.1088717188e+000,4.1029504684e+000,3.8029990059e+000,3.9105675837e+000,3.9344830621e+000,4.0968972761e+000,3.1123768201e+000,3.9502884924e+000,3.2385816932e+000,4.5330333535e+000,2.5896982009e+000,4.3068951803e+000,3.2714932980e+000,4.0938881971e+000,
3.8437500000e+000,4.1243924706e+000,4.1166663234e+000,3.8097928003e+000,3.9491776352e+000,3.9756306628e+000,4.1617593896e+000,3.0987817636e+000,4.0064587497e+000,3.2636947387e+000,4.6762734791e+000,2.6054950728e+000,4.3752393663e+000,3.3065407289e+000,4.1135136322e+000,
3.9375000000e+000,4.1072600458e+000,4.1451783675e+000,3.8488019274e+000,3.9153535739e+000,4.0146964888e+000,4.1407840405e+000,3.1579391141e+000,4.0141461253e+000,3.2097118762e+000,4.7597458887e+000,2.6573260316e+000,4.3757841083e+000,3.3417584910e+000,4.1064477109e+000,
4.0312500000e+000,3.9372106893e+000,3.8803722985e+000,3.6634813597e+000,3.6555494843e+000,3.9060079016e+000,3.9280676143e+000,3.0008965888e+000,3.7926769046e+000,3.2039650406e+000,4.7205960864e+000,2.7728565207e+000,4.1516727754e+000,3.3173496906e+000,3.9642381434e+000,
4.1250000000e+000,4.0552654031e+000,3.9428875114e+000,3.7811456365e+000,3.7456176044e+000,4.0132773002e+000,3.9544683522e+000,3.1055301849e+000,3.8165531596e+000,3.1474487584e+000,4.7166994261e+000,2.7388816450e+000,4.1632842562e+000,3.3091337554e+000,3.9982934286e+000,
4.2187500000e+000,4.0894738757e+000,4.0200357385e+000,3.8328661995e+000,3.7927843642e+000,4.0368713076e+000,4.0706706375e+000,3.1101274131e+000,3.8274462134e+000,3.1733292823e+000,4.7042867106e+000,2.7317820454e+000,4.2048281782e+000,3.3973072472e+000,4.0497185529e+000,
4.3125000000e+000,4.0830926058e+000,3.9952486398e+000,3.8172319483e+000,3.7625590977e+000,4.0618938472e+000,4.0430189120e+000,3.0579324458e+000,3.8245197626e+000,3.1143866979e+000,4.7878195228e+000,2.8501529219e+000,4.3654256113e+000,3.3730922471e+000,4.0670631896e+000,
4.4062500000e+000,4.1314657406e+000,4.0872913837e+000,3.8707491606e+000,3.8429868829e+000,4.1146233985e+000,3.9688188299e+000,3.1391717359e+000,3.8151358161e+000,3.0579487389e+000,4.8428234429e+000,2.8728808657e+000,4.4638647736e+000,3.4418908077e+000,4.1654283096e+000,
4.5000000000e+000,4.1424770204e+000,4.0891287850e+000,3.8850973631e+000,3.8636627204e+000,4.0921776529e+000,3.9692330869e+000,3.1003856593e+000,3.8742728894e+000,2.8232202130e+000,4.7777271879e+000,2.9204415311e+000,4.5273305217e+000,3.5358892071e+000,4.1675379744e+000,
4.5937500000e+000,4.1400501722e+000,4.1130819298e+000,3.8942189065e+000,3.9005924461e+000,4.0169890363e+000,4.0298100721e+000,3.0961165113e+000,3.9066463898e+000,2.7392201570e+000,4.7492534089e+000,2.9229992720e+000,4.5551956989e+000,3.4590863281e+000,4.1616899258e+000,
4.6875000000e+000,4.1211331402e+000,4.1116452202e+000,3.9029107644e+000,3.9006842546e+000,3.9844440720e+000,4.0869938656e+000,3.1437366339e+000,3.8953076174e+000,2.6353665642e+000,4.7467704667e+000,2.9222547559e+000,4.5392397338e+000,3.4492869504e+000,4.1322839988e+000,
4.7812500000e+000,3.9928723591e+000,4.0162206312e+000,3.7892129893e+000,3.7894402345e+000,3.9710113529e+000,3.8547024823e+000,3.0128927289e+000,3.7476991978e+000,2.6095713917e+000,4.5334833456e+000,2.8888935666e+000,4.4039159537e+000,3.4081431138e+000,4.0259693826e+000,
4.8750000000e+000,3.9666155557e+000,3.9992405544e+000,3.7504915099e+000,3.8145094777e+000,3.8884701812e+000,3.8506596172e+000,3.0634974869e+000,3.7375958528e+000,2.7008152600e+000,4.4122631913e+000,2.9867016440e+000,4.4360046610e+000,3.3381476663e+000,4.0621814305e+000,
4.9687500000e+000,4.0390257317e+000,3.9868539473e+000,3.7687998478e+000,3.7727997613e+000,3.9477187364e+000,3.8242219657e+000,3.0224302522e+000,3.6562505602e+000,2.7468674395e+000,4.4007095353e+000,3.0030327319e+000,4.5071828714e+000,3.4084190263e+000,4.1261302686e+000,
5.0625000000e+000,3.9569949239e+000,4.0082853537e+000,3.7323801731e+000,3.7921575952e+000,3.9242791904e+000,3.8782410137e+000,2.9432680450e+000,3.7901776979e+000,2.8106478995e+000,4.4762543835e+000,3.0632442878e+000,4.5900521050e+000,3.5224427772e+000,4.2321193111e+000,
5.1562500000e+000,3.9492722821e+000,4.1626706218e+000,3.7010260034e+000,3.8368503032e+000,3.9082215482e+000,3.9574910593e+000,2.9434518102e+000,3.8165140083e+000,2.9036689610e+000,4.5604920012e+000,3.0796230593e+000,4.6949599431e+000,3.5648685401e+000,4.2936318219e+000,
5.2500000000e+000,3.8699889375e+000,4.1116475295e+000,3.5723364764e+000,3.8249700752e+000,3.8925751989e+000,4.0130178259e+000,2.9464465624e+000,3.8358036897e+000,2.9096915418e+000,4.6962791913e+000,3.0959728786e+000,4.6205961751e+000,3.4961944918e+000,4.2158945236e+000,
5.3437500000e+000,4.0323268401e+000,4.2370515703e+000,3.6581248635e+000,3.9021737972e+000,4.0213538775e+000,4.1723942931e+000,3.0033777489e+000,3.8327876508e+000,2.9269456329e+000,4.6702142428e+000,3.0155438737e+000,4.5328912617e+000,3.4579533578e+000,4.1735634706e+000,
5.4375000000e+000,3.9235693030e+000,4.1821563132e+000,3.6134311043e+000,3.8080904377e+000,4.0191059812e+000,4.1609549998e+000,2.9164184652e+000,3.6793430586e+000,2.9622875375e+000,4.6139829335e+000,3.0633041336e+000,4.3672709656e+000,3.3737187071e+000,4.0779647004e+000,
5.5312500000e+000,3.8860078527e+000,4.1452538529e+000,3.5249363241e+000,3.7540894477e+000,3.9757845436e+000,4.1062955097e+000,2.9373025476e+000,3.6497743781e+000,3.1452546161e+000,4.5999803941e+000,2.9680777066e+000,4.3201604358e+000,3.3393411570e+000,4.0578425310e+000,
5.6250000000e+000,3.9022024939e+000,4.1709125248e+000,3.5642699127e+000,3.8075980749e+000,3.9646035813e+000,4.1332060609e+000,2.9267962035e+000,3.6855155503e+000,3.1711766355e+000,4.6413987450e+000,2.9704482359e+000,4.2548677630e+000,3.3173041111e+000,4.0744624517e+000,
5.7187500000e+000,3.8664866133e+000,4.1068314321e+000,3.5069060307e+000,3.7735115763e+000,3.9768383302e+000,4.0618670539e+000,2.8351892484e+000,3.5618432643e+000,3.1873892319e+000,4.6206100216e+000,2.8728793658e+000,4.2634505262e+000,3.3582990804e+000,4.0861994572e+000,
5.8125000000e+000,3.8039005595e+000,4.0849679497e+000,3.4720644512e+000,3.7387059222e+000,3.9025293468e+000,4.0622173389e+000,2.7359091756e+000,3.5921792153e+000,3.1938441826e+000,4.6441563504e+000,2.8436404711e+000,4.2505485504e+000,3.4073617854e+000,4.0503509888e+000,
5.9062500000e+000,3.8256202493e+000,4.1108322373e+000,3.4481055946e+000,3.7881782846e+000,3.8897226839e+000,4.2325616762e+000,2.7770410729e+000,3.7423444609e+000,3.1895736006e+000,4.6539972593e+000,2.6978421819e+000,4.1993715795e+000,3.5825748198e+000,4.0683117318e+000,
6.0000000000e+000,3.8137113807e+000,4.1101189794e+000,3.3878816062e+000,3.7715091010e+000,3.9042057737e+000,4.1966339184e+000,2.8181756159e+000,3.6651729402e+000,3.1274399678e+000,4.6456055461e+000,2.5896737699e+000,3.9957801592e+000,3.5122830017e+000,3.8537353879e+000,
6.0937500000e+000,3.9037887889e+000,4.1363462641e+000,3.4199149567e+000,3.8050178465e+000,3.9654470550e+000,4.2081577609e+000,2.9512894747e+000,3.6506229086e+000,3.0928203984e+000,4.6452365721e+000,2.5919710775e+000,3.9426998824e+000,3.5218801922e+000,3.7778848976e+000,
6.1875000000e+000,3.9230768709e+000,4.0028442967e+000,3.4696003830e+000,3.7321241440e+000,3.9673611498e+000,4.2318614144e+000,2.9645086962e+000,3.6138768607e+000,3.1151015098e+000,4.5034363635e+000,2.5961794041e+000,3.9200559152e+000,3.6818583656e+000,3.8650306310e+000,
6.2812500000e+000,3.8472533946e+000,3.9817799697e+000,3.4676180669e+000,3.7272599320e+000,3.7904587302e+000,4.1473594857e+000,2.9801481005e+000,3.6763773240e+000,3.0699550561e+000,4.3846601170e+000,2.6268042564e+000,3.8711720451e+000,3.7347324307e+000,3.9069163867e+000,
6.3750000000e+000,3.8264693243e+000,3.9515088703e+000,3.4434670421e+000,3.7167788164e+000,3.7330933179e+000,4.1755978130e+000,2.9069407182e+000,3.7063185565e+000,3.0668082710e+000,4.4200921054e+000,2.6373217451e+000,3.9542491341e+000,3.6885765139e+000,3.9580339856e+000,
6.4687500000e+000,3.9158792376e+000,3.9534912916e+000,3.4876276837e+000,3.6910533006e+000,3.7697283244e+000,4.1800555320e+000,3.0355246398e+000,3.7446853091e+000,3.1224194449e+000,4.4430296311e+000,2.5981530183e+000,4.0485804134e+000,3.6672069722e+000,4.0224123645e+000,
6.5625000000e+000,3.9418175693e+000,3.9618714170e+000,3.5339102193e+000,3.6939457235e+000,3.7857762270e+000,4.1640758440e+000,3.1273535540e+000,3.7161892414e+000,3.0879913844e+000,4.4531393693e+000,2.5751499737e+000,4.1612440050e+000,3.7159841025e+000,4.0959573037e+000,
6.6562500000e+000,4.0455916376e+000,4.0423606443e+000,3.5652774604e+000,3.7018793667e+000,3.8378055657e+000,4.1982928847e+000,3.2314874737e+000,3.7645223667e+000,3.0463667307e+000,4.4304719064e+000,2.5460779022e+000,4.1609691936e+000,3.7513522296e+000,4.0941404845e+000,
6.7500000000e+000,4.0600136390e+000,4.0945506943e+000,3.5654846177e+000,3.7644277257e+000,3.8142202156e+000,4.2387235659e+000,3.2541402626e+000,3.7604680342e+000,3.0201519855e+000,4.4383392557e+000,2.6098456847e+000,4.1885441379e+000,3.7245325705e+000,4.1205657205e+000,
6.8437500000e+000,4.1207327342e+000,4.1385524683e+000,3.6625628916e+000,3.7866077206e+000,3.7689186351e+000,4.1591407389e+000,3.3106167010e+000,3.8227898052e+000,2.9909477808e+000,4.3581137195e+000,2.6342797953e+000,4.1242125925e+000,3.6519048515e+000,4.0719664354e+000,
6.9375000000e+000,4.1851120322e+000,4.2321072666e+000,3.7830851330e+000,3.9111794523e+000,3.8045059129e+000,4.1701609289e+000,3.4220502911e+000,3.7862131652e+000,2.9696709753e+000,4.3981835447e+000,2.6719825171e+000,4.1805454231e+000,3.5512386563e+000,4.0832766352e+000,
7.0312500000e+000,4.2255116461e+000,4.2817339004e+000,3.7948801416e+000,3.9108425995e+000,3.7617235480e+000,4.2184601676e+000,3.3851676375e+000,3.8751292576e+000,2.9980055260e+000,4.4461552846e+000,2.7218971292e+000,4.1820724294e+000,3.5330571950e+000,4.0729652061e+000,
7.1250000000e+000,4.0567322847e+000,4.1526752425e+000,3.6774223512e+000,3.8078258246e+000,3.5608617788e+000,4.1101433969e+000,3.2728271393e+000,3.8646672752e+000,3.3172250114e+000,4.4559487602e+000,2.6676617922e+000,4.0981372750e+000,3.3765808036e+000,4.0076548418e+000,
7.2187500000e+000,4.0592573591e+000,4.0949041924e+000,3.7087728103e+000,3.7643227602e+000,3.6199102083e+000,4.0310159179e+000,3.3308999471e+000,3.8280567397e+000,3.1889988211e+000,4.5016959369e+000,2.6943303983e+000,4.0852543748e+000,3.0646423591e+000,3.9528044267e+000,
7.3125000000e+000,4.0130532387e+000,4.0290310702e+000,3.6270155483e+000,3.7378326024e+000,3.5846703243e+000,3.9361428729e+000,3.3484622825e+000,3.7932948554e+000,3.1752015413e+000,4.5783011067e+000,2.6446831550e+000,4.0422413200e+000,3.0431889390e+000,3.8287739229e+000,
7.4062500000e+000,4.0089950318e+000,4.0204142619e+000,3.6258667470e+000,3.7901571801e+000,3.4815252643e+000,3.9158692420e+000,3.3632606991e+000,3.8810043017e+000,3.2508744297e+000,4.7190024538e+000,2.6422146531e+000,4.0978356054e+000,3.0610087767e+000,3.7610942338e+000,
7.5000000000e+000,3.9676739169e+000,4.0422872906e+000,3.5837420592e+000,3.9084715007e+000,3.4350241055e+000,4.0492605188e+000,3.2167052990e+000,3.9521942088e+000,3.1881829176e+000,4.6809869272e+000,2.7780196952e+000,3.9885993001e+000,3.0686852482e+000,3.6281662091e+000,
7.5937500000e+000,3.9708856713e+000,4.0734270634e+000,3.5762464768e+000,3.9068277797e+000,3.5662322779e+000,4.0804204565e+000,3.3670292827e+000,3.9995459275e+000,3.1974666513e+000,4.6927038992e+000,2.7620170611e+000,3.9497989525e+000,2.8984326003e+000,3.5173570661e+000,
7.6875000000e+000,3.9316894187e+000,4.0543743010e+000,3.5717184912e+000,3.8644538443e+000,3.4801144865e+000,4.0519157967e+000,3.2490214680e+000,4.0108569280e+000,3.3986455538e+000,4.7426287317e+000,2.7618813103e+000,4.0212451036e+000,3.1056162235e+000,3.7338800683e+000,
7.7812500000e+000,3.9279210498e+000,4.0689834597e+000,3.5902123303e+000,3.8494510311e+000,3.5786888765e+000,4.0645488774e+000,3.1600471524e+000,4.0913326020e+000,3.4656202015e+000,4.7783363809e+000,2.8992418207e+000,4.0487648838e+000,3.2721109641e+000,3.8298113822e+000,
7.8750000000e+000,3.9627358851e+000,4.1008011921e+000,3.6362444481e+000,3.8470985485e+000,3.6470193801e+000,4.0830161768e+000,3.1996758927e+000,4.0558366244e+000,3.5270827204e+000,4.8557957627e+000,2.9935521951e+000,4.0936966505e+000,3.2773485133e+000,3.8681376888e+000,
7.9687500000e+000,3.9762714214e+000,4.0249071186e+000,3.5990352823e+000,3.7508570466e+000,3.7010452552e+000,4.0202615297e+000,3.2114513239e+000,3.9877644763e+000,3.5311648654e+000,4.9102738281e+000,3.1254854460e+000,4.1074208453e+000,3.2070791254e+000,3.8906906053e+000,
8.0625000000e+000,3.9803417114e+000,3.9978052222e+000,3.6072316359e+000,3.7379278129e+000,3.7561297802e+000,4.0302827741e+000,3.2834336403e+000,3.9232674703e+000,3.4870880236e+000,4.7909520139e+000,3.1056506216e+000,4.1263126021e+000,3.2834950398e+000,3.9187685273e+000,
8.1562500000e+000,4.0382047918e+000,4.0185478180e+000,3.6224164925e+000,3.7740239814e+000,3.7538245093e+000,4.0615557843e+000,3.3211166235e+000,3.9071639953e+000,3.3407103311e+000,4.8611989962e+000,3.0632484088e+000,4.1734051111e+000,3.2815863924e+000,3.9306658593e+000,
8.2500000000e+000,4.0817254917e+000,4.0661411474e+000,3.6600406901e+000,3.8480084088e+000,3.7275823479e+000,4.0135566573e+000,3.3539381594e+000,3.9451722844e+000,3.3654080681e+000,4.9382846919e+000,3.0747839455e+000,4.2662927476e+000,3.2486967239e+000,4.0105967705e+000,
8.3437500000e+000,4.0294703394e+000,3.9889745518e+000,3.6974031424e+000,3.8156767507e+000,3.7545608513e+000,3.9300557753e+000,3.3396629578e+000,3.8631898989e+000,3.4189736376e+000,4.7780494771e+000,3.1005069444e+000,4.1762729172e+000,3.2309236459e+000,3.9500871394e+000,
8.4375000000e+000,4.0852848731e+000,4.0404119134e+000,3.7616504312e+000,3.8584029914e+000,3.8147828358e+000,3.9853051444e+000,3.2960817390e+000,3.8533819666e+000,3.3593333464e+000,4.6961944638e+000,3.0876121689e+000,4.1470281445e+000,3.3295142257e+000,3.9995253954e+000,
8.5312500000e+000,4.1185315972e+000,4.0720003750e+000,3.8250440095e+000,3.8590541621e+000,3.7838002683e+000,3.9524941952e+000,3.2222817576e+000,3.8831372901e+000,3.3764771958e+000,4.6755930545e+000,2.9806732076e+000,4.2070696351e+000,3.1987856723e+000,4.0319876696e+000,
8.6250000000e+000,4.0685618695e+000,3.9683705653e+000,3.7991290013e+000,3.8708345481e+000,3.6831713744e+000,3.9068052999e+000,3.1024750045e+000,3.7878979214e+000,3.2235486362e+000,4.6914652320e+000,2.9821274621e+000,4.1770404037e+000,3.0290369475e+000,3.8919554323e+000,
8.7187500000e+000,4.0041116761e+000,3.9429768032e+000,3.8242865551e+000,3.9103767977e+000,3.6610836763e+000,3.9570678353e+000,3.1600253262e+000,3.7236145053e+000,3.2050812923e+000,4.6466303549e+000,3.0805839384e+000,4.2075860110e+000,2.8456657007e+000,3.8374557054e+000,
8.8125000000e+000,3.9347655473e+000,3.9026148730e+000,3.7458592868e+000,3.8924757904e+000,3.5571190113e+000,3.9418718316e+000,3.1533768105e+000,3.7002809929e+000,3.1518231249e+000,4.7288598609e+000,2.9458946383e+000,4.2519905718e+000,2.4956144886e+000,3.7557482798e+000,
8.9062500000e+000,3.8481048280e+000,3.9895607933e+000,3.6839464693e+000,7.6226628860e+000,3.4989242689e+000,3.9791020055e+000,3.1008641359e+000,3.8233974902e+000,3.1915478460e+000,4.6548636241e+000,2.8465893015e+000,4.3559497222e+000,2.5001049407e+000,3.7675739632e+000,
9.0000000000e+000,3.8357385877e+000,3.9879013388e+000,3.6838748675e+000,7.9423803186e+000,3.4704507900e+000,4.0047464723e+000,3.0286482427e+000,3.7827870028e+000,3.2077100484e+000,4.5852594565e+000,2.6915253569e+000,4.3581499816e+000,2.3422336842e+000,3.7419017196e+000,
9.0937500000e+000,3.7708778676e+000,3.9780685168e+000,3.6934949108e+000,7.9492931815e+000,3.4652693882e+000,3.9832809946e+000,2.8372332126e+000,3.7799113976e+000,3.2506174508e+000,4.6161792334e+000,2.6436252666e+000,4.3299299794e+000,2.2249572926e+000,3.6710918036e+000,
9.1875000000e+000,3.6066868877e+000,3.9813398488e+000,3.6192060177e+000,7.9486368492e+000,3.4375141811e+000,4.0550845891e+000,2.5972950238e+000,3.7878823053e+000,3.3453557255e+000,4.3923424919e+000,2.6835041299e+000,4.2657042105e+000,2.4246644396e+000,3.5815926042e+000,
9.2812500000e+000,3.6537777505e+000,4.0430681040e+000,3.5977873709e+000,7.9487537317e+000,3.4518214494e+000,4.1577284928e+000,2.4851230563e+000,3.8073268687e+000,3.3131461090e+000,4.2476410512e+000,2.6692112144e+000,4.2213796588e+000,2.6493554445e+000,3.5582753253e+000,
9.3750000000e+000,3.6750219138e+000,4.1162382287e+000,3.5713600652e+000,7.9481447989e+000,3.4940340133e+000,4.2049288884e+000,2.4522203282e+000,3.8476232342e+000,3.2904213290e+000,4.2663748624e+000,2.7310247628e+000,4.2275647097e+000,2.6553851753e+000,3.6122451265e+000,
9.4687500000e+000,3.5175284808e+000,4.0213485821e+000,3.4077023816e+000,7.9459357697e+000,3.4715342770e+000,4.1009201564e+000,2.5113284119e+000,3.7332009676e+000,3.3262849286e+000,4.2932397523e+000,2.7426714486e+000,4.2080814160e+000,2.6779716816e+000,3.6382936099e+000,
9.5625000000e+000,3.4751671576e+000,3.9801466799e+000,3.3355513188e+000,7.9966871090e+000,3.4754012912e+000,3.9906274052e+000,2.5393386434e+000,3.6156358879e+000,3.3933520155e+000,4.2689372772e+000,2.7481381815e+000,4.1793769148e+000,2.7683185677e+000,3.6966898188e+000,
9.6562500000e+000,3.5404642239e+000,4.8964531162e+000,3.2878441151e+000,1.0131528901e+001,3.4620508708e+000,4.0091250408e+000,2.5163915269e+000,4.8329693518e+000,3.3862933880e+000,5.7991214870e+000,2.6341064244e+000,4.2361404359e+000,2.7861405882e+000,3.7713149294e+000,
9.7500000000e+000,3.5832257715e+000,5.0846983559e+000,3.2100142626e+000,1.0395715847e+001,3.5061348147e+000,4.0136905741e+000,2.6377809472e+000,5.0794760749e+000,3.3831235858e+000,6.3910669227e+000,2.6025194260e+000,4.2413086248e+000,2.7873964345e+000,3.8237102756e+000,
9.8437500000e+000,3.6588648910e+000,5.1185030325e+000,3.2596148410e+000,1.0410671417e+001,3.4733412905e+000,4.0250443187e+000,2.5431473334e+000,5.1114060824e+000,3.4073259339e+000,6.4390460999e+000,2.5376360502e+000,4.0898570961e+000,2.9937455299e+000,3.8612697773e+000,
9.9375000000e+000,3.6985868045e+000,5.0805929154e+000,3.3251601518e+000,1.0343935929e+001,3.5702761346e+000,3.9487537769e+000,2.5059426027e+000,5.0966478423e+000,3.4492531828e+000,6.4399687520e+000,2.5889938266e+000,3.9917526016e+000,2.9738526905e+000,3.8106698871e+000,
1.0031250000e+001,3.7381569344e+000,5.0904774597e+000,3.3382853413e+000,1.0329606187e+001,3.5957035328e+000,3.9741117487e+000,2.7258813510e+000,5.1130760915e+000,3.4737448974e+000,6.4482870841e+000,2.5688076363e+000,4.2356225214e+000,3.0053430880e+000,3.9357964697e+000,
1.0125000000e+001,3.7923261145e+000,5.0941508673e+000,3.3375373009e+000,1.0329699522e+001,3.6303132366e+000,4.1395564706e+000,2.7877890297e+000,5.1269621646e+000,3.4605241170e+000,6.4552737890e+000,2.6026434737e+000,4.3221607963e+000,3.0366311226e+000,3.9634396855e+000,
1.0218750000e+001,3.8180170239e+000,5.0905917350e+000,3.3633026846e+000,1.0329699709e+001,3.6500492653e+000,4.1181523386e+000,2.8460953408e+000,5.1397775201e+000,3.3652310877e+000,6.4549159211e+000,2.5460312444e+000,4.3381416450e+000,3.0500456283e+000,4.0145816586e+000,
1.0312500000e+001,3.7481741399e+000,5.0726213768e+000,3.3061944394e+000,1.0329651347e+001,3.6053328846e+000,4.1100111972e+000,2.8938937459e+000,5.1521575581e+000,3.3943309869e+000,6.4727477027e+000,2.4275180695e+000,4.4002351069e+000,2.9202233704e+000,3.9659791096e+000,
1.0406250000e+001,3.9074136501e+000,5.0949478990e+000,3.4096975403e+000,1.0329878524e+001,3.7197682496e+000,4.1437545834e+000,2.8914376949e+000,5.1507030598e+000,3.4664061548e+000,6.4701129931e+000,2.5596901625e+000,4.4055801239e+000,2.9547165780e+000,3.9830423509e+000,
1.0500000000e+001,3.9005608204e+000,5.1111681619e+000,3.4200216274e+000,1.0329955569e+001,3.7099985003e+000,4.2206758041e+000,2.9768457857e+000,5.1508128974e+000,3.3684087835e+000,6.4731237003e+000,2.6220813609e+000,4.4714495928e+000,3.0371214634e+000,4.0317222177e+000,
1.0593750000e+001,3.8709787432e+000,5.0154057455e+000,3.3913046556e+000,1.0169857899e+001,3.7192801417e+000,4.1977719863e+000,3.0272404079e+000,5.1182780569e+000,3.2944563163e+000,6.4660372823e+000,2.5691769357e+000,4.4509173188e+000,3.0130308501e+000,3.9148711769e+000,
1.0687500000e+001,3.7782217866e+000,4.1587935137e+000,3.3803062349e+000,7.7630095426e+000,3.6919975563e+000,4.2033235340e+000,3.0122952966e+000,4.0073593521e+000,3.2144458669e+000,5.7042977930e+000,2.6272421730e+000,4.5662726437e+000,3.0352603998e+000,4.0489371888e+000,
1.0781250000e+001,3.7548191044e+000,4.0120021750e+000,3.3736529961e+000,6.1298630162e+000,3.7247215559e+000,4.1590286010e+000,2.9642217006e+000,3.8023281835e+000,3.1483364354e+000,4.5683330506e+000,2.5751307818e+000,4.5392038602e+000,2.9495331587e+000,3.9659783050e+000,
1.0875000000e+001,3.7236891322e+000,3.9279926762e+000,3.3178853648e+000,4.6687836770e+000,3.7646361874e+000,4.1928775987e+000,2.9339514632e+000,3.7801793631e+000,3.0195269459e+000,4.5398265871e+000,2.5796358987e+000,4.5480621859e+000,2.8601385110e+000,3.9521186952e+000,
1.0968750000e+001,3.6922023161e+000,3.9064189548e+000,3.2227973820e+000,3.8715726690e+000,3.6741563883e+000,4.1814364306e+000,2.9452557534e+000,3.7400001786e+000,2.7212955860e+000,4.3904880773e+000,2.5421139513e+000,4.4315231910e+000,2.8680757460e+000,3.9126721136e+000,
1.1062500000e+001,3.6476187973e+000,3.8575641020e+000,3.1722474809e+000,3.7069173869e+000,3.6303801895e+000,4.0895856677e+000,2.9445585198e+000,3.6856006557e+000,2.7387351811e+000,4.4395777222e+000,2.4800218741e+000,4.2937857744e+000,2.8360326092e+000,3.8429903782e+000,
1.1156250000e+001,3.5919964234e+000,3.8802446022e+000,3.1338009428e+000,3.6166721322e+000,3.5468835310e+000,3.9440803098e+000,3.0217849726e+000,3.6015565420e+000,2.7301121949e+000,4.4405565685e+000,2.4734157352e+000,4.3157889070e+000,2.8085931590e+000,3.8042693730e+000,
1.1250000000e+001,3.6601233299e+000,3.9760863638e+000,3.2087049709e+000,3.6752766374e+000,3.5423053800e+000,3.9081650820e+000,3.0116452695e+000,3.6367004617e+000,2.8667002503e+000,4.4557359765e+000,2.5701190229e+000,4.3280611708e+000,2.6861536252e+000,3.7588063656e+000,
1.1343750000e+001,3.6172490556e+000,3.9361303989e+000,3.1816731396e+000,3.6195607426e+000,3.4540981609e+000,3.8301234257e+000,3.0918402812e+000,3.5838877064e+000,2.7860981450e+000,4.4208427803e+000,2.5734499528e+000,4.3673162793e+000,2.6995152237e+000,3.7846818054e+000,
1.1437500000e+001,3.5080422369e+000,3.8099567377e+000,3.0462747823e+000,3.4313903684e+000,3.3651134300e+000,3.7630642529e+000,3.1187940902e+000,3.5565098732e+000,2.8768006927e+000,4.4794970384e+000,2.1861864323e+000,4.4566496339e+000,2.4479794567e+000,3.8160536478e+000,
1.1531250000e+001,3.5569539611e+000,3.7895680537e+000,3.1662578886e+000,3.4480121263e+000,3.4460679337e+000,3.7743140537e+000,3.1013128024e+000,3.5387204589e+000,3.0514821925e+000,4.5432569055e+000,2.0788529811e+000,4.5303918918e+000,2.3661206918e+000,3.9263431206e+000,
1.1625000000e+001,3.6465148282e+000,3.7756662117e+000,3.2085575110e+000,3.4506972111e+000,3.5300758642e+000,3.8484268386e+000,3.0142452050e+000,3.5354749804e+000,3.1519950605e+000,4.5108256240e+000,2.1033702020e+000,4.5210312851e+000,2.3112581666e+000,3.8205744782e+000,
1.1718750000e+001,3.8000353084e+000,3.8149067009e+000,3.2962554030e+000,3.4761891917e+000,3.5395099060e+000,3.8144674503e+000,3.0431695481e+000,3.5799461460e+000,3.1617230284e+000,4.3479003790e+000,2.1033201335e+000,4.4351992805e+000,2.4671268720e+000,3.8079506117e+000,
1.1812500000e+001,3.9360159734e+000,3.8573262635e+000,3.3396619932e+000,3.4842550742e+000,3.4770104853e+000,3.8078885170e+000,3.1967510801e+000,3.5224291473e+000,3.2553221047e+000,4.3240542062e+000,2.2290172711e+000,4.4193976355e+000,2.6382676116e+000,3.8114123069e+000,
1.1906250000e+001,4.0988395496e+000,3.9964034507e+000,3.4171673586e+000,3.5950359327e+000,3.5805405191e+000,3.8256439586e+000,3.3064621768e+000,3.5244682587e+000,3.3123067877e+000,4.4144759430e+000,2.3006818016e+000,4.5296398027e+000,2.7369637176e+000,3.8293965300e+000,
1.2000000000e+001,4.1092705098e+000,4.0357363923e+000,3.4510302171e+000,3.6732730576e+000,3.5439173042e+000,3.8941975375e+000,3.2557438628e+000,3.5928972439e+000,3.3779531567e+000,4.5407269030e+000,2.4142586903e+000,4.6199302699e+000,2.9177678766e+000,3.9467783205e+000,
1.2093750000e+001,4.2044934138e+000,4.0691683440e+000,3.5865435913e+000,3.8411271565e+000,3.7181929368e+000,3.9278375510e+000,3.3118779658e+000,3.5874851805e+000,3.4000251865e+000,4.5982475077e+000,2.4966016150e+000,4.7597250088e+000,2.9383674295e+000,4.1450150896e+000,
1.2187500000e+001,4.2256283455e+000,4.1046466988e+000,3.6252278989e+000,3.8883603215e+000,3.7488889705e+000,3.9538425355e+000,3.3137751865e+000,3.5908564020e+000,3.4638017857e+000,4.5961964858e+000,2.5341554251e+000,4.7744581053e+000,2.9417014283e+000,4.2091615418e+000,
1.2281250000e+001,4.2332842024e+000,4.0270896127e+000,3.6052722732e+000,3.9431056177e+000,3.8109422400e+000,3.9566255879e+000,3.2882561355e+000,3.5821739870e+000,3.4328001108e+000,4.6177320129e+000,2.6176890792e+000,4.7797160924e+000,2.8561152044e+000,4.2020903363e+000,
1.2375000000e+001,4.2665692756e+000,8.4121486505e+000,3.6193912710e+000,3.9890347246e+000,3.8241341844e+000,4.0562011305e+000,3.2343867237e+000,3.5739503630e+000,3.4657581926e+000,4.5984196332e+000,2.6582316761e+000,4.7186779564e+000,2.8584122273e+000,4.1869324180e+000,
1.2468750000e+001,4.2905056241e+000,9.3225388185e+000,3.6627624486e+000,4.0189966824e+000,3.8788593468e+000,4.3314571092e+000,3.1548284900e+000,3.6361237163e+000,3.4279202105e+000,4.5466367227e+000,2.7136710719e+000,4.6398627286e+000,2.9045221964e+000,4.1350389030e+000,
1.2562500000e+001,4.2805910736e+000,9.6100217785e+000,3.6092454169e+000,4.0126472720e+000,3.8100637349e+000,4.2782321027e+000,3.1385247983e+000,3.7007124826e+000,3.3442186328e+000,4.4346499595e+000,2.7991785260e+000,4.5724892070e+000,2.9153915684e+000,4.0345084086e+000,
1.2656250000e+001,4.2448643874e+000,9.6213989512e+000,3.6454403197e+000,4.1168200134e+000,3.8893616182e+000,4.4188419908e+000,3.3137878666e+000,3.7751547129e+000,3.3169992042e+000,4.4809156875e+000,2.7917696678e+000,4.5330101838e+000,2.9804641418e+000,4.0992369491e+000,
1.2750000000e+001,4.1991481364e+000,9.6216153060e+000,3.6299241665e+000,4.0761720863e+000,3.9331374304e+000,4.3864647337e+000,3.2925799282e+000,3.7095483557e+000,3.3114275316e+000,4.4730548446e+000,2.6725636059e+000,4.5050902540e+000,2.8926330713e+000,4.0367139535e+000,
1.2843750000e+001,4.0050375755e+000,9.6213492663e+000,3.5590925099e+000,4.0613098968e+000,3.8760084055e+000,4.3716769962e+000,3.1871482929e+000,3.7167298958e+000,3.2637095232e+000,4.5068930154e+000,2.7492765187e+000,4.4776492446e+000,2.9660218057e+000,4.0103856859e+000,
1.2937500000e+001,3.9010602056e+000,9.6212034684e+000,3.5435077999e+000,4.0423386413e+000,3.8744035751e+000,4.3179183012e+000,3.1437020291e+000,3.6594834848e+000,3.2595658823e+000,4.5285008987e+000,2.6953583246e+000,4.4673081381e+000,2.7415126280e+000,4.0215340585e+000,
1.3031250000e+001,3.7224518065e+000,9.6210015961e+000,3.4446423665e+000,3.9525066615e+000,3.8004147149e+000,4.2778972191e+000,3.0751865774e+000,3.6249253819e+000,3.1274903402e+000,4.4657897396e+000,2.7551613545e+000,4.2555376713e+000,2.8642489564e+000,3.8848543678e+000,
1.3125000000e+001,3.6967910110e+000,9.6210604265e+000,3.3891996968e+000,3.9743077121e+000,3.6411556290e+000,4.2402829825e+000,2.9449999967e+000,3.7271819959e+000,2.8823273379e+000,4.3872017291e+000,2.6765604851e+000,4.2494231145e+000,2.8801077507e+000,3.8131833569e+000,
1.3218750000e+001,3.7215418278e+000,9.6208936026e+000,3.3280902973e+000,3.9092987538e+000,3.6425836152e+000,4.2799205763e+000,2.8613166224e+000,3.8057976101e+000,2.8439306377e+000,4.3996154757e+000,2.5453124839e+000,4.1615096754e+000,2.9003369726e+000,3.8027334833e+000,
1.3312500000e+001,3.5121881513e+000,9.6170959446e+000,3.1830696893e+000,3.7521129912e+000,3.5178185524e+000,4.2866927804e+000,2.7682653751e+000,3.7414886443e+000,2.7672344567e+000,4.3022157811e+000,2.5969717790e+000,4.0926446883e+000,2.9886188929e+000,3.7774522464e+000,
1.3406250000e+001,3.5746265076e+000,9.1752328229e+000,3.2302267294e+000,3.7354148133e+000,3.4060905064e+000,4.0902653830e+000,2.7443754136e+000,3.7814738229e+000,2.6603311919e+000,4.2553269516e+000,2.5284185481e+000,4.0720063560e+000,3.0404499966e+000,3.8281123810e+000,
1.3500000000e+001,3.7320687339e+000,7.0604946337e+000,3.4045751895e+000,3.7918858100e+000,3.4998611399e+000,3.8681057535e+000,2.8638126804e+000,3.6825098200e+000,2.7807385724e+000,4.3219748880e+000,2.4693806750e+000,4.0020222009e+000,3.0986645788e+000,3.9215129413e+000,
1.3593750000e+001,3.7167198589e+000,4.6789321952e+000,3.3856898643e+000,3.7175013062e+000,3.4453974890e+000,3.7231062391e+000,2.6457682034e+000,3.5897773058e+000,2.8230943447e+000,4.3880836529e+000,2.4994580531e+000,4.0497938269e+000,2.9879047773e+000,3.9187496038e+000,
1.3687500000e+001,3.7806462391e+000,4.0160724907e+000,3.4251719600e+000,3.6552752402e+000,3.4892871901e+000,3.6208517649e+000,2.3652122563e+000,3.6229298477e+000,2.8050241671e+000,4.3719805084e+000,2.5399279410e+000,4.1960115456e+000,3.0247390882e+000,3.9035220881e+000,
1.3781250000e+001,3.8097296156e+000,3.9343350388e+000,3.4309886819e+000,3.6415927624e+000,3.4363443621e+000,3.6151479186e+000,2.2565812610e+000,3.6437465984e+000,2.9027241816e+000,4.4001673289e+000,2.6231538363e+000,4.2188908811e+000,3.0198182750e+000,3.9230981702e+000,
1.3875000000e+001,3.7868041745e+000,3.8704564828e+000,3.4076218090e+000,3.6139087229e+000,3.4648089778e+000,3.6652623116e+000,2.3381553448e+000,3.6594401866e+000,2.9227397403e+000,4.2802168165e+000,2.5020943663e+000,4.0944885252e+000,2.9378095182e+000,3.8876104778e+000,
1.3968750000e+001,3.8180859489e+000,3.7742993447e+000,3.3186134848e+000,3.5323648949e+000,3.4290537120e+000,3.6428391525e+000,2.2741523230e+000,3.6341808448e+000,2.9422435708e+000,4.2720613570e+000,2.3744355006e+000,4.1082914626e+000,2.8954100124e+000,3.8549608911e+000,
1.4062500000e+001,3.8672780605e+000,3.8326815060e+000,3.3266908083e+000,3.4251567837e+000,3.5770619669e+000,3.6960288089e+000,2.2131157275e+000,3.6327683095e+000,2.9923986578e+000,4.2537962492e+000,2.3273365674e+000,4.1915340134e+000,2.8584211736e+000,3.9297060668e+000,
1.4156250000e+001,3.9292100579e+000,3.8395066727e+000,3.4460076786e+000,3.4111943135e+000,3.6432029148e+000,3.6898462650e+000,2.3305959055e+000,3.5557865759e+000,3.1551337892e+000,4.3025679512e+000,2.4085627920e+000,4.1841244522e+000,2.8415468617e+000,3.9213641499e+000,
1.4250000000e+001,3.9629406788e+000,3.9123362840e+000,3.5075197122e+000,3.5699258551e+000,3.7478760571e+000,3.7989471996e+000,2.4785254159e+000,3.5179150357e+000,3.2495771085e+000,4.4167849042e+000,2.1992909190e+000,4.3576460321e+000,2.8995362359e+000,3.9810345349e+000,
1.4343750000e+001,3.9709725943e+000,3.9192967194e+000,3.5021331832e+000,3.5698826162e+000,3.8608551083e+000,3.7474798879e+000,2.5968497776e+000,3.5409671958e+000,3.2572589508e+000,4.4686370284e+000,2.1933383370e+000,4.3805418446e+000,2.9566947107e+000,3.9456192935e+000,
1.4437500000e+001,3.9926429775e+000,3.9143951889e+000,3.5171147702e+000,3.5591318573e+000,3.9163125394e+000,3.7789940118e+000,2.7525721332e+000,3.6034640340e+000,3.2452898970e+000,4.4881863438e+000,2.4103635188e+000,4.4078685136e+000,2.9739261049e+000,3.8199348483e+000,
1.4531250000e+001,3.8324295221e+000,3.7332212986e+000,3.4445274009e+000,3.4702468519e+000,3.8847104743e+000,3.7454764813e+000,2.6966722089e+000,3.6574947436e+000,3.2238908701e+000,4.5402946775e+000,2.4672586183e+000,4.4251505709e+000,3.0634013306e+000,3.8907831499e+000,
1.4625000000e+001,3.9380732196e+000,3.7616940374e+000,3.4918500294e+000,3.4533274924e+000,3.9605249985e+000,3.7844597643e+000,2.8023288134e+000,3.7441201197e+000,3.2946050278e+000,4.6776827326e+000,2.4058252274e+000,4.4202220231e+000,3.0677717569e+000,3.9232170350e+000,
1.4718750000e+001,3.9683364288e+000,3.7361264464e+000,3.4165413641e+000,3.4915071810e+000,3.9061859983e+000,3.7437535529e+000,2.8767519041e+000,3.7091896126e+000,3.3314872391e+000,4.7881997660e+000,2.3856026038e+000,4.4354837771e+000,2.9868608912e+000,3.9515401735e+000,
1.4812500000e+001,4.1451105588e+000,3.9796492647e+000,3.5933893509e+000,3.7678205927e+000,3.9802539119e+000,3.9075877045e+000,3.0495614893e+000,3.8194198854e+000,3.3935490069e+000,4.9233006324e+000,2.6307836918e+000,4.4890952369e+000,3.0688668610e+000,3.9877755985e+000,
1.4906250000e+001,4.2412181767e+000,4.0442691264e+000,3.7241742529e+000,3.7907487394e+000,4.0351930556e+000,3.9849769519e+000,3.0764192264e+000,3.8567561710e+000,3.5381680606e+000,4.9823926087e+000,2.6618522684e+000,4.5316739536e+000,3.1164884739e+000,4.0794077344e+000,
1.5000000000e+001,4.3518501239e+000,4.1257519229e+000,3.8532121470e+000,3.8689027969e+000,4.1137898737e+000,3.9563827985e+000,3.1838046370e+000,3.8443783858e+000,3.5344432970e+000,4.9649242385e+000,2.6965263630e+000,4.5982325570e+000,3.1220954713e+000,4.1536234195e+000,
1.5093750000e+001,4.4578769152e+000,4.2864139397e+000,4.0063863189e+000,4.0668855892e+000,4.2070536868e+000,4.1607382590e+000,3.2713353031e+000,4.0160458388e+000,3.7113439016e+000,5.0370631890e+000,2.7462652529e+000,4.9420285862e+000,3.4349227868e+000,4.5225314446e+000,
1.5187500000e+001,4.6539754262e+000,4.4931687903e+000,4.2244097019e+000,4.2882930846e+000,4.3770010715e+000,4.2876540319e+000,3.3949357702e+000,4.1845495219e+000,3.6916401610e+000,5.0951612245e+000,2.9502627082e+000,5.0317626549e+000,3.7585263479e+000,4.7481851413e+000,
1.5281250000e+001,4.6382461310e+000,4.4721704940e+000,4.2091712563e+000,4.2371489253e+000,4.3139155547e+000,4.2520897430e+000,3.4295775870e+000,4.1433196625e+000,3.6943439399e+000,5.0781410765e+000,2.9738063385e+000,5.0195382606e+000,3.7078450878e+000,4.7320863447e+000,
1.5375000000e+001,4.6432038806e+000,4.4910033333e+000,4.2758074964e+000,4.2794737292e+000,4.2810167680e+000,4.3150752868e+000,3.4206273905e+000,4.1879416407e+000,3.6987610798e+000,5.1473028844e+000,2.9834993194e+000,5.0941588546e+000,3.7304586098e+000,4.7828969624e+000,
1.5468750000e+001,4.6485514448e+000,4.5232045202e+000,4.2932001166e+000,4.3315251530e+000,4.3621012106e+000,4.3400952944e+000,3.3701806923e+000,4.1666418872e+000,3.6979539877e+000,5.1751168146e+000,2.8943581268e+000,5.1023844269e+000,3.7068344169e+000,4.7944979804e+000,
1.5562500000e+001,4.6439979511e+000,4.5559431379e+000,4.3443778782e+000,4.3657087921e+000,4.3426998897e+000,4.4263777594e+000,3.3544820141e+000,4.1105370824e+000,3.7039956296e+000,5.1738548573e+000,2.9248728495e+000,5.1180578386e+000,3.7320783049e+000,4.7743867135e+000,
1.5656250000e+001,4.6472171384e+000,4.6282941090e+000,4.3843428238e+000,4.4367699426e+000,4.3388404450e+000,4.4515778472e+000,3.3546512803e+000,4.1351896710e+000,3.7380602454e+000,5.1113988330e+000,2.8977257157e+000,5.0906515351e+000,3.7680941086e+000,4.7753061590e+000,
1.5750000000e+001,4.6438968464e+000,4.6371392858e+000,4.3772706254e+000,4.4550316764e+000,4.3136722964e+000,4.5731334211e+000,3.3916945831e+000,4.1444511341e+000,3.6990761538e+000,5.0760041258e+000,2.7880703781e+000,5.0536191189e+000,3.7659575240e+000,4.7683225260e+000,
1.5843750000e+001,4.5487808060e+000,4.5619993390e+000,4.3191582338e+000,4.3712744940e+000,4.2727905900e+000,4.5277383902e+000,3.3574277544e+000,4.1028339129e+000,3.6493542580e+000,5.0915621322e+000,2.8289335258e+000,5.0321169896e+000,3.8139627125e+000,4.7337701318e+000,
1.5937500000e+001,4.5085666341e+000,4.5105742414e+000,4.2577359538e+000,4.3148205508e+000,4.2397468392e+000,4.5314183869e+000,3.3572811944e+000,4.0967450149e+000,3.6208832983e+000,5.0574982383e+000,2.8072198274e+000,4.9707304088e+000,3.8876091132e+000,4.6926935223e+000,
1.6031250000e+001,4.5367662640e+000,4.5912691296e+000,4.2921758777e+000,4.3541524296e+000,4.2504719998e+000,4.5841221730e+000,3.3979854173e+000,4.1405230919e+000,3.6357678133e+000,5.0188578783e+000,2.8553065589e+000,4.9400993471e+000,3.9159638452e+000,4.6595016582e+000,
1.6125000000e+001,4.3513102206e+000,4.4079785333e+000,4.1177755241e+000,4.1903785557e+000,4.0421231951e+000,4.4161873164e+000,3.3504563939e+000,3.8611666736e+000,3.4367605264e+000,4.8751589831e+000,2.7395027479e+000,4.5287210355e+000,3.7812234445e+000,4.3421721860e+000,
1.6218750000e+001,4.2656740209e+000,4.2489434325e+000,3.9534147913e+000,4.0499072595e+000,3.9561587367e+000,4.2976124055e+000,3.2765428663e+000,3.6956756694e+000,3.3960116469e+000,4.8617463289e+000,2.5986235593e+000,4.3646837059e+000,3.5686173214e+000,4.0438758157e+000,
1.6312500000e+001,4.6674234246e+000,4.5052807747e+000,4.2597928612e+000,4.2431129071e+000,4.4432082321e+000,4.3891700361e+000,3.6175448447e+000,3.7323625302e+000,3.4046510484e+000,5.3246816380e+000,3.1508395670e+000,4.6486933574e+000,3.8286683792e+000,4.1490544642e+000,
1.6406250000e+001,4.9106237364e+000,4.6890804419e+000,4.4858116870e+000,4.4168277688e+000,4.6717567908e+000,4.4939288540e+000,3.8648968268e+000,3.7959335758e+000,3.6381631848e+000,5.6985237767e+000,3.6972568370e+000,4.8760648784e+000,4.2452115404e+000,4.3222522686e+000,
1.6500000000e+001,4.9759675702e+000,4.7681607407e+000,4.5742867431e+000,4.5092437213e+000,4.6987176980e+000,4.4959086092e+000,3.9566276944e+000,3.7597551771e+000,3.6308767151e+000,5.7067860260e+000,3.7585459468e+000,4.8928086313e+000,4.3510925935e+000,4.4370678948e+000,
1.6593750000e+001,5.0364865912e+000,4.8225475334e+000,4.5861497515e+000,4.6289171648e+000,4.7815334264e+000,4.6226608479e+000,4.0255466412e+000,3.8812530898e+000,3.5775924701e+000,5.8537024950e+000,3.8139471005e+000,4.9771703747e+000,4.3445732728e+000,4.5285772758e+000,
1.6687500000e+001,5.0023367950e+000,4.8226246960e+000,4.5969475410e+000,4.5719682053e+000,4.7458565058e+000,4.5746624315e+000,4.0149712965e+000,3.8859314031e+000,3.4539082426e+000,5.8346519824e+000,3.8351102882e+000,4.9973099659e+000,4.3828539304e+000,4.5602849730e+000,
1.6781250000e+001,5.0140647347e+000,4.8222658764e+000,4.5956641819e+000,4.5530436492e+000,4.7633859527e+000,4.4758236887e+000,3.9130797281e+000,3.9232450922e+000,3.5748065937e+000,5.8062533509e+000,3.8004771165e+000,5.0489609877e+000,4.3989798634e+000,4.5991125456e+000,
1.6875000000e+001,5.0220883821e+000,4.8794296485e+000,4.6404760271e+000,4.5953836026e+000,4.7474219375e+000,4.5012927936e+000,3.8969264312e+000,3.8921694199e+000,3.5212798352e+000,5.8142786046e+000,3.7871701463e+000,5.1055017180e+000,4.3779186814e+000,4.6473781238e+000,
1.6968750000e+001,5.0450423759e+000,4.9290633037e+000,4.6840171027e+000,4.6603349852e+000,4.7827314000e+000,4.5489538392e+000,3.9332715157e+000,3.9940696308e+000,3.5607223652e+000,5.8468941960e+000,3.8251886854e+000,5.1519733326e+000,4.4264000299e+000,4.7255981202e+000,
1.7062500000e+001,4.9966683638e+000,4.8498632133e+000,4.6375720843e+000,4.6378075986e+000,4.7553685922e+000,4.5157087832e+000,3.9367381459e+000,4.0176844025e+000,3.5683771893e+000,5.9074502016e+000,3.8548920559e+000,5.1510521196e+000,4.3937667725e+000,4.7214559495e+000,
1.7156250000e+001,5.0212166934e+000,4.8609176657e+000,4.6385065248e+000,4.6699807896e+000,4.7360718474e+000,4.5469352264e+000,3.9000112734e+000,4.1130873282e+000,3.6252224497e+000,5.9346220273e+000,3.8720066345e+000,5.1567326109e+000,4.4089975083e+000,4.7689134483e+000,
1.7250000000e+001,4.9851435221e+000,4.8837634153e+000,4.6444485048e+000,4.6484261371e+000,4.6997611938e+000,4.5542645928e+000,3.8730780667e+000,4.1161882360e+000,3.5936411007e+000,5.9442595399e+000,3.8914624691e+000,5.1431219535e+000,4.3971153856e+000,4.7815743651e+000,
1.7343750000e+001,4.6395443038e+000,4.7087306725e+000,4.2880692426e+000,4.5459407290e+000,4.2248582783e+000,4.5086724719e+000,3.4984066540e+000,4.1427491712e+000,3.4105801920e+000,5.5252309789e+000,3.5059418821e+000,4.9419900388e+000,4.0778923054e+000,4.6776917527e+000,
1.7437500000e+001,4.4920918551e+000,4.6422650714e+000,4.1536324667e+000,4.4443119536e+000,4.0558525477e+000,4.4435307280e+000,3.2618623255e+000,4.0859645620e+000,3.2568498892e+000,5.2921517914e+000,3.0313541277e+000,4.6913880150e+000,3.8129693572e+000,4.6104937622e+000,
1.7531250000e+001,4.3063979831e+000,4.5043142546e+000,3.8921503135e+000,4.2938702396e+000,3.7629703810e+000,4.3268594155e+000,3.0083506011e+000,4.0068415788e+000,3.2881614908e+000,5.1670301630e+000,3.0168214486e+000,4.5132894057e+000,3.7311848191e+000,4.4760415872e+000,
1.7625000000e+001,4.1714520080e+000,4.4172904709e+000,3.7741821319e+000,4.2543480837e+000,3.6385326868e+000,4.2031255361e+000,2.9120767782e+000,3.9841780926e+000,3.2500617915e+000,4.9954931486e+000,3.0233848656e+000,4.5679753369e+000,3.7556874395e+000,4.4633376481e+000,
1.7718750000e+001,4.1710194666e+000,4.4114954462e+000,3.7443614813e+000,4.2642795983e+000,3.5835183632e+000,4.2368871542e+000,3.1061140653e+000,3.9421851474e+000,3.2895665334e+000,5.0341115014e+000,3.0996353213e+000,4.5529368486e+000,3.6634944916e+000,4.4355920484e+000,
1.7812500000e+001,4.0718169399e+000,4.3240337280e+000,3.6310987580e+000,4.2553551149e+000,3.5311913775e+000,4.2111963607e+000,3.1069315063e+000,3.9431721852e+000,3.1223777455e+000,5.1214020582e+000,3.1733784824e+000,4.4722674750e+000,3.6554760974e+000,4.3394032600e+000,
1.7906250000e+001,3.9875896708e+000,4.2733994727e+000,3.5092112618e+000,4.2081717675e+000,3.4446455704e+000,4.1594040678e+000,2.9586063573e+000,3.8673438284e+000,3.1735954510e+000,5.0747587551e+000,3.2028535308e+000,4.3893209484e+000,3.5727018645e+000,4.2665046881e+000,
1.8000000000e+001,3.9813325514e+000,4.2566812712e+000,3.4826236832e+000,4.1456280892e+000,3.3408597912e+000,4.1422049764e+000,2.9446234201e+000,3.8184153169e+000,3.1871514229e+000,5.0818330465e+000,3.1480538445e+000,4.3683036697e+000,3.4762821548e+000,4.2034734743e+000,
1.8093750000e+001,4.1527563859e+000,4.3435767540e+000,3.5935835517e+000,4.1717641023e+000,3.4637815212e+000,4.1817919191e+000,3.0647425251e+000,3.8058426647e+000,3.0484451336e+000,4.9911075701e+000,3.0531585587e+000,4.3275038942e+000,3.4806088444e+000,4.1380131501e+000,
1.8187500000e+001,4.1180687811e+000,4.3683272760e+000,3.6484909149e+000,4.2109149191e+000,3.5510423527e+000,4.2013827058e+000,3.0904705266e+000,3.8091903471e+000,3.3427502885e+000,4.9219978710e+000,2.9879193935e+000,4.4027995088e+000,3.5533479546e+000,4.2094192577e+000,
1.8281250000e+001,4.0622664664e+000,4.2760114249e+000,3.6090025425e+000,4.1611641904e+000,3.5173081541e+000,4.1439446779e+000,3.0357245526e+000,3.7205177021e+000,3.3372778447e+000,4.8686639486e+000,3.0343542109e+000,4.3295287102e+000,3.4660719296e+000,4.1599231590e+000,
1.8375000000e+001,4.1022056680e+000,4.2675013343e+000,3.6564756707e+000,4.1246410553e+000,3.5006231291e+000,4.0807068510e+000,3.0680234777e+000,3.6863109236e+000,3.2529643230e+000,4.8745457927e+000,3.0505337797e+000,4.3609189136e+000,3.4215222694e+000,4.1075408377e+000,
1.8468750000e+001,4.1017524967e+000,4.2717233744e+000,3.6961942042e+000,4.1480142604e+000,3.6568485779e+000,4.1694505002e+000,3.0963944543e+000,3.7304045925e+000,3.3478649994e+000,4.8973453360e+000,2.9910585897e+000,4.4332067087e+000,3.4790351783e+000,4.1840926486e+000,
1.8562500000e+001,4.1630551460e+000,4.3614035241e+000,3.7774965892e+000,4.2170312279e+000,3.7734892187e+000,4.3220104983e+000,3.1418000746e+000,3.8550823997e+000,3.3880939886e+000,4.8793272750e+000,2.9693465631e+000,4.4732354704e+000,3.4382849030e+000,4.1849801217e+000,
1.8656250000e+001,4.1621047567e+000,4.3286376480e+000,3.7569777081e+000,4.1173570887e+000,3.7945681375e+000,4.3181116786e+000,3.2125030782e+000,3.8681147818e+000,3.4048892197e+000,4.8337236103e+000,2.9456985545e+000,4.3509919415e+000,3.4472311901e+000,4.1442475944e+000,
1.8750000000e+001,4.1884533978e+000,4.3855208816e+000,3.8375296715e+000,4.1490633065e+000,3.8439379149e+000,4.3789490311e+000,3.1041289988e+000,3.9392037290e+000,3.4208647367e+000,4.8981076126e+000,2.9427756466e+000,4.5230679049e+000,3.5047041707e+000,4.2173527561e+000,
1.8843750000e+001,4.2031152596e+000,4.3701186606e+000,3.8670872133e+000,4.1380838771e+000,3.8343299127e+000,4.3412802013e+000,3.0864932198e+000,3.9239439539e+000,3.4563515247e+000,4.7476537709e+000,2.8880147202e+000,4.5265291519e+000,3.5292419709e+000,4.2929469206e+000,
1.8937500000e+001,4.3007954484e+000,4.4278818156e+000,3.9679662564e+000,4.2168476342e+000,3.9730786451e+000,4.3822414519e+000,3.2140045539e+000,3.9884943821e+000,3.3985179818e+000,4.7545347493e+000,2.8288537259e+000,4.5928852244e+000,3.6537350240e+000,4.3955213358e+000,
1.9031250000e+001,4.3616871195e+000,4.4233199911e+000,4.0104648099e+000,4.1876351318e+000,4.1271618271e+000,4.3632864989e+000,3.1242009445e+000,3.9218671847e+000,3.3696248578e+000,4.7260337256e+000,2.8338351680e+000,4.6300626179e+000,3.7078423486e+000,4.4135554751e+000,
1.9125000000e+001,4.3032388783e+000,4.4165510612e+000,3.9976786555e+000,4.1033686917e+000,4.1811358262e+000,4.3525442635e+000,3.1386634932e+000,3.8357710392e+000,3.4165376625e+000,4.6590236983e+000,2.9641376797e+000,4.6325301511e+000,3.6694027764e+000,4.3883631035e+000,
1.9218750000e+001,4.2498432324e+000,4.3931877457e+000,3.9455106617e+000,4.0890416185e+000,4.1823758599e+000,4.3476153874e+000,3.1058374379e+000,3.8391887119e+000,3.2701275507e+000,4.6732249139e+000,2.8844446309e+000,4.6373278451e+000,3.6744567297e+000,4.3418103067e+000,
1.9312500000e+001,4.2915649570e+000,4.3920549887e+000,3.9525314183e+000,4.1105745002e+000,4.3367308108e+000,4.4138968913e+000,3.1603591535e+000,3.9196233586e+000,3.4198713676e+000,4.6778628809e+000,2.9516276884e+000,4.6488544543e+000,3.7111723009e+000,4.3774317267e+000,
1.9406250000e+001,4.2975313256e+000,4.3488490700e+000,3.9639421361e+000,4.0846159549e+000,4.2761047105e+000,4.3091611333e+000,3.1120652967e+000,3.8556591390e+000,3.5342233857e+000,4.6578441041e+000,2.9619371169e+000,4.6062675055e+000,3.7603274622e+000,4.4110394805e+000,
1.9500000000e+001,4.2674326131e+000,4.2885410404e+000,3.8767131135e+000,3.9904578377e+000,4.1845455668e+000,4.1700938355e+000,3.0101262631e+000,3.7670841942e+000,3.4235767858e+000,4.6689158361e+000,3.0311791852e+000,4.5224655081e+000,3.6757820988e+000,4.2987880152e+000,
1.9593750000e+001,4.4041064138e+000,4.3566521125e+000,4.0294130257e+000,4.0709138582e+000,4.2606477532e+000,4.1915144460e+000,3.0938637487e+000,3.7297193694e+000,3.3680817795e+000,4.7518139182e+000,2.9652217015e+000,4.5829919261e+000,3.7563591022e+000,4.4055767167e+000,
1.9687500000e+001,4.4764775766e+000,4.3590340536e+000,4.0467996762e+000,4.0714358433e+000,4.3212265211e+000,4.0820462876e+000,3.1780753025e+000,3.5888788091e+000,3.3395310123e+000,4.7544876841e+000,3.0596730288e+000,4.5122907784e+000,3.6538626600e+000,4.3456541400e+000,
1.9781250000e+001,4.9045379315e+000,4.8112159596e+000,4.5795637516e+000,4.5191779876e+000,4.7529995255e+000,4.4292027802e+000,3.6586144152e+000,3.9065192947e+000,3.5075854823e+000,5.0686224518e+000,3.5510613120e+000,4.8901839739e+000,4.0921698596e+000,4.7684610336e+000,
1.9875000000e+001,4.8826194130e+000,4.7922792540e+000,4.5648685154e+000,4.4706863072e+000,4.7511462075e+000,4.4035119427e+000,3.7119737224e+000,3.9064047239e+000,3.5900712317e+000,5.1179668401e+000,3.5525045862e+000,4.8881616797e+000,4.1237760554e+000,4.7187853599e+000,
1.9968750000e+001,4.8023698708e+000,4.7330337113e+000,4.4828644130e+000,4.4468622543e+000,4.6406137090e+000,4.3508617546e+000,3.6096397713e+000,3.8410846187e+000,3.6182412059e+000,5.0764671348e+000,3.5590141928e+000,4.8150154257e+000,4.0407235401e+000,4.6719027039e+000,
2.0062500000e+001,4.8363206072e+000,4.7246887447e+000,4.4586407161e+000,4.4647398641e+000,4.5970245855e+000,4.3827468213e+000,3.5862272696e+000,3.8062974342e+000,3.6141991901e+000,5.1436383887e+000,3.6728326005e+000,4.8728662926e+000,4.0766954149e+000,4.6870913829e+000,
2.0156250000e+001,4.8702364183e+000,4.7595195106e+000,4.5003249025e+000,4.5273366782e+000,4.6312315649e+000,4.4373029796e+000,3.5735568123e+000,3.9235355864e+000,3.5535036891e+000,5.2144250900e+000,3.6914638020e+000,4.9620406623e+000,4.1322464820e+000,4.7864007439e+000,
2.0250000000e+001,4.9119054144e+000,4.8283742505e+000,4.5347983795e+000,4.5449600296e+000,4.7281435429e+000,4.4614935243e+000,3.7886585110e+000,4.1057535968e+000,3.6127223618e+000,5.2879870890e+000,3.7378581713e+000,5.0429212673e+000,4.1547225784e+000,4.8690455233e+000,
2.0343750000e+001,4.8741488752e+000,4.8169610698e+000,4.5321915990e+000,4.5487188503e+000,4.6609095914e+000,4.4802154324e+000,3.8099889280e+000,4.1046023949e+000,3.4842596927e+000,5.3245636541e+000,3.7292003713e+000,5.0780095106e+000,4.1028182043e+000,4.8721003081e+000,
2.0437500000e+001,4.8868961835e+000,4.8223125882e+000,4.5488245410e+000,4.5409791374e+000,4.7098243030e+000,4.5045401105e+000,3.8681367322e+000,4.1408758884e+000,3.5067298829e+000,5.3572910363e+000,3.6746376486e+000,5.1136835089e+000,4.1159082576e+000,4.8798538953e+000,
2.0531250000e+001,4.8267371179e+000,4.7896174679e+000,4.5137095059e+000,4.5244328688e+000,4.7467533116e+000,4.5273068784e+000,3.8580697575e+000,4.1541607311e+000,3.4888688110e+000,5.3875565552e+000,3.6518025616e+000,5.1067780115e+000,4.0703145703e+000,4.8249837306e+000,
2.0625000000e+001,4.7944928511e+000,4.7719410109e+000,4.4649973202e+000,4.5303610768e+000,4.7266167723e+000,4.5764789641e+000,3.7809682405e+000,4.1930036136e+000,3.5487982496e+000,5.3331771503e+000,3.6183940014e+000,5.1081348819e+000,4.0596246576e+000,4.7892334189e+000,
2.0718750000e+001,4.2817311960e+000,4.3006277112e+000,3.7916582526e+000,4.0860488367e+000,4.3152264368e+000,4.2829073163e+000,3.3442061379e+000,4.0019640566e+000,3.3349123165e+000,5.2067337060e+000,3.0041344862e+000,4.7433796627e+000,3.5859428242e+000,4.3716628415e+000,
2.0812500000e+001,4.2361339720e+000,4.3309987327e+000,3.7492696727e+000,4.1503703472e+000,4.5751920876e+000,4.5301705721e+000,3.6208732978e+000,4.3221623301e+000,3.4919751174e+000,5.1768771148e+000,3.0059239907e+000,4.6918683239e+000,3.4987566049e+000,4.3383531689e+000,
2.0906250000e+001,4.2778246914e+000,4.3786497288e+000,3.7490807155e+000,4.2107156667e+000,4.6555724549e+000,4.6581727712e+000,3.5910385578e+000,4.4717139919e+000,3.4486930696e+000,5.1913570142e+000,3.0579315998e+000,4.7656288515e+000,3.4541473062e+000,4.3494267567e+000,
2.1000000000e+001,4.3296116288e+000,4.3895436333e+000,3.7906883961e+000,4.1822144447e+000,4.8052787646e+000,4.6617864139e+000,3.6603621451e+000,4.5077924535e+000,3.4221057764e+000,5.1754225058e+000,2.9711801405e+000,4.7874337039e+000,3.3877132062e+000,4.3267577963e+000,
2.1093750000e+001,4.2103970753e+000,4.3359272083e+000,3.7345027687e+000,4.1836266723e+000,4.8598997285e+000,4.6670780913e+000,3.7844729182e+000,4.5734887292e+000,3.3489960214e+000,5.1669494707e+000,2.8092122143e+000,4.7122579126e+000,3.2849049095e+000,4.2488494446e+000,
2.1187500000e+001,4.1259230957e+000,4.2456499838e+000,3.5706353806e+000,4.0825707813e+000,4.7299818531e+000,4.7210451718e+000,3.6536792673e+000,4.5135221445e+000,3.2777486589e+000,5.1482649452e+000,2.7859857620e+000,4.6333366142e+000,3.1444634430e+000,4.1672598722e+000,
2.1281250000e+001,4.2331241398e+000,4.3105857127e+000,3.7229304020e+000,4.1599192676e+000,4.7497257904e+000,4.6907349394e+000,3.6143981401e+000,4.5050548795e+000,3.2089548115e+000,5.1281276401e+000,2.7813488498e+000,4.6265356285e+000,3.1608360978e+000,4.0991455377e+000,
2.1375000000e+001,4.2556269574e+000,4.3485764138e+000,3.7170775827e+000,4.2017782192e+000,4.7800490140e+000,4.6950397004e+000,3.5943697417e+000,4.5415601033e+000,3.2028532962e+000,5.0791452605e+000,2.7058540820e+000,4.7294000299e+000,3.3148943664e+000,4.1850505295e+000,
2.1468750000e+001,4.1725603915e+000,4.2511010584e+000,3.6564033165e+000,4.1759647724e+000,4.7275940617e+000,4.7278238733e+000,3.5083458145e+000,4.5421759174e+000,3.2825077583e+000,5.0385703672e+000,2.6882463147e+000,4.7576021380e+000,3.2884615682e+000,4.2158226823e+000,
2.1562500000e+001,4.1422268729e+000,4.2364853425e+000,3.6501815531e+000,4.1405222744e+000,4.6820885776e+000,4.6823728905e+000,3.4996498925e+000,4.5268421797e+000,3.3568188082e+000,5.0238394778e+000,2.6737731698e+000,4.7752277676e+000,3.3968534178e+000,4.3211340953e+000,
2.1656250000e+001,4.1719002628e+000,4.2505194025e+000,3.7395255501e+000,4.1535126461e+000,4.6446057071e+000,4.6758992899e+000,3.5276524700e+000,4.5244013031e+000,3.3407353855e+000,4.9999749720e+000,2.7342742728e+000,4.7869778395e+000,3.4233111217e+000,4.3731705695e+000,
2.1750000000e+001,4.1720621142e+000,4.2631723642e+000,3.7701389533e+000,4.1521132171e+000,4.5951958323e+000,4.6490795718e+000,3.4809314724e+000,4.5078513197e+000,3.3729901087e+000,4.9132375999e+000,2.7377648314e+000,4.8437735999e+000,3.5269871287e+000,4.4152549088e+000,
2.1843750000e+001,4.1742881045e+000,4.1989507154e+000,3.7658019196e+000,4.1142275342e+000,4.3582611343e+000,4.4939885148e+000,3.1271629544e+000,4.2504080804e+000,3.1394094044e+000,4.8748669640e+000,2.6351446618e+000,4.8474095802e+000,3.5350598200e+000,4.3973711570e+000,
2.1937500000e+001,4.1273636127e+000,4.1577038600e+000,3.7472026830e+000,4.1389489168e+000,4.0507789834e+000,4.3659769260e+000,3.0106126890e+000,4.0984667219e+000,3.1710712556e+000,4.7213075999e+000,2.6576691465e+000,4.7256597460e+000,3.5022545988e+000,4.4072103495e+000,
2.2031250000e+001,4.0471312770e+000,4.0995350679e+000,3.6928879609e+000,4.1334405045e+000,3.8763161995e+000,4.3474120508e+000,2.8911288445e+000,4.0747176550e+000,3.1825895203e+000,4.7367413734e+000,2.6393022466e+000,4.6930291219e+000,3.5300164439e+000,4.4033673757e+000,
2.2125000000e+001,4.1225718399e+000,4.2023682232e+000,3.7538583933e+000,4.1632838004e+000,3.7830029663e+000,4.3683376876e+000,2.6426584285e+000,4.0496067343e+000,3.2603721123e+000,4.6669220529e+000,2.5421351548e+000,4.6674235136e+000,3.5184594378e+000,4.3744329723e+000,
2.2218750000e+001,4.0935846885e+000,4.1047574502e+000,3.7232163718e+000,4.0827200345e+000,3.7174497951e+000,4.2126866288e+000,2.5573019603e+000,3.9556489879e+000,3.2005706244e+000,4.6262764817e+000,2.3046744256e+000,4.6175844575e+000,3.5019631239e+000,4.3504522048e+000,
2.2312500000e+001,3.9439355626e+000,3.9799721654e+000,3.5477469472e+000,3.9743220050e+000,3.5958155408e+000,4.1322671820e+000,2.4295356036e+000,3.8088922904e+000,3.1116599906e+000,4.5774223585e+000,2.3189719320e+000,4.4341795097e+000,3.4320026920e+000,4.1976190942e+000,
2.2406250000e+001,3.8807136962e+000,3.9408431551e+000,3.5087132198e+000,3.9543247116e+000,3.4814613304e+000,4.1043111547e+000,2.4437331451e+000,3.8103768724e+000,3.0896189818e+000,4.5895603341e+000,2.3704009239e+000,4.3123654175e+000,3.4229247014e+000,4.1512766105e+000,
2.2500000000e+001,3.8349740882e+000,3.9421087857e+000,3.4819648185e+000,3.9765953763e+000,3.4907447251e+000,4.0917106724e+000,2.6452182158e+000,3.7097153350e+000,2.9361348339e+000,4.5829304316e+000,2.3495964372e+000,4.3753810099e+000,3.3750838834e+000,4.1947479446e+000,
2.2593750000e+001,3.8521258170e+000,3.9594078325e+000,3.4159987565e+000,3.9745846379e+000,3.6743475659e+000,4.2558559634e+000,2.7436107056e+000,3.8184936756e+000,2.9781080699e+000,4.5884295852e+000,2.3771697581e+000,4.3347104777e+000,3.2285227293e+000,4.1091973484e+000,
2.2687500000e+001,3.8032392623e+000,3.9935653087e+000,3.2744729912e+000,3.9315736131e+000,3.7502965744e+000,4.2481700578e+000,2.6224918297e+000,3.8861016517e+000,2.8807310706e+000,4.6235473374e+000,2.4410023081e+000,4.3202002757e+000,3.1026083053e+000,4.0684875147e+000,
2.2781250000e+001,3.7905051855e+000,3.9555773158e+000,3.2280055782e+000,3.9353137264e+000,3.6733372375e+000,4.1969379950e+000,2.6337859013e+000,3.8638337528e+000,2.8049602872e+000,4.5952975815e+000,2.3797907241e+000,4.3239696256e+000,3.0347027344e+000,4.0672146423e+000,
2.2875000000e+001,3.7813146939e+000,4.0312777244e+000,3.2640227027e+000,3.9553269189e+000,3.7410961057e+000,4.3177838936e+000,2.6898144565e+000,3.9440465975e+000,2.8008460864e+000,4.6449312136e+000,2.3659535086e+000,4.4251350190e+000,3.1744064690e+000,4.2177415021e+000,
2.2968750000e+001,3.7781703191e+000,4.0259903840e+000,3.2636428264e+000,3.9262744589e+000,3.7160016364e+000,4.2980690799e+000,2.7562107166e+000,3.9343100053e+000,2.9262413171e+000,4.5709815859e+000,2.2712117895e+000,4.4009357141e+000,3.1466052985e+000,4.1337772400e+000,
2.3062500000e+001,3.7282282502e+000,3.8923837549e+000,3.2180627668e+000,3.8287390139e+000,3.7029645297e+000,4.2754449280e+000,2.6724639481e+000,3.8679245776e+000,3.0006442715e+000,4.5607863846e+000,2.4085519895e+000,4.3688994830e+000,3.0534162139e+000,4.1707960364e+000,
2.3156250000e+001,3.7556496757e+000,3.9131640204e+000,3.2615177030e+000,3.8780262393e+000,3.8527934089e+000,4.4488680007e+000,2.7545353923e+000,3.8824431107e+000,3.1081114574e+000,4.6432415415e+000,2.4128555304e+000,4.3413770516e+000,3.0609325717e+000,4.1522768081e+000,
2.3250000000e+001,3.8676999707e+000,3.9279120941e+000,3.3695666894e+000,3.9049882280e+000,4.2524762305e+000,4.5530881229e+000,3.0015841971e+000,3.9353143994e+000,3.1601263769e+000,4.6784350152e+000,2.4248246952e+000,4.3802476583e+000,3.0234173328e+000,4.1417427754e+000,
2.3343750000e+001,3.8959622883e+000,4.0078200787e+000,3.3877691090e+000,3.9767905178e+000,4.3633724496e+000,4.7765432411e+000,3.0841766731e+000,4.0483785374e+000,3.3213950607e+000,4.6841582731e+000,2.4484919209e+000,4.3826534743e+000,2.8760625142e+000,4.1506384251e+000,
2.3437500000e+001,3.9498601096e+000,4.0325689143e+000,3.4322520310e+000,3.9780842019e+000,4.4087207754e+000,4.7672034308e+000,3.0607623941e+000,4.1264058783e+000,3.3621313534e+000,4.6318387909e+000,2.6632597615e+000,4.4000053826e+000,2.8882100949e+000,4.1651613052e+000,
2.3531250000e+001,4.0787818144e+000,4.0588417228e+000,3.5336265605e+000,3.9101139354e+000,4.5022883489e+000,4.7913063313e+000,3.1325169904e+000,4.1731713692e+000,3.3494889635e+000,4.6167712744e+000,3.0061134024e+000,4.3401232991e+000,2.8741825219e+000,4.0945387161e+000,
2.3625000000e+001,4.0525117854e+000,3.9923913527e+000,3.5563978118e+000,3.8577299394e+000,4.4995646617e+000,4.7411388158e+000,3.2987072809e+000,4.0975079876e+000,3.3231728853e+000,4.6712238926e+000,3.0440390601e+000,4.3063546704e+000,2.9010675401e+000,4.0970636815e+000,
2.3718750000e+001,4.1290870897e+000,4.0024905638e+000,3.6295280091e+000,3.8364564941e+000,4.5681041784e+000,4.7700103979e+000,3.5738271217e+000,4.0378467198e+000,3.3651886153e+000,4.6121620409e+000,3.1565680132e+000,4.2148309943e+000,2.9478675352e+000,4.0126938662e+000,
2.3812500000e+001,4.0946446876e+000,4.1122193639e+000,3.5964328030e+000,3.8788796393e+000,4.5528482472e+000,5.1144325815e+000,3.6778038879e+000,4.2739904340e+000,3.3850241972e+000,4.6839660280e+000,3.1995247305e+000,4.1779067576e+000,2.8871729566e+000,3.9412105051e+000,
2.3906250000e+001,4.1536299841e+000,4.2616321955e+000,3.6160645344e+000,3.8873223943e+000,4.7352584990e+000,5.3129621495e+000,3.8081533596e+000,4.3723670573e+000,3.4677552750e+000,4.7198284362e+000,3.2403417252e+000,4.1765113776e+000,2.8006852087e+000,3.8983170732e+000,
2.4000000000e+001,4.2919337586e+000,4.5120922160e+000,3.7147808082e+000,4.2141139837e+000,5.1173508013e+000,5.6728213978e+000,4.2729199854e+000,4.9947597335e+000,3.4424876772e+000,5.0650681033e+000,3.3715987550e+000,4.3434469212e+000,3.1580118582e+000,4.0681768392e+000,
2.4093750000e+001,4.7033156146e+000,4.4983273999e+000,4.0368082056e+000,4.2188602476e+000,5.6608554641e+000,5.9128659506e+000,5.0688207407e+000,5.1384733116e+000,3.5948567244e+000,5.0819573065e+000,3.5304544522e+000,4.4997099885e+000,3.5656968217e+000,4.2296414747e+000,
2.4187500000e+001,4.8029008777e+000,4.5401502349e+000,4.1160687405e+000,4.2654531436e+000,5.8177192621e+000,5.9507286625e+000,5.3352022262e+000,5.2020741194e+000,3.6829224143e+000,5.0620886116e+000,3.5954642245e+000,4.5700685201e+000,3.7049543401e+000,4.2974815625e+000,
2.4281250000e+001,4.7338890807e+000,4.5337558959e+000,4.0426294146e+000,4.2193430788e+000,5.7470454016e+000,5.8987376772e+000,5.3220036929e+000,5.1849468877e+000,3.6450316339e+000,5.0206846527e+000,3.6156977810e+000,4.5583413714e+000,3.7541098052e+000,4.3152825415e+000,
2.4375000000e+001,4.7280362350e+000,4.5059922812e+000,3.9992988671e+000,4.2025496196e+000,5.7294354825e+000,5.8972369056e+000,5.3274104464e+000,5.1827506071e+000,3.6024925303e+000,5.0024315578e+000,3.5771529077e+000,4.4371801163e+000,3.7367021613e+000,4.2047879469e+000,
2.4468750000e+001,4.7057030094e+000,4.5384371732e+000,4.0243907267e+000,4.2408842621e+000,5.7169936101e+000,5.9000717897e+000,5.3274007101e+000,5.1884961538e+000,3.6003381144e+000,5.0091458817e+000,3.5017131679e+000,4.4060083379e+000,3.7781760447e+000,4.2204997409e+000,
2.4562500000e+001,4.7065334184e+000,4.5203067267e+000,3.9722980137e+000,4.2498600795e+000,5.6983399151e+000,5.8875409890e+000,5.3020245421e+000,5.1646356823e+000,3.6210016367e+000,4.9981498846e+000,3.3478538643e+000,4.4840171287e+000,3.7780774096e+000,4.2656779202e+000,
2.4656250000e+001,4.7028789865e+000,4.5323480078e+000,3.9420612792e+000,4.2605512609e+000,5.6890541669e+000,5.8738810189e+000,5.2811283868e+000,5.1508328107e+000,3.5712393532e+000,4.9924612562e+000,3.3620951977e+000,4.5048462983e+000,3.7390676481e+000,4.2693661067e+000,
2.4750000000e+001,4.6344001392e+000,4.4958512425e+000,3.8629937829e+000,4.2578072419e+000,5.6706914814e+000,5.8111906312e+000,5.2408450640e+000,5.1334260695e+000,3.5888678486e+000,4.9669059978e+000,3.3253083281e+000,4.4980070976e+000,3.7071832886e+000,4.2538530153e+000,
2.4843750000e+001,4.6579482255e+000,4.3813310488e+000,3.9027277861e+000,4.2095998919e+000,5.6713810162e+000,5.6840841850e+000,5.2204801222e+000,5.0340535067e+000,3.5950580740e+000,4.9625309055e+000,3.3025974899e+000,4.4444931107e+000,3.6813783994e+000,4.1871400644e+000,
2.4937500000e+001,4.6188720914e+000,4.2487884090e+000,3.8963491234e+000,4.1790870844e+000,5.5518501550e+000,5.4457622988e+000,5.1619455076e+000,4.8266818526e+000,3.5519598745e+000,4.8479581291e+000,3.2360233233e+000,4.4138499142e+000,3.6507189640e+000,4.1583035485e+000,
2.5031250000e+001,4.3140979102e+000,4.1428275575e+000,3.6876061733e+000,4.0431002028e+000,5.1303981120e+000,4.9757160329e+000,4.8275002960e+000,4.3130454806e+000,3.3687489816e+000,4.5130577769e+000,3.0320589133e+000,4.2972254103e+000,3.3150085526e+000,3.9864148393e+000,
2.5125000000e+001,3.8669921894e+000,4.0977780991e+000,3.3360945105e+000,3.9569595099e+000,4.3690444750e+000,4.1573857234e+000,3.7947482894e+000,3.9833814513e+000,3.0937932808e+000,4.6245169350e+000,2.6775201554e+000,4.1759579668e+000,2.9786006686e+000,3.7624886945e+000,
2.5218750000e+001,3.6503779486e+000,4.0163140734e+000,3.2109789552e+000,3.8512865369e+000,3.6430275173e+000,4.0021746652e+000,2.6373916337e+000,3.8556329575e+000,3.1710708936e+000,4.6554083658e+000,2.6980056876e+000,4.1688433796e+000,3.0018546149e+000,3.8197796298e+000,
2.5312500000e+001,3.8671654829e+000,4.1195359764e+000,3.3961721842e+000,3.9018010089e+000,3.7498641466e+000,3.9240938621e+000,2.8136385001e+000,3.7574458261e+000,3.2544914529e+000,4.6165493806e+000,2.6799858486e+000,4.1486487744e+000,2.9039498964e+000,3.8472360879e+000,
2.5406250000e+001,3.8720865365e+000,4.0681838005e+000,3.4104190396e+000,3.9002088448e+000,3.6340261712e+000,3.8627694759e+000,2.6373117809e+000,3.6790537913e+000,3.3444841522e+000,4.6134621230e+000,2.7112191276e+000,4.1849914574e+000,2.9038858855e+000,3.9294395548e+000,
2.5500000000e+001,3.8824208138e+000,4.0942235664e+000,3.4485116397e+000,3.8911429661e+000,3.6528576562e+000,3.8346907201e+000,2.6865254212e+000,3.6838985200e+000,3.3477491417e+000,4.7144803435e+000,2.7577696456e+000,4.2110849094e+000,2.7857150710e+000,3.9695839187e+000,
2.5593750000e+001,3.8256372450e+000,4.0991183314e+000,3.4496538398e+000,3.8425299375e+000,3.6908004752e+000,3.8105553154e+000,2.7971485855e+000,3.6332375507e+000,3.3844737919e+000,4.6440118153e+000,2.7457762243e+000,4.1534009086e+000,2.7828593011e+000,3.9064409328e+000,
2.5687500000e+001,3.7882514871e+000,4.0535180030e+000,3.4567735419e+000,3.7602974511e+000,3.6210303003e+000,3.7068036691e+000,2.8412749186e+000,3.6352880529e+000,3.3288362352e+000,4.6122944836e+000,2.8219666026e+000,4.1052724035e+000,2.7698073225e+000,3.9391837555e+000,
2.5781250000e+001,3.7934026845e+000,4.0555539207e+000,3.4786483778e+000,3.7071515642e+000,3.6020358008e+000,3.6987299941e+000,2.7706472132e+000,3.6349473375e+000,3.2644664033e+000,4.6246236034e+000,2.7964575065e+000,4.1794859111e+000,2.9533131846e+000,4.0002424201e+000,
2.5875000000e+001,3.7703525777e+000,3.9942900330e+000,3.4587814699e+000,3.6663877680e+000,3.6032133859e+000,3.6848330953e+000,2.6834480336e+000,3.5946136179e+000,3.2512563817e+000,4.5725166453e+000,2.8020018903e+000,4.1900331007e+000,3.0963024469e+000,4.0887587303e+000,
2.5968750000e+001,3.7549361873e+000,3.8592296047e+000,3.4471122817e+000,3.4411736982e+000,3.4836847444e+000,3.6377671581e+000,2.7367479218e+000,3.5476649846e+000,3.2579281408e+000,4.5191856178e+000,2.8016412325e+000,4.2149234496e+000,3.0902733648e+000,4.0726739410e+000,
2.6062500000e+001,3.7060161321e+000,3.8722561284e+000,3.3439554015e+000,3.3563631806e+000,3.4212677165e+000,3.6250144257e+000,2.8362248661e+000,3.4664155352e+000,3.2326189663e+000,4.3906381371e+000,2.8534483390e+000,4.1496951024e+000,3.0573457445e+000,3.9611038933e+000,
2.6156250000e+001,3.6972382183e+000,3.8427016879e+000,3.3414611231e+000,3.4058687306e+000,3.4436540754e+000,3.5967340053e+000,2.8692960191e+000,3.3579203399e+000,3.1539806529e+000,4.2126744962e+000,2.9493696895e+000,4.1738485979e+000,3.0776598068e+000,3.9155663727e+000,
2.6250000000e+001,3.6806483539e+000,3.7835671573e+000,3.2969954701e+000,3.4622753549e+000,3.3573044821e+000,3.5794159827e+000,2.8065128891e+000,3.3639942499e+000,3.0698866910e+000,4.3113300631e+000,2.8850167996e+000,4.2736204862e+000,3.0999293808e+000,3.8884699301e+000,
2.6343750000e+001,3.3641168589e+000,3.6082477145e+000,3.0774240875e+000,3.2573810071e+000,3.1149243729e+000,3.5181887053e+000,2.6716550762e+000,3.3143249509e+000,2.9413063299e+000,4.2686422738e+000,2.8457110974e+000,4.2052129986e+000,3.0994907985e+000,3.7768967382e+000,
2.6437500000e+001,3.4446198552e+000,3.6308172276e+000,3.1260510190e+000,3.2150909303e+000,3.2764144978e+000,3.4469104471e+000,2.6965022081e+000,3.2486443278e+000,2.8253030476e+000,4.2054155103e+000,2.8131129427e+000,4.2095542597e+000,3.1811141514e+000,3.6679019611e+000,
2.6531250000e+001,3.4261371534e+000,3.6667521380e+000,3.1635334970e+000,3.2962671351e+000,3.2494136556e+000,3.4785883290e+000,2.7375156115e+000,3.3381450164e+000,2.7977446383e+000,4.0132251645e+000,2.7539141312e+000,4.1617465089e+000,3.1687472591e+000,3.5828027017e+000,
2.6625000000e+001,3.3852647112e+000,3.6740265139e+000,3.1662820593e+000,3.3163306224e+000,3.2176544294e+000,3.5403001626e+000,2.6501437661e+000,3.4482396569e+000,2.7521408863e+000,4.0588438693e+000,2.7252061451e+000,4.0887062309e+000,3.1957966644e+000,3.5187092741e+000,
2.6718750000e+001,3.3586545951e+000,3.6149705806e+000,3.0971540074e+000,3.3341707960e+000,3.1968195227e+000,3.5534032066e+000,2.5841709765e+000,3.4284899109e+000,2.9406084630e+000,4.0980353640e+000,2.5757892730e+000,4.0622094378e+000,3.2218848548e+000,3.3517817740e+000,
2.6812500000e+001,3.5104864448e+000,3.7262910415e+000,3.1318687034e+000,3.4832209958e+000,3.3857117238e+000,3.5356922671e+000,2.6341145611e+000,3.4732736958e+000,2.9229026244e+000,4.1643873408e+000,2.5615685912e+000,4.0912568104e+000,3.0659255107e+000,3.2143332519e+000,
2.6906250000e+001,3.4480314492e+000,3.7401009069e+000,3.0464209594e+000,3.4110052398e+000,3.3288307920e+000,3.4305007101e+000,2.5171895208e+000,3.4376870592e+000,2.9488205741e+000,4.1495345784e+000,2.5091395609e+000,3.9644201126e+000,2.9294850678e+000,3.0137779264e+000,
2.7000000000e+001,3.6128113206e+000,3.8065142400e+000,3.1238794082e+000,3.5196179691e+000,3.3692902432e+000,3.4916367571e+000,2.5727108704e+000,3.4001935153e+000,2.9753342813e+000,4.2706008252e+000,2.4736564651e+000,3.9009280822e+000,2.9055813483e+000,3.0358124375e+000,
2.7093750000e+001,3.6843849689e+000,3.8615690725e+000,3.2984355671e+000,3.5906120360e+000,3.4474620475e+000,3.4854245582e+000,2.5919907435e+000,3.3378400457e+000,2.9711038033e+000,4.3419792087e+000,2.5773578380e+000,3.8399774204e+000,2.7249069819e+000,3.0121929553e+000,
2.7187500000e+001,3.6878531983e+000,3.8681488469e+000,3.2617731026e+000,3.5691950990e+000,3.5100585188e+000,3.5803629453e+000,2.6296140846e+000,3.3183286861e+000,3.0599311092e+000,4.2947157926e+000,2.5598999450e+000,3.7777370366e+000,2.6329947794e+000,2.9933385697e+000,
2.7281250000e+001,3.7074273428e+000,3.9081692073e+000,3.3130674523e+000,3.5639900367e+000,3.5560469631e+000,3.5972963357e+000,2.6028372380e+000,3.3317477313e+000,3.0736299547e+000,4.3054700975e+000,2.7125064899e+000,3.8453441563e+000,2.6629840942e+000,3.1127501487e+000,
2.7375000000e+001,3.7598331810e+000,3.9156973563e+000,3.3587840199e+000,3.6592551073e+000,3.4980914134e+000,3.6428553375e+000,2.5721719290e+000,3.4799969575e+000,3.1783691529e+000,4.3844102244e+000,2.7385143319e+000,3.9121121871e+000,2.6542446970e+000,3.1997518408e+000,
2.7468750000e+001,3.5955377767e+000,3.8054609052e+000,3.1472033270e+000,3.5820381709e+000,3.3939612047e+000,3.6165012532e+000,2.5188250033e+000,3.3855627626e+000,3.2149218635e+000,4.3360941799e+000,2.7341049652e+000,3.8993148705e+000,2.5516818037e+000,3.2129417608e+000,
2.7562500000e+001,3.7477607301e+000,3.8761516084e+000,3.2899019228e+000,3.7110614963e+000,3.4173040023e+000,3.7748251423e+000,2.6327231599e+000,3.4560008963e+000,3.2374884385e+000,4.6250365059e+000,2.7489397768e+000,4.0493561141e+000,2.5400834121e+000,3.2509281612e+000,
2.7656250000e+001,3.8024602011e+000,3.9898742033e+000,3.3677869446e+000,3.7676700372e+000,3.3937159350e+000,3.8246838324e+000,2.6926741561e+000,3.5422571502e+000,3.2127728650e+000,4.6953002405e+000,2.7570057085e+000,4.2120368437e+000,2.5316927142e+000,3.4009526454e+000,
2.7750000000e+001,3.8440568935e+000,3.9574966069e+000,3.3927058387e+000,3.7389330683e+000,3.4472104032e+000,3.7696787135e+000,2.7073700396e+000,3.5404273017e+000,3.1433467325e+000,4.6823496927e+000,2.7428580601e+000,4.2011100235e+000,2.4315327577e+000,3.4258759673e+000,
2.7843750000e+001,3.9277282453e+000,3.9748870212e+000,3.4834066229e+000,3.7341291974e+000,3.4756348984e+000,3.8606945111e+000,2.8145104060e+000,3.5506688685e+000,3.1830853676e+000,4.6530642460e+000,2.7173270652e+000,4.2406983091e+000,2.5236697420e+000,3.4526580225e+000,
2.7937500000e+001,4.0027526238e+000,3.9244842180e+000,3.5390878676e+000,3.7337501844e+000,3.5981722627e+000,3.9505230671e+000,2.9680331361e+000,3.6154680940e+000,3.1406161504e+000,4.6885161157e+000,2.7179549558e+000,4.2525113603e+000,2.6033516473e+000,3.5162576968e+000,
2.8031250000e+001,3.9623026792e+000,3.8719128251e+000,3.5296879986e+000,3.6760839026e+000,3.6515474541e+000,3.9805708883e+000,2.8655358173e+000,3.6128164540e+000,3.1122436440e+000,4.5803951349e+000,2.6535653995e+000,4.2382009708e+000,2.8453376464e+000,3.6450969526e+000,
2.8125000000e+001,3.9594040132e+000,3.8856932169e+000,3.4964562912e+000,3.7007062068e+000,3.7200127235e+000,3.9881463231e+000,2.9641746721e+000,3.6352482599e+000,3.2221812946e+000,4.5686769683e+000,2.6814727990e+000,4.2341924799e+000,2.9235691453e+000,3.6974529747e+000,
2.8218750000e+001,4.0060458007e+000,3.8472288513e+000,3.5382219942e+000,3.6942909416e+000,3.7999276056e+000,3.9985693127e+000,2.9472267821e+000,3.6127301049e+000,3.1988491912e+000,4.5358054014e+000,2.6390493232e+000,4.1447768254e+000,2.8777673270e+000,3.6977282500e+000,
2.8312500000e+001,4.0147375173e+000,3.8983784904e+000,3.5952901016e+000,3.6973663244e+000,3.8174653987e+000,4.0193125450e+000,2.9901956496e+000,3.5591598357e+000,3.0836172330e+000,4.5504438588e+000,2.4673280845e+000,4.1578598503e+000,2.9343329536e+000,3.7832150185e+000,
2.8406250000e+001,3.9968213920e+000,3.8858237355e+000,3.6093421119e+000,3.6837385141e+000,3.8489146825e+000,3.9907485604e+000,3.0357087540e+000,3.5350027987e+000,2.9119638395e+000,4.5277891465e+000,2.2927684595e+000,4.1206574292e+000,2.9213817605e+000,3.7580840710e+000,
2.8500000000e+001,4.1441144854e+000,3.9869034581e+000,3.7617966671e+000,3.7743704271e+000,3.9418955774e+000,4.0285540784e+000,3.0961784899e+000,3.6041234184e+000,2.9530935241e+000,4.5347683010e+000,2.4229456307e+000,4.2492405523e+000,3.0342331645e+000,3.8784391808e+000,
2.8593750000e+001,4.0791782444e+000,3.9329838482e+000,3.7099278947e+000,3.7223339194e+000,3.9000000121e+000,3.9106811415e+000,3.0759094816e+000,3.4065902403e+000,2.9915842486e+000,4.3105355537e+000,2.3805701088e+000,4.0505239008e+000,3.0210643791e+000,3.8219619022e+000,
2.8687500000e+001,4.1190909918e+000,3.9069380756e+000,3.6765537656e+000,3.7223059534e+000,3.8829124299e+000,3.8434351409e+000,3.1030269949e+000,3.3157794656e+000,3.0316483322e+000,4.3384609293e+000,2.3978465588e+000,3.9788743564e+000,3.0670615260e+000,3.7576352875e+000,
2.8781250000e+001,4.0706545804e+000,3.8399609730e+000,3.6552232351e+000,3.7031808252e+000,3.8773463227e+000,3.8529263217e+000,3.1212986996e+000,3.3201132883e+000,3.1004021423e+000,4.3076648442e+000,2.4844656050e+000,4.0008787551e+000,3.0836174201e+000,3.7908178398e+000,
2.8875000000e+001,3.9467228320e+000,3.7284248535e+000,3.5114195888e+000,3.5977851909e+000,3.7674496818e+000,3.7569064505e+000,2.9993679912e+000,3.2219488727e+000,3.1124014793e+000,4.3437882481e+000,2.6098605089e+000,3.9531863589e+000,3.0410301386e+000,3.6661348631e+000,
2.8968750000e+001,3.9268631741e+000,3.7495620215e+000,3.5380901848e+000,3.6420412651e+000,3.6979780067e+000,3.6934228864e+000,2.9321263468e+000,3.2062073058e+000,3.2690793192e+000,4.4084532294e+000,2.5821432579e+000,4.0500498363e+000,3.0642021890e+000,3.7007219050e+000,
2.9062500000e+001,3.9753199815e+000,3.7437396074e+000,3.6491705403e+000,3.6707704171e+000,3.7082556387e+000,3.6181239351e+000,2.9749684880e+000,3.3240182010e+000,3.1963780980e+000,4.4719071156e+000,2.3930610134e+000,4.1142544523e+000,2.9109622652e+000,3.6217816328e+000,
2.9156250000e+001,3.9146524321e+000,3.7014246297e+000,3.5817280858e+000,3.5628773453e+000,3.6739191953e+000,3.6289796839e+000,2.8624608999e+000,3.2600211356e+000,3.0726191630e+000,4.4645228036e+000,2.4214695659e+000,4.1215402714e+000,2.8811696564e+000,3.6163792961e+000,
2.9250000000e+001,3.8621191714e+000,3.6583604603e+000,3.5199363520e+000,3.5035845306e+000,3.6281000055e+000,3.4691131815e+000,2.8607104405e+000,3.1990249605e+000,3.0326550601e+000,4.4244059127e+000,2.4668099257e+000,4.1704136476e+000,2.8613905153e+000,3.6115277625e+000,
2.9343750000e+001,3.8109537562e+000,3.6288894489e+000,3.4734861072e+000,3.4396777354e+000,3.6217077273e+000,3.4778522722e+000,2.8055910043e+000,3.2049315271e+000,3.0243194582e+000,4.3193228127e+000,2.5122272000e+000,4.0707279419e+000,2.7808695041e+000,3.4947871448e+000,
2.9437500000e+001,3.7924664351e+000,3.6353804323e+000,3.4494494887e+000,3.4665394240e+000,3.5505985405e+000,3.5193404733e+000,2.7509337135e+000,3.2767282784e+000,3.0998793369e+000,4.3604972718e+000,2.5475571363e+000,3.9951997906e+000,2.7555804210e+000,3.4276949581e+000,
2.9531250000e+001,3.7424076082e+000,3.5838709531e+000,3.4076089481e+000,3.3767895093e+000,3.5079192205e+000,3.4143898735e+000,2.7004728280e+000,3.2949979807e+000,3.1307358136e+000,4.3457995549e+000,2.4722467748e+000,3.9965240153e+000,2.8618522976e+000,3.4269016780e+000,
2.9625000000e+001,3.7222693835e+000,3.4680028677e+000,3.3426423945e+000,3.1431448263e+000,3.6367079082e+000,3.4021719969e+000,2.6906438900e+000,3.3744297602e+000,3.0014319587e+000,4.3276622205e+000,2.6119647467e+000,3.9300093407e+000,2.8497720685e+000,3.4867702828e+000,
2.9718750000e+001,3.6486508877e+000,3.4776255480e+000,3.4063841424e+000,3.1877123073e+000,3.6574495700e+000,3.4607691981e+000,2.7441759442e+000,3.4523561846e+000,2.9817903649e+000,4.3070948809e+000,2.7433210248e+000,3.9961254869e+000,3.0301490408e+000,3.5396513231e+000,
2.9812500000e+001,3.6350675613e+000,3.5917401787e+000,3.4398355356e+000,3.1202286491e+000,3.6456898246e+000,3.4970238145e+000,2.7718650294e+000,3.5020566205e+000,3.1539645382e+000,4.3065771167e+000,2.7009177617e+000,4.0179708466e+000,3.0601905674e+000,3.5096845656e+000,
2.9906250000e+001,3.7190116923e+000,3.6659930141e+000,3.4923153543e+000,3.2825001777e+000,3.7029883567e+000,3.5663776167e+000,2.7981963064e+000,3.5375943544e+000,3.2102906626e+000,4.3538313023e+000,2.6409718444e+000,4.0014509943e+000,3.1934963696e+000,3.6037551893e+000,
3.0000000000e+001,3.6501105150e+000,3.6792411077e+000,3.3817886910e+000,3.2011066733e+000,3.7441123716e+000,3.5993715198e+000,2.7763120860e+000,3.5434665813e+000,3.0920150277e+000,4.2302137172e+000,2.6781726486e+000,3.8992011762e+000,3.1526300331e+000,3.5799869256e+000,
3.0093750000e+001,3.5747427090e+000,3.6875072574e+000,3.2843075327e+000,3.2041180660e+000,3.6991778233e+000,3.5814996336e+000,2.7030266445e+000,3.6021278741e+000,3.1387464009e+000,4.1954923996e+000,2.7074558397e+000,3.9356999927e+000,3.1753778297e+000,3.5939066488e+000,
3.0187500000e+001,3.5619269486e+000,3.7506773907e+000,3.2642794297e+000,3.2425280316e+000,3.7526305885e+000,3.5819114529e+000,2.7659493014e+000,3.6693707507e+000,3.1532074419e+000,4.1485207627e+000,2.6017496823e+000,3.8516936783e+000,3.1349831336e+000,3.5880832676e+000,
3.0281250000e+001,3.5923513557e+000,3.7859361984e+000,3.3089835965e+000,3.2374923056e+000,3.7848357011e+000,3.6163916055e+000,2.7567492175e+000,3.6807352263e+000,3.1676661563e+000,4.1887645410e+000,2.6661743356e+000,3.8202728416e+000,3.1768924021e+000,3.6016361842e+000,
3.0375000000e+001,3.5718913221e+000,3.7619059928e+000,3.2339948263e+000,3.2019406221e+000,3.7211310619e+000,3.6100761144e+000,2.6350495052e+000,3.6430887580e+000,3.1537776468e+000,4.1842818225e+000,2.6599873893e+000,3.8711902761e+000,3.2797519411e+000,3.6590718481e+000,
3.0468750000e+001,3.5208631554e+000,3.6927515494e+000,3.1702920191e+000,3.1267938906e+000,3.7861994907e+000,3.6113681305e+000,2.6265834597e+000,3.5726827561e+000,3.0677992419e+000,4.1990765754e+000,2.7440987638e+000,3.9069737317e+000,3.1620276700e+000,3.6197750592e+000,
3.0562500000e+001,3.5941347598e+000,3.7873060222e+000,3.1254144307e+000,3.1758354993e+000,3.8641320327e+000,3.6806694433e+000,2.7966875230e+000,3.6018749054e+000,3.0379862730e+000,4.2369204999e+000,2.9566561156e+000,4.0489494656e+000,3.2269969466e+000,3.6456125420e+000,
3.0656250000e+001,3.5409755699e+000,3.7573630493e+000,3.0496778145e+000,3.1822631015e+000,3.8029328406e+000,3.6668783990e+000,2.6838922529e+000,3.5519480808e+000,2.9682494467e+000,4.1840747918e+000,2.8091820445e+000,4.0171298220e+000,3.2269936548e+000,3.6193756811e+000,
3.0750000000e+001,3.6271044013e+000,3.7543988412e+000,3.0354413081e+000,3.1382640001e+000,3.7599431921e+000,3.7098175770e+000,2.5259608623e+000,3.5118883409e+000,2.8676948290e+000,4.1722836220e+000,2.8552368206e+000,3.9854145057e+000,3.2655540193e+000,3.6641243882e+000,
3.0843750000e+001,3.5086336725e+000,3.7005013745e+000,2.9402235292e+000,3.1203717725e+000,3.7709413817e+000,3.7440227142e+000,2.4924681924e+000,3.5107127099e+000,2.6717863424e+000,4.1278033577e+000,2.8173349556e+000,3.9339310641e+000,3.2407268456e+000,3.6342977282e+000,
3.0937500000e+001,3.4769758605e+000,3.6634136716e+000,2.9198199213e+000,3.1512548624e+000,3.7875356777e+000,3.7927912641e+000,2.5117546732e+000,3.6185295106e+000,2.4922865754e+000,4.0560665778e+000,2.9530917682e+000,4.1076022632e+000,3.2701970822e+000,3.6956444262e+000,
3.1031250000e+001,3.5338273085e+000,3.6263763906e+000,2.8532148779e+000,3.1784521617e+000,3.7637604616e+000,3.8943315429e+000,2.3745572634e+000,3.5544003418e+000,2.4618865181e+000,4.0501316455e+000,3.0435087812e+000,4.2742846057e+000,3.3693974334e+000,3.8635356924e+000,
3.1125000000e+001,3.5810401208e+000,3.6182178058e+000,2.9245431388e+000,3.1472619731e+000,3.8141124335e+000,3.8646468121e+000,2.4001518421e+000,3.4449083291e+000,2.4607908121e+000,4.0112629343e+000,3.0465781886e+000,4.4028302761e+000,3.4294538838e+000,3.9134179004e+000,
3.1218750000e+001,3.7334870246e+000,3.7298025731e+000,3.1786261977e+000,3.3539294059e+000,3.7657270538e+000,3.9321444827e+000,2.6359122034e+000,3.6105954161e+000,2.4714416504e+000,4.1745962487e+000,3.0775879343e+000,4.4915413512e+000,3.4511561584e+000,3.8773917100e+000,
3.1312500000e+001,4.0077285959e+000,4.1093449552e+000,3.5311696126e+000,3.8336380405e+000,3.9791601251e+000,4.0982545970e+000,2.8316861848e+000,3.8894557669e+000,2.4959710045e+000,4.3365048573e+000,3.0243983151e+000,4.8409775454e+000,3.6381922935e+000,4.1247574918e+000,
3.1406250000e+001,4.0100395671e+000,4.1644962984e+000,3.5844923799e+000,3.8791144839e+000,3.9517986436e+000,4.1164462474e+000,2.9379365777e+000,3.8624233869e+000,2.7691342767e+000,4.4227202489e+000,3.0330399744e+000,4.8747533225e+000,3.6843613005e+000,4.1184592776e+000,
3.1500000000e+001,4.0224711413e+000,4.1948583963e+000,3.6686808847e+000,3.9709918278e+000,3.9752583402e+000,4.1367628740e+000,3.0450249703e+000,3.9274280135e+000,2.7756614125e+000,4.4370138316e+000,2.9777365194e+000,4.8505009703e+000,3.6944209977e+000,4.1312093649e+000,
3.1593750000e+001,3.9947562898e+000,4.1707485621e+000,3.6879128633e+000,3.9778852444e+000,3.9382993788e+000,4.1528547577e+000,3.0053438604e+000,3.9046717429e+000,2.8410206202e+000,4.4583838824e+000,2.9258761016e+000,4.8035621361e+000,3.6617362558e+000,4.1110588731e+000,
3.1687500000e+001,4.0500474071e+000,4.3381630285e+000,3.7687766101e+000,4.1269549706e+000,3.9279936400e+000,4.2677403657e+000,3.0194460429e+000,4.0835391079e+000,2.8301119678e+000,4.6145010119e+000,2.9478320572e+000,4.8557023885e+000,3.6252386159e+000,4.1726226459e+000,
3.1781250000e+001,4.0916018832e+000,4.3587024737e+000,3.7648729393e+000,4.1611288818e+000,3.9571630650e+000,4.2127191122e+000,3.0824571187e+000,4.1317239027e+000,3.0646370943e+000,4.6138184454e+000,2.8983262616e+000,4.8782306465e+000,3.6372776396e+000,4.2590809443e+000,
3.1875000000e+001,4.1595052200e+000,4.4058643315e+000,3.8331028155e+000,4.1477025904e+000,4.0086019151e+000,4.1870682607e+000,3.1260654117e+000,4.0960886096e+000,3.0973045280e+000,4.6794441528e+000,2.9200694875e+000,4.8910114343e+000,3.6124596460e+000,4.2688143600e+000,
3.1968750000e+001,4.1819326533e+000,4.4391024943e+000,3.8431748420e+000,4.1660558245e+000,3.9403065381e+000,4.1507870528e+000,3.2572817106e+000,4.0722310554e+000,3.1950840864e+000,4.7156814671e+000,2.7816090596e+000,4.8135387228e+000,3.5355434628e+000,4.2096771080e+000,
3.2062500000e+001,4.1853036722e+000,4.4535170612e+000,3.8575342411e+000,4.2143403566e+000,3.9914931747e+000,4.1547671993e+000,3.3217916738e+000,4.1427699537e+000,3.2444497256e+000,4.7535564359e+000,2.7300106535e+000,4.7600777560e+000,3.5659884916e+000,4.1607266626e+000,
3.2156250000e+001,4.2079526628e+000,4.5737263507e+000,3.9449758341e+000,4.3954800874e+000,3.9611998719e+000,4.3273484508e+000,3.3285536017e+000,4.2571038185e+000,3.2374318045e+000,4.8910797820e+000,2.7813810505e+000,4.7978147043e+000,3.5983252037e+000,4.2752870417e+000,
3.2250000000e+001,4.1621717061e+000,4.4584121663e+000,3.8044454335e+000,4.2855363107e+000,3.9417132397e+000,4.2395091405e+000,3.2931778253e+000,4.1210602067e+000,3.2283503054e+000,4.8408078747e+000,2.7807675851e+000,4.6919167271e+000,3.5108372339e+000,4.2270799627e+000,
3.2343750000e+001,4.0395919059e+000,4.3444111595e+000,3.6346763392e+000,4.1319813538e+000,3.8318747545e+000,4.1451476836e+000,3.2840203764e+000,4.0111259724e+000,3.2674480844e+000,4.8328814291e+000,2.7655506665e+000,4.3383650056e+000,3.3318128287e+000,4.1362973313e+000,
3.2437500000e+001,4.1985866899e+000,4.4155982296e+000,3.7245387072e+000,4.2275556286e+000,4.0145490657e+000,4.2719695929e+000,3.2848280960e+000,4.1135988816e+000,3.1778081901e+000,4.8607907165e+000,2.7430325298e+000,4.3731307408e+000,3.2153420589e+000,4.1896518225e+000,
3.2531250000e+001,4.2548651361e+000,4.4337820643e+000,3.7799994004e+000,4.2659692623e+000,3.9833970908e+000,4.2687698961e+000,3.1370756509e+000,4.1291182220e+000,3.2109528913e+000,4.7959567942e+000,2.7179567462e+000,4.4202622538e+000,3.3463307372e+000,4.2720427202e+000,
3.2625000000e+001,4.2470153530e+000,4.3901711157e+000,3.7757799291e+000,4.2236632781e+000,3.9748660288e+000,4.2146765160e+000,3.1451380099e+000,4.0929374597e+000,3.2992950720e+000,4.8060076088e+000,2.6322298083e+000,4.4682524610e+000,3.3585241654e+000,4.2779491549e+000,
3.2718750000e+001,4.2326148898e+000,4.2807315151e+000,3.7538580086e+000,4.1599139060e+000,3.9638155510e+000,4.1712652161e+000,3.2997066812e+000,4.0150662259e+000,3.2517492397e+000,4.7921921542e+000,2.6867309772e+000,4.3455788328e+000,3.3381210157e+000,4.2104242247e+000,
3.2812500000e+001,4.2526762305e+000,4.3043556050e+000,3.8368613410e+000,4.1573102353e+000,4.0141650451e+000,4.1538522670e+000,3.3628380663e+000,3.9653159623e+000,3.1891896875e+000,4.7831927506e+000,2.6922658131e+000,4.3283707500e+000,3.3160219423e+000,4.1212941023e+000,
3.2906250000e+001,4.2594484723e+000,4.2790310972e+000,3.8366863739e+000,4.1631632972e+000,3.9810936322e+000,4.2418624830e+000,3.3614440015e+000,4.0296765736e+000,3.2993661174e+000,4.8654734274e+000,2.6186782479e+000,4.4175217608e+000,3.3155926630e+000,4.1537101555e+000,
3.3000000000e+001,4.2888512736e+000,4.3292510977e+000,3.8535923911e+000,4.2079653370e+000,4.0069987448e+000,4.3056254965e+000,3.2987641026e+000,4.0687085558e+000,3.2488072535e+000,4.8589317146e+000,2.6084301398e+000,4.4155633955e+000,3.2673553278e+000,4.1571289281e+000,
3.3093750000e+001,4.2786170994e+000,4.2510486425e+000,3.7574671978e+000,4.0584340427e+000,3.9509336899e+000,4.1952370509e+000,3.2314671925e+000,3.8990340337e+000,3.2168814427e+000,4.8468702647e+000,2.5812840872e+000,4.3655172999e+000,3.1460679818e+000,4.1498630807e+000,
3.3187500000e+001,4.2153386208e+000,4.1838748578e+000,3.6767568164e+000,3.9822228750e+000,3.9188332665e+000,4.1717169266e+000,3.1256191071e+000,3.9265852520e+000,3.2817912757e+000,4.7143620156e+000,2.5751270712e+000,4.2321841441e+000,3.1013149305e+000,4.0632720045e+000,
3.3281250000e+001,4.1432505127e+000,4.0924676693e+000,3.6436807899e+000,3.9179806389e+000,3.8692578431e+000,4.0814234683e+000,2.9834918550e+000,3.8802878726e+000,3.2905766253e+000,4.6555667300e+000,2.5944020898e+000,4.1924551107e+000,3.0536732994e+000,4.0284020743e+000,
3.3375000000e+001,4.0745569017e+000,4.0161216295e+000,3.6905123123e+000,3.8880484825e+000,3.7811117351e+000,3.9847759185e+000,2.9799695882e+000,3.7729379569e+000,3.2156871118e+000,4.6394259898e+000,2.6298067399e+000,4.1956317063e+000,2.9876741707e+000,4.0073677055e+000,
3.3468750000e+001,3.8867446910e+000,3.9546461280e+000,3.4858219554e+000,3.7103309016e+000,3.5496213530e+000,3.9741626017e+000,2.9202512601e+000,3.7180187066e+000,3.1822993973e+000,4.5892979717e+000,2.6156809207e+000,4.1053825721e+000,2.7797091161e+000,3.9443045035e+000,
3.3562500000e+001,3.8332141362e+000,3.8542640999e+000,3.4549721284e+000,3.6310387971e+000,3.4812122148e+000,3.9407416243e+000,2.9713267463e+000,3.6821328855e+000,3.0439841049e+000,4.5874817613e+000,2.5539208261e+000,3.9533573920e+000,2.6902752570e+000,3.8048069944e+000,
3.3656250000e+001,3.7684756465e+000,3.8026511398e+000,3.4112866756e+000,3.6290226912e+000,3.4463306298e+000,3.9117890043e+000,2.9750906554e+000,3.6772645213e+000,3.0683517652e+000,4.5445169215e+000,2.5964521981e+000,3.9311866556e+000,2.6641411367e+000,3.8000191612e+000,
3.3750000000e+001,3.8241381441e+000,3.8356312933e+000,3.4104585804e+000,3.5891063997e+000,3.4476006976e+000,3.9658925845e+000,2.9748364384e+000,3.5941579675e+000,2.9838216110e+000,4.4784314921e+000,2.4736426405e+000,4.0101087554e+000,2.7218468088e+000,3.8339128167e+000,
3.3843750000e+001,3.8378522925e+000,3.8795865946e+000,3.3257450020e+000,3.6134601437e+000,3.4715680238e+000,4.0148172578e+000,2.8960081601e+000,3.5758584889e+000,2.9643200082e+000,4.3779820913e+000,2.5464316149e+000,3.9191460792e+000,2.7583356482e+000,3.8247746609e+000,
3.3937500000e+001,3.7455265795e+000,3.8142911870e+000,3.2714983853e+000,3.5647285912e+000,3.4571552459e+000,3.8835591965e+000,2.8690960156e+000,3.4940838127e+000,2.8525348704e+000,4.4014853417e+000,2.6915136844e+000,3.9870166594e+000,2.7193209623e+000,3.7875328168e+000,
3.4031250000e+001,3.7337499833e+000,3.7584585568e+000,3.2575889133e+000,3.4713821032e+000,3.3857919270e+000,3.8022302337e+000,2.8729687215e+000,3.4500736606e+000,2.8832334772e+000,4.3746934473e+000,2.6442198432e+000,4.0296609707e+000,2.7713568268e+000,3.7188054353e+000,
3.4125000000e+001,3.7126428099e+000,3.7555860102e+000,3.3264364786e+000,3.4253961083e+000,3.4699992263e+000,3.7485598536e+000,2.9327379060e+000,3.4444178593e+000,2.9399692549e+000,4.3126357278e+000,2.6533853808e+000,3.9624449027e+000,2.8477389084e+000,3.6583826906e+000,
3.4218750000e+001,3.7267952697e+000,3.6820015792e+000,3.3008470654e+000,3.3429353285e+000,3.3882015500e+000,3.7021561624e+000,2.9501965453e+000,3.3319472137e+000,2.8584167569e+000,4.3072562626e+000,2.7138888521e+000,3.9147765041e+000,2.9149459149e+000,3.6193924667e+000,
3.4312500000e+001,3.7079387690e+000,3.6808731170e+000,3.2718665459e+000,3.2849541989e+000,3.3593314696e+000,3.7152607098e+000,3.0284358062e+000,3.2814342021e+000,2.8318971875e+000,4.2426671127e+000,2.7172290563e+000,3.8606599904e+000,2.9114254927e+000,3.4473284434e+000,
3.4406250000e+001,3.6672546413e+000,3.6675000064e+000,3.1796350536e+000,3.2740163847e+000,3.3670781305e+000,3.6712733369e+000,2.9710447970e+000,3.3261638295e+000,2.8996767590e+000,4.1252385069e+000,2.6938820401e+000,3.8441202596e+000,2.9013438299e+000,3.3644925889e+000,
3.4500000000e+001,3.6966866567e+000,3.7135210765e+000,3.2030665526e+000,3.3943201318e+000,3.4455959628e+000,3.7847842362e+000,3.0332116244e+000,3.3654431180e+000,2.9203726585e+000,4.1198515335e+000,2.6987444520e+000,3.8919319815e+000,2.8919898197e+000,3.2772249869e+000,
3.4593750000e+001,3.8595041150e+000,3.8402096416e+000,3.3187623585e+000,3.5841535667e+000,3.5780346464e+000,3.8687187077e+000,3.0281639529e+000,3.4350943619e+000,2.9160296581e+000,4.1275841419e+000,2.6912938916e+000,3.9316031317e+000,2.9251361400e+000,3.2667409037e+000,
3.4687500000e+001,3.8970601739e+000,3.8997926203e+000,3.3256229131e+000,3.6458107872e+000,3.6206666889e+000,3.9175996001e+000,2.9545592765e+000,3.5078954971e+000,2.9054313199e+000,4.2614290295e+000,2.6479346834e+000,3.9901636864e+000,3.0131990231e+000,3.3197740081e+000,
3.4781250000e+001,3.8746082902e+000,3.8003639118e+000,3.2975211317e+000,3.6419350491e+000,3.4982326699e+000,3.8225070391e+000,2.8945225748e+000,3.4519032195e+000,2.8797771356e+000,4.2249325392e+000,2.5944898493e+000,3.9862331329e+000,2.9597261968e+000,3.3217060759e+000,
3.4875000000e+001,3.8096522461e+000,3.7814688603e+000,3.2351303710e+000,3.6155556975e+000,3.4523832742e+000,3.8026025139e+000,2.8488138433e+000,3.3709366644e+000,2.7694660940e+000,4.2192424932e+000,2.3960941463e+000,3.9609515224e+000,2.9023811796e+000,3.3894517088e+000,
3.4968750000e+001,3.8471339503e+000,3.7348206955e+000,3.2905247907e+000,3.6315048158e+000,3.5323147999e+000,3.8739349822e+000,2.9577264670e+000,3.3333294269e+000,2.7127377699e+000,4.1612448810e+000,2.3263992841e+000,3.8760290150e+000,2.8702916838e+000,3.4604451134e+000,
3.5062500000e+001,3.9011335506e+000,3.8039782824e+000,3.3076871622e+000,3.6265574511e+000,3.6010771258e+000,3.7990322347e+000,3.0844902572e+000,3.3435950863e+000,2.6615336706e+000,4.1703744598e+000,2.2351439602e+000,3.9279654721e+000,2.8680587287e+000,3.5425095845e+000,
3.5156250000e+001,3.9604361535e+000,3.9185717836e+000,3.3017221365e+000,3.7514204052e+000,3.6577064835e+000,3.9940845433e+000,2.9967887937e+000,3.4742149733e+000,2.6740948036e+000,4.3955748766e+000,2.2138333776e+000,4.0304143101e+000,2.8107597185e+000,3.5476991386e+000,
3.5250000000e+001,3.9315410261e+000,3.9282944811e+000,3.2911485005e+000,3.7817628015e+000,3.6851068449e+000,4.0025270635e+000,2.9604442346e+000,3.5297449634e+000,2.6685326862e+000,4.5457101413e+000,2.0135475672e+000,4.1052354316e+000,2.7084897597e+000,3.5701587556e+000,
3.5343750000e+001,3.9678337800e+000,3.8946838028e+000,3.2815765461e+000,3.7545061370e+000,3.7389057057e+000,4.0130909570e+000,2.9032338513e+000,3.5700075231e+000,2.8017546567e+000,4.6056713822e+000,2.0693411601e+000,4.0186540472e+000,2.9310460893e+000,3.5166396652e+000,
3.5437500000e+001,4.0199673961e+000,3.9245163745e+000,3.3089248231e+000,3.7518467044e+000,3.7214145625e+000,4.0120584627e+000,2.9061930292e+000,3.6460760415e+000,2.7460717302e+000,4.6194366064e+000,2.1406488398e+000,4.0613471933e+000,2.9405385124e+000,3.5353199705e+000,
3.5531250000e+001,3.9578716494e+000,3.8211060203e+000,3.1593317552e+000,3.6546299271e+000,3.6338235382e+000,3.9292009169e+000,2.7329842634e+000,3.6840933526e+000,2.8788701796e+000,4.6365533674e+000,2.2216447125e+000,4.2469132460e+000,3.0367797143e+000,3.5374483740e+000,
3.5625000000e+001,3.9678010915e+000,3.7212335779e+000,3.1114755990e+000,3.4739286618e+000,3.6036279611e+000,3.8756095393e+000,2.6698599831e+000,3.6084813514e+000,2.9626055272e+000,4.7009734363e+000,2.4039970954e+000,4.3903108894e+000,3.0720327192e+000,3.5548711666e+000,
3.5718750000e+001,3.9528096084e+000,3.6804933668e+000,3.0646678471e+000,3.5098593664e+000,3.5981050493e+000,3.8637321893e+000,2.5855617837e+000,3.6144844256e+000,3.0246497491e+000,4.5921930270e+000,2.4256153279e+000,4.3690912902e+000,2.9892266171e+000,3.4699757608e+000,
3.5812500000e+001,3.9050792832e+000,3.6503351990e+000,3.0037366317e+000,3.4822863607e+000,3.6011430032e+000,3.8427641540e+000,2.4467615426e+000,3.6301022108e+000,3.0632516504e+000,4.5782261107e+000,2.6505878802e+000,4.3941220008e+000,2.9468386899e+000,3.4367748140e+000,
3.5906250000e+001,3.8583043638e+000,3.7176718429e+000,2.9751795829e+000,3.6215570029e+000,3.4751461228e+000,3.7949243601e+000,2.3976885909e+000,3.7038358436e+000,3.1452488700e+000,4.6330398264e+000,2.6887004678e+000,4.4571756007e+000,2.9529945713e+000,3.3919521655e+000,
3.6000000000e+001,3.9158900058e+000,3.8794234365e+000,3.0972231905e+000,3.7182172618e+000,3.5020367423e+000,3.9053980946e+000,2.4797908668e+000,3.8480879628e+000,3.2733469756e+000,4.6431713622e+000,2.7588881743e+000,4.5336583683e+000,3.0799080524e+000,3.3925963059e+000,
3.6093750000e+001,3.8518605685e+000,3.8061757587e+000,3.0428236379e+000,3.7243649186e+000,3.4296869473e+000,3.9048584700e+000,2.3967555440e+000,3.8837264651e+000,3.3250016159e+000,4.6238650725e+000,2.9080316091e+000,4.4868796995e+000,3.1471787717e+000,3.3050542657e+000,
3.6187500000e+001,3.7931491232e+000,3.7446654135e+000,3.0847067633e+000,3.5906059003e+000,3.3681624884e+000,3.7284457009e+000,2.4672056990e+000,3.8040408207e+000,3.2581021419e+000,4.4719894792e+000,2.9201852120e+000,4.4260877660e+000,3.2448298168e+000,3.3511242338e+000,
3.6281250000e+001,3.8239394601e+000,3.7743617740e+000,3.2042740742e+000,3.6074243309e+000,3.2946349676e+000,3.7401625260e+000,2.6357800735e+000,3.7815778682e+000,3.2954612791e+000,4.3766681006e+000,2.9242208258e+000,4.4018504257e+000,3.2067061643e+000,3.4143608139e+000,
3.6375000000e+001,3.8128550670e+000,3.8353014228e+000,3.2396154870e+000,3.7611174942e+000,3.1500916437e+000,3.8151840395e+000,2.5776775790e+000,3.7466569705e+000,3.1959469751e+000,4.3822278974e+000,2.8855916038e+000,4.4574523621e+000,3.1023200963e+000,3.4397762725e+000,
3.6468750000e+001,3.7913226358e+000,3.8629924117e+000,3.3149514534e+000,3.7985583976e+000,3.2724997776e+000,3.8832452738e+000,2.5743697342e+000,3.7628427130e+000,3.2271811830e+000,4.4930457051e+000,2.8123532339e+000,4.4329864671e+000,3.0719083375e+000,3.5500996082e+000,
3.6562500000e+001,3.6836056137e+000,3.9684644913e+000,3.2723015128e+000,3.8930213319e+000,3.3175692052e+000,3.9519548780e+000,2.5900793356e+000,3.7700740317e+000,3.1171839017e+000,4.6092300985e+000,2.8149285130e+000,4.2953896104e+000,2.9945238760e+000,3.5998392765e+000,
3.6656250000e+001,3.7030875235e+000,4.0560432311e+000,3.3876574682e+000,3.9976660258e+000,3.2766264925e+000,4.1286098764e+000,2.6923102027e+000,3.8740689506e+000,3.1030393835e+000,4.5815990113e+000,2.6998417024e+000,4.1226435792e+000,2.9758820631e+000,3.6003701622e+000,
3.6750000000e+001,3.9137801216e+000,4.2517295309e+000,3.5611242995e+000,4.1188990800e+000,3.4776788411e+000,4.2633891628e+000,2.8710337656e+000,3.9874804209e+000,3.0408443726e+000,4.7259021004e+000,2.6794374514e+000,4.2087798269e+000,3.0959776549e+000,3.7483729982e+000,
3.6843750000e+001,3.9320466561e+000,4.2865916145e+000,3.5920840135e+000,4.0961756559e+000,3.4881103701e+000,4.3153232077e+000,2.9018264284e+000,3.9358038272e+000,3.1017462205e+000,4.7217237899e+000,2.5290893465e+000,4.1023974066e+000,3.1473325463e+000,3.8063699526e+000,
3.6937500000e+001,3.8854127000e+000,4.1823204248e+000,3.5193295607e+000,3.9902272800e+000,3.4640840961e+000,4.2685520046e+000,2.8643477233e+000,3.8070347890e+000,3.1025154101e+000,4.6665880659e+000,2.5602865437e+000,3.9823029051e+000,3.1509398544e+000,3.8075529932e+000,
3.7031250000e+001,3.8185736793e+000,4.0875716762e+000,3.4705025346e+000,3.9638841951e+000,3.4960792910e+000,4.2445325205e+000,2.7981318496e+000,3.7700770148e+000,3.0077412218e+000,4.7152845514e+000,2.4723331411e+000,4.0983415890e+000,3.0685986633e+000,3.8945778897e+000,
3.7125000000e+001,3.8094974014e+000,4.0861176516e+000,3.4641122663e+000,3.9948676467e+000,3.4385030931e+000,4.2595488752e+000,2.7251198642e+000,3.7497589655e+000,3.0319124379e+000,4.7240187085e+000,2.3834533583e+000,4.2756296032e+000,2.9846007810e+000,3.9495508285e+000,
3.7218750000e+001,3.9788418231e+000,4.1392870763e+000,3.4972465310e+000,4.0909133702e+000,3.5329653829e+000,4.3776667369e+000,2.7869258196e+000,3.7641112956e+000,3.1593300860e+000,4.7701770699e+000,2.5995955315e+000,4.3199429981e+000,2.9792074465e+000,3.9736954908e+000,
3.7312500000e+001,4.0879719734e+000,4.1935278157e+000,3.5720396825e+000,4.1309286075e+000,3.5726828130e+000,4.3494517343e+000,2.7334959422e+000,3.7870590073e+000,3.2392345878e+000,4.8452335724e+000,2.7052651635e+000,4.3670156196e+000,3.0322790345e+000,3.9782800311e+000,
3.7406250000e+001,4.1064258765e+000,4.2077944897e+000,3.5934293815e+000,4.0981306646e+000,3.6749920771e+000,4.3101485926e+000,2.8180382067e+000,3.8365448854e+000,3.3081128563e+000,4.8599058686e+000,2.7547259036e+000,4.3520914027e+000,3.0367568030e+000,3.9451668719e+000,
3.7500000000e+001,4.0844555378e+000,4.1239490397e+000,3.5084723375e+000,3.9652789330e+000,3.5493908260e+000,4.1887056260e+000,2.8690439214e+000,3.6465775763e+000,3.2910124235e+000,4.7362252336e+000,2.7491216914e+000,4.2983304471e+000,3.0232490084e+000,3.8622930137e+000,
3.7593750000e+001,4.1223852897e+000,4.1899513229e+000,3.5575348317e+000,4.0313021168e+000,3.5893119865e+000,4.1801909049e+000,3.0918689213e+000,3.6965541717e+000,3.3781249946e+000,4.7409642349e+000,2.7805999347e+000,4.3958032561e+000,3.0415203040e+000,3.8974122706e+000,
3.7687500000e+001,4.0261947329e+000,4.0509281920e+000,3.5172503217e+000,3.9125628876e+000,3.6183000257e+000,3.9869425007e+000,3.0843389528e+000,3.5295334399e+000,3.4043841369e+000,4.6360964006e+000,2.8401520866e+000,4.4417166354e+000,2.9741568332e+000,3.8521169564e+000,
3.7781250000e+001,3.8574282484e+000,3.7635471035e+000,3.3081183581e+000,3.7630485309e+000,3.4446794738e+000,3.7816476786e+000,2.9557727987e+000,3.3640539257e+000,3.3707682010e+000,4.6502791137e+000,2.8923094744e+000,4.4864084983e+000,2.7243180352e+000,3.7139578889e+000,
3.7875000000e+001,3.9083201021e+000,3.8071100595e+000,3.3452579841e+000,3.7421206599e+000,3.5185485630e+000,3.8148296128e+000,2.9536658128e+000,3.4109327442e+000,3.3375985878e+000,4.6485373059e+000,2.8893314256e+000,4.5646659908e+000,2.9170710658e+000,3.7620802429e+000,
3.7968750000e+001,3.9630587381e+000,3.8612903172e+000,3.4330273257e+000,3.7669656309e+000,3.5948145617e+000,3.8886037193e+000,2.9124293594e+000,3.4382034099e+000,3.2717108952e+000,4.6193557130e+000,2.8558370188e+000,4.5288941683e+000,2.9035132223e+000,3.6940989610e+000,
3.8062500000e+001,4.1012001458e+000,4.0243336399e+000,3.6058778771e+000,3.8510460592e+000,3.6204109485e+000,3.9674946820e+000,2.8585455889e+000,3.4534809124e+000,3.2741765419e+000,4.6450754646e+000,2.9133027310e+000,4.4973250720e+000,2.9799699431e+000,3.6413187039e+000,
3.8156250000e+001,4.0904094594e+000,4.0001181990e+000,3.6334384911e+000,3.8257684460e+000,3.6188958024e+000,3.9127983875e+000,2.9210744716e+000,3.4798993250e+000,3.2828882103e+000,4.6465397405e+000,2.8364783944e+000,4.4531252851e+000,2.9369162260e+000,3.6901377496e+000,
3.8250000000e+001,3.8614687665e+000,3.9212254948e+000,3.4904070028e+000,3.7209447299e+000,3.5443100537e+000,3.8185856900e+000,2.9471943478e+000,3.4307307190e+000,3.1302432485e+000,4.6364799882e+000,2.6712379510e+000,4.4248096767e+000,2.8892874127e+000,3.6365123604e+000,
3.8343750000e+001,4.0235374883e+000,3.9736683224e+000,3.5344402458e+000,3.7228591479e+000,3.6421078807e+000,3.8696143145e+000,2.9806583988e+000,3.5497526840e+000,3.1069362598e+000,4.6652005018e+000,2.6420111482e+000,4.4531266319e+000,2.8381929434e+000,3.6254188381e+000,
3.8437500000e+001,4.0467353090e+000,4.0001192773e+000,3.5552861426e+000,3.7603914911e+000,3.6602570254e+000,3.9222457239e+000,3.0574362264e+000,3.5004104169e+000,3.1219877210e+000,4.6229209335e+000,2.6056653368e+000,4.4137041755e+000,2.8688150007e+000,3.6248267650e+000,
3.8531250000e+001,4.0773712612e+000,4.0186909098e+000,3.6122589838e+000,3.8088239988e+000,3.7316240124e+000,3.9709410260e+000,2.9844963811e+000,3.5430792591e+000,3.0755482278e+000,4.7270922078e+000,2.6402654097e+000,4.4776968033e+000,2.8405170431e+000,3.6731151944e+000,
3.8625000000e+001,4.0103962651e+000,3.9492785456e+000,3.5321469099e+000,3.7901492944e+000,3.7158011895e+000,4.0792669100e+000,2.7697705863e+000,3.5614790710e+000,2.9866463919e+000,4.7838190248e+000,2.7100411651e+000,4.4514700993e+000,2.9184881903e+000,3.6905554632e+000,
3.8718750000e+001,3.9639178982e+000,3.9448088599e+000,3.4995501221e+000,3.7676050175e+000,3.6665926948e+000,4.1110914768e+000,2.8421596692e+000,3.5975126847e+000,3.1588094430e+000,4.7356912874e+000,2.7681452330e+000,4.3480445214e+000,2.9276471368e+000,3.5759310435e+000,
3.8812500000e+001,4.0153139169e+000,4.0506387899e+000,3.5609163080e+000,3.8758549007e+000,3.6812408426e+000,4.1670613308e+000,2.9100382346e+000,3.7026773116e+000,3.2247552876e+000,4.7000287292e+000,2.7435269254e+000,4.3022475792e+000,2.9229441132e+000,3.6619487190e+000,
3.8906250000e+001,4.0616244988e+000,4.0783818115e+000,3.6015241670e+000,3.9310038432e+000,3.7390688439e+000,4.1844903005e+000,2.9439172486e+000,3.7442427287e+000,3.1862014601e+000,4.6794805887e+000,2.7774691829e+000,4.2475649677e+000,2.8249881389e+000,3.7028218239e+000,
3.9000000000e+001,4.0239478629e+000,4.0316514140e+000,3.6361171603e+000,3.9450338302e+000,3.7721891317e+000,4.1189849017e+000,3.1543218920e+000,3.8208027866e+000,3.2138651791e+000,4.8302194183e+000,2.8261621135e+000,4.2885240438e+000,2.9139200943e+000,3.9062490126e+000,
3.9093750000e+001,3.9372761885e+000,4.0041873605e+000,3.5460341191e+000,3.9008961950e+000,3.7959045466e+000,4.0884576542e+000,3.1924383829e+000,3.7843483553e+000,3.2441453634e+000,4.7668401963e+000,2.8177846128e+000,4.2918435443e+000,2.9799533716e+000,3.8980724682e+000,
3.9187500000e+001,4.0199226796e+000,4.0554814944e+000,3.6028275989e+000,3.8563841884e+000,3.8562176718e+000,4.0584816907e+000,3.2672629587e+000,3.7602160293e+000,3.1481408871e+000,4.6916649627e+000,2.9207904799e+000,4.2081288428e+000,2.9999531546e+000,3.7872801924e+000,
3.9281250000e+001,3.9824595511e+000,3.9842072885e+000,3.6022765133e+000,3.8453941723e+000,3.7861491547e+000,4.0474008049e+000,3.2052148144e+000,3.7021914816e+000,3.1432932777e+000,4.6622660612e+000,2.9147291990e+000,4.1172795092e+000,2.9851581800e+000,3.7776928302e+000,
3.9375000000e+001,3.8455597774e+000,3.8903377582e+000,3.6015595010e+000,3.8546600864e+000,3.7026128996e+000,3.9533279193e+000,3.2441643532e+000,3.7174732155e+000,3.1685970390e+000,4.6167399530e+000,2.9123308919e+000,4.1401491401e+000,3.0775815200e+000,3.9026095320e+000,
3.9468750000e+001,3.7810197266e+000,3.7893727641e+000,3.5511806750e+000,3.7568940155e+000,3.7113567896e+000,3.9359182887e+000,3.1477112368e+000,3.7504661788e+000,3.2469713457e+000,4.5758805133e+000,2.9309101798e+000,4.1339812594e+000,3.0682884649e+000,3.9089959726e+000,
3.9562500000e+001,3.8736047384e+000,3.9026791035e+000,3.6318685339e+000,3.7616536294e+000,3.7442757353e+000,3.8845641207e+000,3.1661550153e+000,3.7467281810e+000,3.2280948891e+000,4.4050071755e+000,2.9454020158e+000,4.0527143916e+000,3.0589988139e+000,3.8870840441e+000,
3.9656250000e+001,3.9819016168e+000,3.9776379774e+000,3.7230952084e+000,3.8064317725e+000,3.7434808430e+000,3.7831949211e+000,3.2255139728e+000,3.7846619009e+000,3.0732225148e+000,4.4197911642e+000,2.7956839324e+000,4.0037735166e+000,3.0432519437e+000,3.8696976874e+000,
3.9750000000e+001,4.0184928496e+000,4.0298816475e+000,3.7621993606e+000,3.8442127509e+000,3.7728811322e+000,3.7724688497e+000,3.2051180549e+000,3.7673564727e+000,2.9917506035e+000,4.4102250102e+000,2.8098511050e+000,3.9585256592e+000,3.0223606720e+000,3.8766922938e+000,
3.9843750000e+001,3.9728699636e+000,3.9684671766e+000,3.7412636671e+000,3.7438749333e+000,3.7137602039e+000,3.7280056026e+000,3.1986809180e+000,3.7577943043e+000,2.9271327582e+000,4.4837004933e+000,2.8244172408e+000,4.0846866332e+000,2.9767736910e+000,3.8909916446e+000,
3.9937500000e+001,3.8901212260e+000,3.9346888632e+000,3.6521977824e+000,3.6972164893e+000,3.6651386360e+000,3.7260900586e+000,3.2023048780e+000,3.6847300276e+000,2.9082649793e+000,4.5145915464e+000,2.8086332289e+000,3.9902300729e+000,2.9556790543e+000,3.6668791698e+000,
4.0031250000e+001,3.8967377399e+000,3.8638140346e+000,3.5388163345e+000,3.6376534521e+000,3.6417099414e+000,3.6663970725e+000,3.0896540792e+000,3.6112818209e+000,2.8205235963e+000,4.4220348424e+000,2.8499988063e+000,3.8702564650e+000,2.7789520000e+000,3.4043769432e+000,
4.0125000000e+001,3.9192357808e+000,3.8763140425e+000,3.5246840129e+000,3.6495894864e+000,3.6076535784e+000,3.8458742199e+000,3.0062914922e+000,3.6883506333e+000,2.8147803795e+000,4.4897631715e+000,2.8788585468e+000,3.9469261574e+000,2.6628472176e+000,3.4867465176e+000,
4.0218750000e+001,3.8113790935e+000,3.8021549654e+000,3.4231325964e+000,3.6643827910e+000,3.4787865348e+000,3.8600580927e+000,2.8320514320e+000,3.6873947788e+000,2.8372016644e+000,4.5628571958e+000,2.9576985303e+000,3.9849269820e+000,2.6920567574e+000,3.5714706880e+000,
4.0312500000e+001,3.8264629698e+000,3.8273087942e+000,3.3125993581e+000,3.6631642392e+000,3.6064836459e+000,3.9294599611e+000,2.7802997800e+000,3.6920682368e+000,2.8155727227e+000,4.5744585795e+000,2.9901464113e+000,3.9652917261e+000,2.5114524677e+000,3.5171653996e+000,
4.0406250000e+001,3.9594168764e+000,3.8943259336e+000,3.4974295268e+000,3.7197014031e+000,3.6668835491e+000,3.9302760211e+000,2.8794508539e+000,3.6705676005e+000,2.7753695458e+000,4.5487946259e+000,2.9957079663e+000,3.9966054453e+000,2.3991392575e+000,3.5703138036e+000,
4.0500000000e+001,3.9419185631e+000,3.9039992274e+000,3.4843327549e+000,3.6744419992e+000,3.6577341041e+000,3.9071893285e+000,2.8903521895e+000,3.5881765837e+000,2.6009977834e+000,4.5390343345e+000,2.9555011337e+000,4.0329158869e+000,2.3420270752e+000,3.6460996345e+000,
4.0593750000e+001,3.9765356705e+000,3.8471399385e+000,3.4272704432e+000,3.5954201444e+000,3.7442577474e+000,3.8954358012e+000,2.8877509033e+000,3.5867469388e+000,2.5802100240e+000,4.5849235187e+000,2.8621658689e+000,4.0833066514e+000,2.4158372881e+000,3.6719544608e+000,
4.0687500000e+001,4.2982648069e+000,4.1167448004e+000,3.4452662871e+000,3.6512172007e+000,3.8706062680e+000,3.8956853442e+000,2.8379888879e+000,3.4949381867e+000,2.5376635202e+000,5.0996588926e+000,2.8294955536e+000,4.0717577262e+000,2.6000413811e+000,3.6709988903e+000,
4.0781250000e+001,4.3990849896e+000,4.1478135752e+000,3.5741048216e+000,3.7062112110e+000,3.9596507385e+000,4.0083305000e+000,2.9714001552e+000,3.5124997190e+000,2.6663681126e+000,5.0804394522e+000,2.8727234378e+000,4.0768710582e+000,2.7032726011e+000,3.6930230740e+000,
4.0875000000e+001,4.4397131809e+000,4.2112701463e+000,3.6642715272e+000,3.7535573486e+000,3.9922301300e+000,4.0464818812e+000,2.9864235536e+000,3.5099130475e+000,2.8861884561e+000,5.0947910404e+000,2.9669221470e+000,4.1290672395e+000,3.0046841231e+000,3.8449326332e+000,
4.0968750000e+001,4.5386354648e+000,4.3014745939e+000,3.8158891451e+000,3.8216395330e+000,3.9785047285e+000,4.0169756364e+000,3.0061831720e+000,3.5161817940e+000,3.1724618125e+000,5.1016745773e+000,2.9951134676e+000,4.2273380855e+000,3.2897760512e+000,4.0216571086e+000,
4.1062500000e+001,4.5467183735e+000,4.3551743124e+000,3.9205367442e+000,3.9023344901e+000,4.0635377392e+000,3.9525241501e+000,3.1294476313e+000,3.5327471332e+000,3.3040524954e+000,5.2202275852e+000,3.0270444771e+000,4.3090984789e+000,3.4188893770e+000,4.0980007718e+000,
4.1156250000e+001,4.6490892936e+000,4.5100527594e+000,4.1261326612e+000,4.0705443375e+000,4.1835592906e+000,4.1006712783e+000,3.2807588411e+000,3.6826243018e+000,3.4224367775e+000,5.2460687264e+000,3.0768710027e+000,4.4768098543e+000,3.6233828821e+000,4.2869784699e+000,
