Time (s),AF3,AF4,F3,F4,F7,F8,FC5,FC6,T7,T8,P7,P8,O1,O2,Sampling Rate
0.0000000000e+000,4.0399836110e+000,4.7661817952e+000,3.9095194550e+000,4.2297345690e+000,4.7078385598e+000,4.7162534582e+000,3.9379342372e+000,3.8084930130e+000,3.7038876259e+000,5.1925355157e+000,3.5094318126e+000,5.0277963568e+000,3.3641619201e+000,4.3039823007e+000,1
9.3750000000e-002,4.0550932489e+000,4.7018484859e+000,3.8201199208e+000,4.2025495487e+000,4.7714640438e+000,4.6457054271e+000,3.9251021206e+000,3.7998519162e+000,3.7824039578e+000,5.1450789075e+000,3.5932573728e+000,4.9982353998e+000,3.4711744018e+000,4.3325775576e+000,
1.8750000000e-001,4.0556402934e+000,4.7030816816e+000,3.7593450972e+000,4.2385056620e+000,4.8019712675e+000,4.5802549466e+000,4.0421577683e+000,3.8570564568e+000,3.7600781461e+000,5.0790990991e+000,3.5199584327e+000,4.9063968009e+000,3.3182128117e+000,4.2140512598e+000,
2.8125000000e-001,4.0499420242e+000,4.7157040762e+000,3.7072398385e+000,4.2305011627e+000,4.7976222492e+000,4.6195907054e+000,4.0639819453e+000,3.8985808409e+000,3.6671576686e+000,5.1824028072e+000,3.4885333904e+000,5.0085139164e+000,3.2781386574e+000,4.2340372899e+000,
3.7500000000e-001,3.8511158331e+000,4.6317863787e+000,3.6090924671e+000,4.0611842623e+000,4.4890001867e+000,4.5991467184e+000,4.1208940239e+000,3.8016170396e+000,3.3120569876e+000,5.1344861841e+000,3.4321355008e+000,4.9937864492e+000,3.2014426971e+000,4.1636722259e+000,
4.6875000000e-001,3.7258367455e+000,4.5000843362e+000,3.5420070205e+000,3.9940706685e+000,4.4015131602e+000,4.5409775670e+000,4.0478760166e+000,3.6995072535e+000,3.2759195232e+000,5.0470980362e+000,3.4477978922e+000,4.9230085215e+000,3.2398278853e+000,4.1013047316e+000,
5.6250000000e-001,3.7515188010e+000,4.4964970599e+000,3.5903268495e+000,4.0946613204e+000,4.4077501556e+000,4.5638751985e+000,4.1275180561e+000,3.7912420078e+000,3.2343202220e+000,4.8806960427e+000,3.3660076146e+000,4.7511263619e+000,3.3851606164e+000,4.1174081107e+000,
6.5625000000e-001,3.8044630470e+000,4.4395215086e+000,3.6125168500e+000,4.1195542450e+000,4.3933929776e+000,4.5673477857e+000,4.1931886258e+000,3.7992610300e+000,3.2829750512e+000,4.8021236930e+000,3.3777955756e+000,4.5608950789e+000,3.4363383495e+000,3.9683942655e+000,
7.5000000000e-001,3.8068051431e+000,4.4897994217e+000,3.5903285653e+000,4.1035598572e+000,4.3300474017e+000,4.4153354559e+000,4.2994796629e+000,3.8073047413e+000,3.3212808686e+000,4.8128791167e+000,3.3649535438e+000,4.5697975045e+000,3.4304943654e+000,3.9978667678e+000,
8.4375000000e-001,3.7102128047e+000,4.5364143140e+000,3.5987844612e+000,4.0266465072e+000,4.3139972828e+000,4.3588114121e+000,4.2876515290e+000,3.7230813030e+000,3.3464963557e+000,4.7827410573e+000,3.2804362869e+000,4.5242168566e+000,3.3960170896e+000,4.0022844750e+000,
9.3750000000e-001,3.7381345688e+000,4.6177952292e+000,3.5802708104e+000,4.1026506572e+000,4.3480226599e+000,4.4416830724e+000,4.2639799684e+000,3.7219970280e+000,3.4569087244e+000,4.8672091780e+000,3.2284825360e+000,4.6444517157e+000,3.4236867532e+000,4.1598446190e+000,
1.0312500000e+000,3.8655821476e+000,4.7032858292e+000,3.7954527726e+000,4.2646213303e+000,4.4883288780e+000,4.3934792244e+000,4.3155155651e+000,3.7560045379e+000,3.5094299118e+000,4.7433316940e+000,3.2040998593e+000,4.6089957062e+000,3.3396282504e+000,4.1062361198e+000,
1.1250000000e+000,3.8904854615e+000,4.7284670809e+000,3.8546019579e+000,4.3131980018e+000,4.3879066515e+000,4.3665398547e+000,4.2542073019e+000,3.6880613139e+000,3.4430666340e+000,4.7562772198e+000,3.0569414242e+000,4.5562962156e+000,3.2857891686e+000,4.0940237194e+000,
1.2187500000e+000,3.9094023502e+000,4.7098802608e+000,3.9331041808e+000,4.3264189202e+000,4.3497827391e+000,4.3367012099e+000,4.2876196163e+000,3.5193496400e+000,3.3282515050e+000,4.5662116955e+000,3.0321231259e+000,4.4310128728e+000,3.3921155729e+000,4.1221164512e+000,
1.3125000000e+000,3.8427748981e+000,4.7166154885e+000,3.9040328030e+000,4.3744677302e+000,4.2237073874e+000,4.3241983416e+000,4.2025963891e+000,3.4912034822e+000,3.3871702298e+000,4.5211782300e+000,3.0357211125e+000,4.3476722717e+000,3.3856446920e+000,4.1428513697e+000,
1.4062500000e+000,3.8130342577e+000,4.7242623753e+000,3.8851652786e+000,4.3972173662e+000,4.1882023869e+000,4.3745899423e+000,4.1030937778e+000,3.5358876838e+000,3.3708836126e+000,4.5409711607e+000,2.9613091767e+000,4.4415230985e+000,3.4076357593e+000,4.2535206270e+000,
1.5000000000e+000,3.7936950033e+000,4.7306902719e+000,3.8834850167e+000,4.3441835123e+000,4.1783442359e+000,4.3913946518e+000,4.0615229745e+000,3.5155054982e+000,3.3427690672e+000,4.6985582622e+000,3.0266209687e+000,4.6332467511e+000,3.3809533210e+000,4.3079487198e+000,
1.5937500000e+000,3.9320514446e+000,4.8137236755e+000,3.9526149896e+000,4.3149733628e+000,4.1634115109e+000,4.3210417512e+000,3.9196125122e+000,3.3526047104e+000,3.3560043119e+000,4.6926539874e+000,3.2687779762e+000,4.7175033083e+000,3.3218499696e+000,4.2651051379e+000,
1.6875000000e+000,3.9182664637e+000,4.7871101478e+000,4.0490488896e+000,4.3455632441e+000,4.2493913095e+000,4.3029364089e+000,3.9546941193e+000,3.4629459053e+000,3.3427207947e+000,4.7993071215e+000,3.3063443391e+000,4.8434913009e+000,3.2703980914e+000,4.2922559677e+000,
1.7812500000e+000,3.9531493259e+000,4.8278083473e+000,4.0561198747e+000,4.3215980459e+000,4.2794608942e+000,4.4510107896e+000,3.9362626613e+000,3.3971363089e+000,3.4053001146e+000,4.8540355281e+000,3.2811377272e+000,4.8541642004e+000,3.3943467573e+000,4.2844473897e+000,
1.8750000000e+000,4.0127318390e+000,4.8151725517e+000,4.0918202507e+000,4.2702530029e+000,4.4441308953e+000,4.5044441704e+000,3.9824228089e+000,3.3975286096e+000,3.6716247405e+000,4.9079977758e+000,3.2891452814e+000,4.9342928606e+000,3.4371360958e+000,4.2474599961e+000,
1.9687500000e+000,3.9694767796e+000,4.7997687531e+000,4.0755787398e+000,4.2222974260e+000,4.3478410345e+000,4.4838744127e+000,3.9680240930e+000,3.3353570803e+000,3.6387872755e+000,4.7764806630e+000,3.3159583357e+000,4.8326081108e+000,3.4463471163e+000,4.1681548773e+000,
2.0625000000e+000,3.9737264026e+000,4.7463620847e+000,3.9804519443e+000,4.0703505878e+000,4.6019612989e+000,4.4879036511e+000,4.0460511242e+000,3.5266019278e+000,3.6859296717e+000,4.9092563177e+000,3.3319224593e+000,4.8195595148e+000,3.5077079403e+000,4.1767519238e+000,
2.1562500000e+000,4.0216046514e+000,4.7893981495e+000,3.9869703241e+000,4.1566038982e+000,4.8556857602e+000,4.7307950096e+000,4.0885723821e+000,3.6663972590e+000,3.7838707867e+000,5.1157243927e+000,3.4014408811e+000,4.9579563339e+000,3.5312530071e+000,4.2304010538e+000,
2.2500000000e+000,4.2245238384e+000,4.8221431934e+000,3.9502244976e+000,4.1152364413e+000,5.0340548297e+000,4.8078900049e+000,4.1864246973e+000,3.6995091013e+000,3.8524468910e+000,5.1584736618e+000,3.4130992050e+000,5.0277316465e+000,3.4142324094e+000,4.2089819264e+000,
2.3437500000e+000,4.2097396043e+000,4.8253616004e+000,4.0202104383e+000,4.0798822032e+000,5.0283492225e+000,4.7935683802e+000,4.1975254750e+000,3.6598822096e+000,3.8813045543e+000,5.1634762354e+000,3.4132967686e+000,5.0273124464e+000,3.3374735883e+000,4.1321531410e+000,
2.4375000000e+000,4.2277443229e+000,4.8136278973e+000,4.0146343633e+000,4.0662886892e+000,5.0372387401e+000,4.8083846843e+000,4.2178436013e+000,3.6694529352e+000,3.8988521573e+000,5.1991944112e+000,3.5441022891e+000,5.0032130213e+000,3.2983691067e+000,4.0295797555e+000,
2.5312500000e+000,4.2078041817e+000,4.8526312118e+000,4.0009242256e+000,4.1433980478e+000,5.0494017509e+000,4.8636741716e+000,4.2393804488e+000,3.6932384703e+000,3.9022247525e+000,5.2277340092e+000,3.4353800850e+000,5.0411014309e+000,3.2878271719e+000,4.0800839054e+000,
2.6250000000e+000,4.3611014714e+000,4.8980789515e+000,3.9615006508e+000,4.1058282898e+000,5.0786434317e+000,4.8687194273e+000,4.2590554577e+000,3.6773198375e+000,3.8972603423e+000,5.1258296009e+000,3.3481556224e+000,4.8889073129e+000,3.1693182469e+000,3.9118847273e+000,
2.7187500000e+000,4.3368391358e+000,4.9193728080e+000,3.9126133376e+000,4.0821874379e+000,5.0200719489e+000,4.8770510277e+000,4.2197164426e+000,3.5525101039e+000,3.8428332458e+000,5.0758509839e+000,3.3755454445e+000,4.8868655872e+000,3.0817188951e+000,4.0124392429e+000,
2.8125000000e+000,4.3191154908e+000,4.9715453582e+000,3.8454401745e+000,4.0245515889e+000,4.9912387740e+000,4.8419852748e+000,4.2191555693e+000,3.5453369548e+000,3.7622858576e+000,5.1585558057e+000,3.3099734730e+000,4.9650805587e+000,3.0230846797e+000,4.1134007771e+000,
2.9062500000e+000,4.2858189228e+000,4.9660704144e+000,3.8592859069e+000,4.1103920636e+000,4.9370819415e+000,4.8947559611e+000,4.2471470450e+000,3.6572537948e+000,3.5606922186e+000,5.1699929127e+000,3.4099239888e+000,4.9326187441e+000,3.0490085161e+000,4.1242567246e+000,
3.0000000000e+000,4.2766506462e+000,4.9012605403e+000,3.8055828981e+000,4.0239857254e+000,4.9477795983e+000,4.8353509192e+000,4.2555765412e+000,3.6565930979e+000,3.4983394405e+000,5.1647465513e+000,3.3500781517e+000,4.9199378593e+000,3.0159704319e+000,4.0969600260e+000,
3.0937500000e+000,4.1477500805e+000,4.9483000654e+000,3.7482267754e+000,3.9543227080e+000,4.5841568464e+000,4.8623069522e+000,4.1743465788e+000,3.5590712812e+000,3.3421704108e+000,5.1319272611e+000,3.3313117361e+000,4.8726942841e+000,3.1112246063e+000,4.1116377756e+000,
3.1875000000e+000,4.0056949322e+000,4.8630904647e+000,3.7402022684e+000,3.8391026608e+000,4.1967047774e+000,4.5975651134e+000,4.0323308826e+000,3.5182003100e+000,3.4449639053e+000,4.9320416451e+000,3.3602449868e+000,4.7215933482e+000,3.1059639823e+000,4.1003071187e+000,
3.2812500000e+000,3.9574087681e+000,4.9043615409e+000,3.6630252740e+000,3.8741145228e+000,4.2959178608e+000,4.6085840465e+000,4.2246734706e+000,3.5914934565e+000,3.4165849168e+000,4.8633081273e+000,3.4367354558e+000,4.6438511049e+000,3.1141749378e+000,4.0991590871e+000,
3.3750000000e+000,3.9677101120e+000,4.9074492279e+000,3.6072045974e+000,3.8805576536e+000,4.3451703162e+000,4.6492621199e+000,4.2459298640e+000,3.7253594118e+000,3.4923315354e+000,4.9202374103e+000,3.4204984689e+000,4.6701539754e+000,3.1554291013e+000,4.1172706822e+000,
3.4687500000e+000,3.9810878572e+000,4.9323350748e+000,3.5777556975e+000,3.7765854930e+000,4.3207762321e+000,4.5501579567e+000,4.2458701001e+000,3.6722274922e+000,3.4909381803e+000,4.8384045501e+000,3.3333199397e+000,4.5895853510e+000,3.0822374590e+000,4.1030745367e+000,
3.5625000000e+000,3.9706402269e+000,4.9422187634e+000,3.6485852970e+000,3.7266445546e+000,4.3411822390e+000,4.5902932705e+000,4.2356568554e+000,3.6832745381e+000,3.4971425508e+000,4.8428635346e+000,3.3697116110e+000,4.5856107125e+000,3.1631567426e+000,4.1036592611e+000,
3.6562500000e+000,3.5768531410e+000,4.8427307799e+000,3.6081272297e+000,3.6885522100e+000,4.2492794614e+000,4.4939036746e+000,4.1709370588e+000,3.8215954566e+000,3.4699312527e+000,4.9294600425e+000,3.2743239421e+000,4.6334889136e+000,3.1735230746e+000,4.0463482100e+000,
3.7500000000e+000,3.4914689314e+000,4.8222263158e+000,3.5733896449e+000,3.6834570044e+000,4.2486726285e+000,4.4953850570e+000,4.1018484793e+000,3.9068848514e+000,3.4506259131e+000,4.9447337643e+000,3.2681975294e+000,4.4436518233e+000,3.2271341763e+000,3.9321109676e+000,
3.8437500000e+000,3.5102769810e+000,4.7610457789e+000,3.4433440822e+000,3.5615420351e+000,4.2278039596e+000,4.4229246470e+000,4.1273335916e+000,3.8849709565e+000,3.3891636889e+000,4.8006777475e+000,3.3430439606e+000,4.2642667564e+000,3.1747958881e+000,3.8751448830e+000,
3.9375000000e+000,3.4701150580e+000,4.8901552999e+000,3.4101161030e+000,8.3258708797e+000,4.2146395780e+000,4.4195359896e+000,4.0471602190e+000,4.0472645629e+000,3.4234618603e+000,4.8458345429e+000,3.2240066469e+000,4.4113813863e+000,3.1540053080e+000,3.9356927523e+000,
4.0312500000e+000,3.6457782412e+000,5.3115116479e+000,3.3752312377e+000,9.9280267391e+000,4.3029693336e+000,4.3967418751e+000,3.9281148545e+000,4.4374106955e+000,3.5211539757e+000,4.8189973109e+000,3.3791069778e+000,4.4459769435e+000,3.0257004592e+000,3.9370539285e+000,
4.1250000000e+000,3.5789247790e+000,5.2732534146e+000,3.3557814938e+000,1.0048652865e+001,4.3097755177e+000,4.3503142066e+000,3.9462855407e+000,4.5018284101e+000,3.5437106562e+000,4.7435943011e+000,3.4150317691e+000,4.4104962959e+000,2.9767490713e+000,3.9050549079e+000,
4.2187500000e+000,3.5743600509e+000,5.2898691756e+000,3.2588276320e+000,1.0114064992e+001,4.3626727390e+000,4.3469281584e+000,3.7051587636e+000,4.5313818314e+000,3.5346903570e+000,4.8017448062e+000,3.3827894519e+000,4.5415180020e+000,2.9438421884e+000,3.8440448242e+000,
4.3125000000e+000,3.5989639512e+000,5.2573787167e+000,3.3932487977e+000,1.0136990213e+001,4.2183753999e+000,4.3003543368e+000,3.7889878194e+000,4.5084115884e+000,3.3841700098e+000,4.7857411407e+000,3.4106061110e+000,4.5390433226e+000,2.9533048619e+000,3.8013863258e+000,
4.4062500000e+000,3.6559234431e+000,5.6091303296e+000,3.5762445912e+000,1.0970222592e+001,4.2486971900e+000,4.3345120047e+000,3.8780321266e+000,5.0194144796e+000,3.4988282207e+000,4.7656911104e+000,3.4385483451e+000,4.5774518025e+000,3.1523915222e+000,3.9920736698e+000,
4.5000000000e+000,3.6510085058e+000,7.2706696641e+000,3.5701953770e+000,1.3131715005e+001,4.3079894213e+000,4.4024819960e+000,4.5053995901e+000,7.0618773798e+000,3.6162964427e+000,4.8295818225e+000,3.5613637866e+000,4.6015487592e+000,3.3619736098e+000,3.9658135803e+000,
4.5937500000e+000,3.7204749277e+000,8.1148269370e+000,3.5584288379e+000,1.4011291177e+001,4.3873804126e+000,4.3074629256e+000,5.2859994086e+000,7.9240831840e+000,3.7265349454e+000,4.8370014483e+000,3.5563416567e+000,4.6489737062e+000,3.4065391220e+000,3.9845339558e+000,
4.6875000000e+000,3.8069113578e+000,8.1175467010e+000,3.5350248226e+000,1.4015613747e+001,4.4510327992e+000,4.2654563198e+000,5.4690488009e+000,7.9259930724e+000,3.8183507157e+000,4.7533412648e+000,3.6283690974e+000,4.5761000959e+000,3.3146076594e+000,3.9373339428e+000,
4.7812500000e+000,3.7953809176e+000,8.1160561146e+000,3.4948045261e+000,1.4015699696e+001,4.4613819465e+000,4.1282448785e+000,5.4663438322e+000,7.9252735974e+000,3.8043450688e+000,4.6904032408e+000,3.6185948890e+000,4.5619525840e+000,3.3321796703e+000,3.8320384240e+000,
4.8750000000e+000,3.8049320664e+000,8.1178728528e+000,3.5851483236e+000,1.4016116332e+001,4.4905971230e+000,4.1108370099e+000,5.4776952424e+000,7.9263346166e+000,3.8434795914e+000,4.6965208831e+000,3.5742626300e+000,4.5907136243e+000,3.3701547943e+000,3.7941207707e+000,
4.9687500000e+000,3.7039231733e+000,8.0942893054e+000,3.6025307818e+000,1.4004491371e+001,4.4071961238e+000,4.0057744237e+000,5.4858579892e+000,7.9179434506e+000,3.7959192322e+000,4.6825145761e+000,3.5967282707e+000,4.4973180942e+000,3.3181769733e+000,3.7110897459e+000,
5.0625000000e+000,3.6480734007e+000,8.0885961258e+000,3.6119560607e+000,1.3998677949e+001,4.3867060559e+000,4.0355524735e+000,5.4945419051e+000,7.9135808375e+000,3.8140831054e+000,4.9621471779e+000,3.5187011240e+000,4.6505301310e+000,3.3595984877e+000,3.6986947948e+000,
5.1562500000e+000,3.6867957493e+000,8.0907143842e+000,3.7631574890e+000,1.3996922611e+001,4.4408535395e+000,4.0932769381e+000,5.5150253088e+000,7.9129298940e+000,3.8006341826e+000,5.0060371686e+000,3.5085210765e+000,4.6449740790e+000,3.4571809423e+000,3.7879908300e+000,
5.2500000000e+000,3.6779288078e+000,8.0919600585e+000,3.7841451953e+000,1.3996091298e+001,4.3849775056e+000,4.0804267048e+000,5.5285673120e+000,7.9128460991e+000,3.7512950784e+000,4.9563417528e+000,3.5101376945e+000,4.5925621018e+000,3.4679856173e+000,3.8280143884e+000,
5.3437500000e+000,3.6462517217e+000,8.0916719629e+000,3.7076304948e+000,1.3996026981e+001,4.3594559508e+000,4.0689551716e+000,5.4982933353e+000,7.9133795710e+000,3.6865830935e+000,4.9685329238e+000,3.4458416253e+000,4.6129367276e+000,3.5208322956e+000,3.7824822429e+000,
5.4375000000e+000,3.5563114248e+000,8.0237753328e+000,3.5819287725e+000,1.3920917099e+001,4.3405647838e+000,4.1387497376e+000,5.4891604445e+000,7.8655394992e+000,3.6327447682e+000,5.0164911089e+000,3.4071685392e+000,4.5731760492e+000,3.3155137846e+000,3.5858181847e+000,
5.5312500000e+000,3.5936213325e+000,6.9901346750e+000,3.5857767261e+000,1.2682584096e+001,4.1791589389e+000,4.0892227804e+000,5.2616426434e+000,6.7282045288e+000,3.5749478316e+000,4.9282563775e+000,3.4000970481e+000,4.4460030393e+000,3.2529754547e+000,3.5007642446e+000,
5.6250000000e+000,3.4227894707e+000,4.4595189742e+000,3.4287935951e+000,7.6670376409e+000,4.0354153475e+000,4.1749926181e+000,4.3289551839e+000,3.8489185161e+000,3.5101086074e+000,4.9227977967e+000,3.3759915230e+000,4.4263599419e+000,3.1866282570e+000,3.5017550562e+000,
5.7187500000e+000,3.4121975635e+000,5.7200889927e+000,3.5270657964e+000,1.1344379138e+001,4.1289737839e+000,4.2553390119e+000,4.5301027484e+000,5.2558486658e+000,3.4728531111e+000,4.9562118232e+000,3.3973330732e+000,4.4919042165e+000,3.1677359864e+000,3.5551070477e+000,
5.8125000000e+000,3.5766312684e+000,5.8875969687e+000,3.8040147928e+000,1.1608989586e+001,4.0998083783e+000,4.4833086954e+000,5.4682149489e+000,5.4529635204e+000,3.5058242682e+000,5.1313724670e+000,3.5850750744e+000,4.7093088449e+000,3.1564561407e+000,3.8327259477e+000,
5.9062500000e+000,3.7238621174e+000,6.5602991994e+000,3.8764445756e+000,1.2382511313e+001,4.2636846657e+000,4.6396947516e+000,5.8348119700e+000,6.2033058001e+000,3.4606671504e+000,5.2413129529e+000,3.5429119317e+000,4.7767971861e+000,3.1679867791e+000,4.0052192621e+000,
6.0000000000e+000,3.7306515078e+000,6.5642791141e+000,3.8953747643e+000,1.2401990355e+001,4.2597557758e+000,4.6441863419e+000,5.8699439334e+000,6.2084305131e+000,3.3986753949e+000,5.2071733854e+000,3.4355195259e+000,4.7581354863e+000,3.2434556688e+000,4.0193124358e+000,
6.0937500000e+000,3.7782839593e+000,6.5677148636e+000,3.8898832140e+000,1.2402051553e+001,4.3240749947e+000,4.6772627356e+000,5.8820052532e+000,6.2020954888e+000,3.4090501631e+000,5.1481292710e+000,3.5030286314e+000,4.6715527479e+000,3.2440373162e+000,4.0271287490e+000,
6.1875000000e+000,3.6716816874e+000,6.5351951725e+000,3.8087783284e+000,1.2400650064e+001,4.2141482941e+000,4.5880637110e+000,5.8755446554e+000,6.1986079759e+000,3.3686211461e+000,5.1211364964e+000,3.5562199164e+000,4.6563053798e+000,3.2767392314e+000,4.0605993970e+000,
6.2812500000e+000,3.7034385237e+000,6.5277145413e+000,3.7634240136e+000,1.2399863606e+001,4.2198936554e+000,4.5817312868e+000,5.8726304600e+000,6.1932853506e+000,3.4178838681e+000,5.1610145094e+000,3.4840407634e+000,4.6769487512e+000,3.3488812788e+000,4.0541426983e+000,
6.3750000000e+000,3.7481954971e+000,6.5396623006e+000,3.7928090074e+000,1.2399735427e+001,4.2340699444e+000,4.6100531581e+000,5.8779975005e+000,6.1960917827e+000,3.5058695259e+000,5.2033902123e+000,3.5156125841e+000,4.6906887661e+000,3.3185135494e+000,4.0818261959e+000,
6.4687500000e+000,3.7834462830e+000,6.5344727919e+000,3.7496907259e+000,1.2399473786e+001,4.2532681544e+000,4.4586010223e+000,5.8806978464e+000,6.1915765177e+000,3.4570773880e+000,5.1478108184e+000,3.4160667659e+000,4.6762766485e+000,3.3323364669e+000,4.0807029908e+000,
6.5625000000e+000,3.8818022835e+000,6.5559244972e+000,3.9048733345e+000,1.2399275655e+001,4.3707942333e+000,4.5261898318e+000,5.8812426285e+000,6.1979491571e+000,3.5271000130e+000,5.1130539479e+000,3.4748632522e+000,4.6271576952e+000,3.3411191034e+000,4.1395366411e+000,
6.6562500000e+000,4.0180690464e+000,6.5888629107e+000,3.9478152385e+000,1.2398282431e+001,4.4571827221e+000,4.6038383295e+000,5.8807694636e+000,6.2094457474e+000,3.5786386323e+000,5.0750623532e+000,3.4859714506e+000,4.5937115311e+000,3.4495880168e+000,4.1842346143e+000,
6.7500000000e+000,4.0463165585e+000,6.1767068013e+000,3.9149984809e+000,1.1931553864e+001,4.4381099093e+000,4.6089490598e+000,5.4783713586e+000,5.8045580689e+000,3.5418503901e+000,5.0810467039e+000,3.4450170650e+000,4.5871939184e+000,3.5379696240e+000,4.2563826514e+000,
6.8437500000e+000,3.9690673425e+000,5.3543764341e+000,3.6338697024e+000,1.0562964275e+001,4.3935165193e+000,4.3669718732e+000,4.9645496381e+000,4.7489587352e+000,3.4630555378e+000,4.8774378715e+000,3.2925378578e+000,4.3429215364e+000,3.4750083385e+000,4.0839474069e+000,
6.9375000000e+000,4.0677466992e+000,4.9718521979e+000,3.8196384256e+000,7.0426048921e+000,4.5032978512e+000,4.4146145366e+000,4.1552922780e+000,4.0319712513e+000,3.5682285850e+000,4.8054270257e+000,3.4578033005e+000,4.2831102303e+000,3.4884918819e+000,4.1157878564e+000,
7.0312500000e+000,4.2204817762e+000,5.0215287417e+000,4.0069858632e+000,4.7334634263e+000,4.5347753847e+000,4.4801572560e+000,4.2239526508e+000,4.0434439735e+000,3.6152905191e+000,4.7759792828e+000,3.5359782576e+000,4.3595424939e+000,3.4858640169e+000,4.1427773212e+000,
7.1250000000e+000,4.2058781296e+000,5.0106167262e+000,3.9719530659e+000,4.3501269588e+000,4.5008567418e+000,4.5154947271e+000,4.1518912110e+000,4.0080185411e+000,3.5869652466e+000,4.7493718746e+000,3.4423722740e+000,4.2925615720e+000,3.4931818534e+000,4.1186291651e+000,
7.2187500000e+000,4.2696676479e+000,5.0325955112e+000,3.9951813152e+000,4.2756374000e+000,4.5627573932e+000,4.6171835519e+000,4.1875346027e+000,3.9833191439e+000,3.6245740750e+000,4.7913047151e+000,3.4237601488e+000,4.2864933770e+000,3.4202270959e+000,4.0918097281e+000,
7.3125000000e+000,4.2531193911e+000,5.0232064852e+000,4.0036088015e+000,4.3174285697e+000,4.5877967557e+000,4.6252094299e+000,4.1243063692e+000,3.9533075622e+000,3.5764414913e+000,4.7926460018e+000,3.4236392574e+000,4.2923867868e+000,3.3717445360e+000,4.1016098065e+000,
7.4062500000e+000,4.1913108767e+000,4.9593740013e+000,3.9724691928e+000,4.2222417162e+000,4.5546371159e+000,4.6111597553e+000,4.1323648022e+000,3.9906987571e+000,3.5960093419e+000,4.8066186426e+000,3.4303502032e+000,4.3020677105e+000,3.3779367835e+000,4.0668815124e+000,
7.5000000000e+000,4.2763904430e+000,4.9889067206e+000,4.0634573636e+000,4.3059682020e+000,4.6823224583e+000,4.8401887116e+000,4.4292462998e+000,3.9996724418e+000,3.6562566895e+000,4.7910828170e+000,3.4272511061e+000,4.3187893834e+000,3.4296171305e+000,4.1405486289e+000,
7.5937500000e+000,4.2627460785e+000,4.8457908564e+000,3.9502134460e+000,4.2000472208e+000,4.6528799800e+000,4.7185201695e+000,4.4033130362e+000,3.9277326021e+000,3.5869748160e+000,4.7898976915e+000,3.4604678012e+000,4.3126754328e+000,3.2706676362e+000,4.0020977189e+000,
7.6875000000e+000,4.2067087898e+000,4.7686080312e+000,3.9125091904e+000,4.1551368651e+000,4.6058809687e+000,4.6918051409e+000,4.3158271581e+000,3.9067960679e+000,3.5671432622e+000,4.8065934493e+000,3.3767801645e+000,4.3280289454e+000,3.2016331066e+000,3.9473889416e+000,
7.7812500000e+000,4.3736953791e+000,4.9226248030e+000,3.9995035160e+000,4.1953489649e+000,4.7856681195e+000,4.6887475263e+000,4.2854542013e+000,3.8399907676e+000,3.6867131374e+000,4.7810417946e+000,3.4568284327e+000,4.3400416771e+000,3.1772769869e+000,3.8938271876e+000,
7.8750000000e+000,4.3000925988e+000,4.8971661599e+000,4.0346914897e+000,4.2319261425e+000,4.6900339959e+000,4.6599541443e+000,4.2795169116e+000,3.9305959227e+000,3.7578939704e+000,4.7894457119e+000,3.4779706176e+000,4.3832661798e+000,3.4282808692e+000,3.9548616279e+000,
7.9687500000e+000,4.2507588049e+000,4.7367023444e+000,3.8200510499e+000,4.1371033720e+000,4.7334154203e+000,4.5414493676e+000,4.2929478987e+000,3.7517375874e+000,3.7458723182e+000,4.6357578712e+000,3.4221920748e+000,4.3707889075e+000,3.3668357829e+000,3.8877386817e+000,
8.0625000000e+000,4.2340865262e+000,4.7612100528e+000,3.8005307362e+000,4.1128471760e+000,4.7231611055e+000,4.5012165385e+000,4.2617139348e+000,3.7472690300e+000,3.7479123824e+000,4.5640808865e+000,3.5101510771e+000,4.3140946676e+000,3.3502459342e+000,3.8078097375e+000,
8.1562500000e+000,4.2154181414e+000,4.8412763446e+000,3.8486637295e+000,4.0922754968e+000,4.7392237017e+000,4.4393343215e+000,4.3032095335e+000,3.7772971523e+000,3.7259002203e+000,4.6525055694e+000,3.5096059466e+000,4.3632630768e+000,3.2778100337e+000,3.7499428629e+000,
8.2500000000e+000,4.2240068769e+000,4.8857580226e+000,3.8988033690e+000,4.1459204877e+000,4.7304299133e+000,4.5224647883e+000,4.2559816022e+000,3.7901456194e+000,3.6990378997e+000,4.6013060041e+000,3.4872680252e+000,4.4178521686e+000,3.3475634468e+000,3.8476913352e+000,
8.3437500000e+000,4.3129286793e+000,4.9503918695e+000,3.9396279210e+000,4.1327458422e+000,4.7673599588e+000,4.5095799037e+000,4.2915963126e+000,3.8012983898e+000,3.7114952852e+000,4.6220661526e+000,3.4773600816e+000,4.4451955335e+000,3.3623174931e+000,3.9114500632e+000,
8.4375000000e+000,4.3150602908e+000,4.9622504615e+000,4.0364591375e+000,4.2776927034e+000,4.8702437705e+000,4.3700560492e+000,3.9815066176e+000,3.8171099560e+000,3.6628521598e+000,4.7614423198e+000,3.4999504702e+000,4.5750330059e+000,3.3732506937e+000,3.9741680412e+000,
8.5312500000e+000,4.4157980404e+000,5.0427568598e+000,4.1290130035e+000,4.3417296156e+000,4.9179601789e+000,4.3323364958e+000,4.1408212471e+000,3.8560634094e+000,3.5404004620e+000,4.7903647583e+000,3.5300121409e+000,4.5981517335e+000,3.3568967882e+000,4.0138490954e+000,
8.6250000000e+000,4.3996426404e+000,5.0732938279e+000,4.2067534912e+000,4.3951051763e+000,4.8994788397e+000,4.4462570340e+000,4.1733141526e+000,3.8514600203e+000,3.5653989094e+000,4.9228969545e+000,3.5493002191e+000,4.7509527802e+000,3.4381721853e+000,4.1026300139e+000,
8.7187500000e+000,4.2651015417e+000,4.9476525426e+000,4.1834379468e+000,4.3428026938e+000,4.8221881047e+000,4.4062230831e+000,4.2165207116e+000,3.8524304858e+000,3.6481252083e+000,5.0137102942e+000,3.6493845563e+000,4.8319971476e+000,3.5205423346e+000,4.1761041163e+000,
8.8125000000e+000,4.1037715077e+000,4.9019717244e+000,4.1360343984e+000,4.2804540977e+000,4.7153470803e+000,4.3615184690e+000,4.1825337218e+000,3.7379620097e+000,3.5683765293e+000,5.0875295373e+000,3.6419275019e+000,4.9000469370e+000,3.4236750698e+000,4.2674550444e+000,
8.9062500000e+000,4.0791499724e+000,4.8896665818e+000,4.0379421926e+000,4.1601711033e+000,4.6798204907e+000,4.4134723208e+000,4.2538200696e+000,3.7151225006e+000,3.4962253201e+000,5.3365880902e+000,3.6687668831e+000,5.0727830766e+000,3.2819417466e+000,4.2523617562e+000,
9.0000000000e+000,4.0520005351e+000,4.8693361563e+000,4.0885195841e+000,4.2310179739e+000,4.6609004639e+000,4.4613335551e+000,4.2771456490e+000,3.7987282252e+000,3.3960024982e+000,5.3962056052e+000,3.7091965613e+000,5.0905777434e+000,3.4016317207e+000,4.3211195563e+000,
9.0937500000e+000,4.0379588442e+000,4.7931118313e+000,4.0442738150e+000,4.1906089682e+000,4.6378259049e+000,4.4175731435e+000,4.3113141337e+000,3.7334561945e+000,3.3494441816e+000,5.3723696140e+000,3.6224090640e+000,5.0741429212e+000,3.4244640756e+000,4.3065463687e+000,
9.1875000000e+000,4.0052378546e+000,4.7829633506e+000,4.0090217558e+000,4.1262282152e+000,4.5938289872e+000,4.3505087316e+000,4.2453829543e+000,3.7263911985e+000,3.3211908734e+000,5.3773940363e+000,3.6806205148e+000,5.0661764690e+000,3.4016650695e+000,4.3010784222e+000,
9.2812500000e+000,4.0373750142e+000,4.8746739701e+000,4.0817386158e+000,4.2100550129e+000,4.6150601132e+000,4.4166313422e+000,4.3214088190e+000,3.7863545286e+000,3.3532867623e+000,5.3991777032e+000,3.7716084284e+000,5.0638663437e+000,3.3936794593e+000,4.2642551176e+000,
9.3750000000e+000,3.9958641457e+000,4.9090228977e+000,4.0449874914e+000,4.1376937872e+000,4.6293310861e+000,4.4652726277e+000,4.2719978306e+000,3.7182719127e+000,3.3898621513e+000,5.4311756381e+000,3.7730168035e+000,5.0756872300e+000,3.3675712030e+000,4.2294703977e+000,
9.4687500000e+000,3.7882722466e+000,4.8577396724e+000,3.9142073818e+000,3.9928953913e+000,4.4129457256e+000,4.3048927653e+000,4.2891443084e+000,3.6886601572e+000,3.4004943866e+000,5.3720461453e+000,3.8126266133e+000,5.0500648155e+000,3.2676846429e+000,4.1771969457e+000,
9.5625000000e+000,3.7291514157e+000,4.8779920227e+000,3.8835531995e+000,4.0548821280e+000,4.2040663818e+000,4.2607786560e+000,4.2775088179e+000,3.5544357265e+000,3.3515037315e+000,5.3586204153e+000,3.7613904835e+000,5.0401940446e+000,3.2483966368e+000,4.2320028060e+000,
9.6562500000e+000,3.6601934650e+000,4.8423731290e+000,3.9159927604e+000,4.1714189045e+000,4.2757021117e+000,4.2819608857e+000,4.2834601666e+000,3.6339883742e+000,3.2565197131e+000,5.4484490944e+000,3.8057552471e+000,5.0694707052e+000,3.2089435479e+000,4.2533169357e+000,
9.7500000000e+000,3.7106170337e+000,4.9443748568e+000,3.8968809773e+000,4.1621398394e+000,4.2678001095e+000,4.4308027424e+000,4.2980679978e+000,3.5863311505e+000,3.0729480878e+000,5.3368085866e+000,3.7903717141e+000,4.9863152696e+000,3.1496618143e+000,4.1865437377e+000,
9.8437500000e+000,3.7932878824e+000,4.9054560016e+000,3.9510219449e+000,4.1017216171e+000,4.3239996541e+000,4.4961143610e+000,4.3026234465e+000,3.4683583653e+000,3.2092790820e+000,5.2769656717e+000,3.8541605350e+000,4.9407143083e+000,3.1547825366e+000,4.1261500778e+000,
9.9375000000e+000,3.7513353861e+000,4.8728972449e+000,3.9788650111e+000,4.0856571524e+000,4.4029352778e+000,4.4374865885e+000,4.3146952707e+000,3.4611348504e+000,3.2782190980e+000,5.1627263618e+000,3.8652567718e+000,4.9145577747e+000,3.1732485193e+000,4.1895272515e+000,
1.0031250000e+001,3.8035661451e+000,4.8671928167e+000,3.8907134569e+000,4.0357859790e+000,4.3780621175e+000,4.3997071726e+000,4.2897117859e+000,3.3526401105e+000,3.2558547025e+000,5.1209001731e+000,3.8642424176e+000,4.8667933811e+000,3.1384673966e+000,4.1612525961e+000,
1.0125000000e+001,3.7928725795e+000,4.8567263335e+000,3.9184685788e+000,4.1624954064e+000,4.4438644950e+000,4.4472283929e+000,4.2826853105e+000,3.5682717353e+000,3.3323341718e+000,5.2797192685e+000,3.8335887775e+000,5.0213270339e+000,3.1742034154e+000,4.2003559141e+000,
1.0218750000e+001,3.8051605166e+000,4.8387931681e+000,3.9231987653e+000,4.2231618643e+000,4.5071229069e+000,4.4594425187e+000,4.3307021249e+000,3.6322564702e+000,3.4205660904e+000,5.2727072540e+000,3.7438315538e+000,5.0565448588e+000,3.1696844762e+000,4.1602156037e+000,
1.0312500000e+001,3.7645285176e+000,4.7391000422e+000,3.8819674569e+000,4.1274324150e+000,4.4251019258e+000,4.2794595521e+000,4.3076820957e+000,3.5941207811e+000,3.4287249653e+000,5.2520253636e+000,3.6965995580e+000,5.0830130625e+000,3.2627388891e+000,4.2465424182e+000,
1.0406250000e+001,3.7746828773e+000,4.6718721450e+000,3.8457467933e+000,4.1181681048e+000,4.3933494556e+000,4.3737105112e+000,4.3603364080e+000,3.6391772092e+000,3.3247544014e+000,5.2153262706e+000,3.7131292083e+000,5.1007144859e+000,3.3177356863e+000,4.2599488223e+000,
1.0500000000e+001,3.7579631975e+000,4.7153027670e+000,3.8067029360e+000,4.1452922088e+000,4.4333920947e+000,4.5474723660e+000,4.2219467035e+000,3.6641560370e+000,3.3225662881e+000,5.1938687365e+000,3.6955221892e+000,5.0664110211e+000,3.4732927778e+000,4.2921772097e+000,
1.0593750000e+001,3.7034362046e+000,4.7074064279e+000,3.6365479852e+000,3.9790209395e+000,4.4719298893e+000,4.5441078438e+000,4.2034749938e+000,3.7215336309e+000,3.3994470478e+000,5.2811413044e+000,3.6569878035e+000,5.0713928908e+000,3.4321582955e+000,4.1798738154e+000,
1.0687500000e+001,3.7092459119e+000,4.6721234654e+000,3.6060847591e+000,3.8797345112e+000,4.4932273269e+000,4.5840205031e+000,4.1778277599e+000,3.6619289537e+000,3.4138502727e+000,5.2468799686e+000,3.6046754660e+000,5.0688153184e+000,3.3951527726e+000,4.1890331463e+000,
1.0781250000e+001,3.7242286038e+000,4.6141653866e+000,3.6191845850e+000,3.9536045000e+000,4.5147930688e+000,4.5046508537e+000,4.1662529763e+000,3.7290906481e+000,3.5315833063e+000,5.3407319368e+000,3.5204125447e+000,5.0783542505e+000,3.4460130988e+000,4.1550399330e+000,
1.0875000000e+001,3.6455104375e+000,4.6176648044e+000,3.4356428612e+000,3.9209398078e+000,4.3071698438e+000,4.4697858664e+000,4.2142998904e+000,3.6332757043e+000,3.3519410925e+000,5.2977526608e+000,3.4446565124e+000,4.9812525268e+000,3.3230273187e+000,3.9905584693e+000,
1.0968750000e+001,3.6518627915e+000,4.6241773385e+000,3.4322212070e+000,3.9349459100e+000,4.2672747091e+000,4.4617062716e+000,4.1835279282e+000,3.6702520925e+000,3.4208913351e+000,5.3537897934e+000,3.3500252926e+000,5.0267512039e+000,3.3495872488e+000,4.0108948598e+000,
1.1062500000e+001,3.6377298204e+000,4.6267864089e+000,3.6140168482e+000,3.9861635889e+000,4.3212929333e+000,4.4926436773e+000,4.1403208893e+000,3.7019495976e+000,3.4110601235e+000,5.2976538592e+000,3.3832337347e+000,4.9831533344e+000,3.4474022194e+000,4.0882446060e+000,
1.1156250000e+001,3.6803241402e+000,4.6324794501e+000,3.4888107657e+000,3.8144804753e+000,4.2125633614e+000,4.4698651697e+000,4.1320258476e+000,3.5501933844e+000,3.4284054082e+000,5.2149318314e+000,3.4672158772e+000,4.8886888039e+000,3.5532498536e+000,4.0816543152e+000,
1.1250000000e+001,3.7426671143e+000,4.6291376967e+000,3.4140692821e+000,3.8260549322e+000,4.2222682230e+000,4.5090238903e+000,4.0771593419e+000,3.5649655557e+000,3.4980954592e+000,5.1544359391e+000,3.4959951434e+000,4.8032583544e+000,3.5407613278e+000,4.1621293699e+000,
1.1343750000e+001,3.5866829317e+000,4.5705775125e+000,3.3152062778e+000,3.7782224035e+000,4.1188052377e+000,4.4807540636e+000,3.9656761172e+000,3.4854410981e+000,3.5496948934e+000,5.1295384497e+000,3.4580311473e+000,4.6831935835e+000,3.4586567516e+000,4.0508230339e+000,
1.1437500000e+001,3.7481704219e+000,4.5865629163e+000,3.5110522811e+000,3.8582173902e+000,4.2319975285e+000,4.5876528718e+000,4.0202644434e+000,3.4902594755e+000,3.4899446298e+000,5.1317726267e+000,3.3789845992e+000,4.6722341577e+000,3.4349611622e+000,4.1203019638e+000,
1.1531250000e+001,3.8480180114e+000,4.4958772773e+000,3.5796784246e+000,3.7619227173e+000,4.2498965612e+000,4.5188670898e+000,4.0927623158e+000,3.3549603723e+000,3.5058426156e+000,5.0559513035e+000,3.3474689494e+000,4.5884413542e+000,3.3200277843e+000,4.1021908911e+000,
1.1625000000e+001,3.8380450921e+000,4.5363441257e+000,3.5806020120e+000,3.6843246952e+000,4.1209529746e+000,4.4217066401e+000,4.0919792517e+000,3.3362738350e+000,3.4088988018e+000,4.9354789859e+000,3.2716236993e+000,4.4839190547e+000,3.3435785376e+000,4.0692135152e+000,
1.1718750000e+001,3.9484204675e+000,4.4977916451e+000,3.6094983750e+000,3.6853756137e+000,4.1083014577e+000,4.4351242252e+000,4.1291797187e+000,3.3296079322e+000,3.5076080147e+000,4.9678311000e+000,3.2341367025e+000,4.4607592899e+000,3.2322768658e+000,3.9579221164e+000,
1.1812500000e+001,3.9061455711e+000,4.3866882895e+000,3.5677407783e+000,3.5950659524e+000,4.2312706563e+000,4.4143251346e+000,4.1418124398e+000,3.3373691695e+000,3.4955998336e+000,4.9202528374e+000,3.2678497083e+000,4.4713134072e+000,3.2742994078e+000,3.9744150577e+000,
1.1906250000e+001,3.9662664800e+000,4.3727107109e+000,3.5938689853e+000,3.6786765649e+000,4.2659865495e+000,4.4148298733e+000,4.0080231757e+000,3.4300674838e+000,3.4767243686e+000,4.8738701279e+000,3.2210135831e+000,4.4143454972e+000,3.3698404240e+000,3.9954092089e+000,
1.2000000000e+001,4.0559612146e+000,4.3508417651e+000,3.6203486319e+000,3.6613696696e+000,4.4003248745e+000,4.5412643036e+000,4.1898912152e+000,3.4547710044e+000,3.6192084446e+000,4.8786457092e+000,3.2072813543e+000,4.3198950273e+000,3.3669759726e+000,4.0238845368e+000,
1.2093750000e+001,3.9764622206e+000,4.5246780450e+000,3.5048400279e+000,3.6953416076e+000,4.3398822109e+000,4.5826597657e+000,4.2336463976e+000,3.3742027453e+000,3.5899081283e+000,5.0692863614e+000,3.1197444339e+000,4.4795964134e+000,3.2031648137e+000,3.9641058947e+000,
1.2187500000e+001,3.9494951958e+000,4.5462882604e+000,3.6054805710e+000,3.7872133324e+000,4.4856522757e+000,4.6423869541e+000,4.2722310476e+000,3.4874436664e+000,3.5387287944e+000,5.0410116696e+000,3.2330873712e+000,4.5094320020e+000,3.2625799998e+000,3.9887310362e+000,
1.2281250000e+001,3.9494623857e+000,4.5425650231e+000,3.6690196907e+000,3.8448772759e+000,4.5506709094e+000,4.6200450637e+000,4.2847490933e+000,3.5977601732e+000,3.4940348833e+000,5.0649831002e+000,3.2713936196e+000,4.5813780628e+000,3.3072237395e+000,3.9492377223e+000,
1.2375000000e+001,4.0245141647e+000,4.5280913919e+000,3.7307634834e+000,3.9438153321e+000,4.5579656900e+000,4.5870820612e+000,4.2541712491e+000,3.6562764831e+000,3.4716014045e+000,5.0523036863e+000,3.3444724911e+000,4.6132408063e+000,3.3752496666e+000,3.9968343151e+000,
1.2468750000e+001,3.7966938411e+000,4.5084323840e+000,3.6202567551e+000,3.8711359315e+000,4.4382028698e+000,4.4465296138e+000,4.1813224759e+000,3.6193170317e+000,3.4922525983e+000,5.0477875192e+000,3.4163667867e+000,4.5955554776e+000,3.3572120384e+000,3.9477177487e+000,
1.2562500000e+001,3.7432031706e+000,4.4559067166e+000,3.6475689645e+000,3.9596848389e+000,4.3807690479e+000,4.4179657607e+000,4.2507791033e+000,3.6535649660e+000,3.4652558998e+000,5.0972729529e+000,3.4074566794e+000,4.7305935467e+000,3.3434171036e+000,4.0936167648e+000,
1.2656250000e+001,3.6773371984e+000,4.4673667120e+000,3.6726435371e+000,3.9903018657e+000,4.3987217614e+000,4.4228417377e+000,4.2384717245e+000,3.6223886594e+000,3.4238344204e+000,5.0903970458e+000,3.4625955221e+000,4.7166113709e+000,3.2940635234e+000,4.0801239197e+000,
1.2750000000e+001,3.6340395570e+000,4.4962442472e+000,3.6747300916e+000,4.0305287415e+000,4.3902562698e+000,4.2712760438e+000,4.1796023680e+000,3.6757521401e+000,3.3956676567e+000,4.9890606389e+000,3.5128791464e+000,4.6787247841e+000,3.3345853744e+000,4.1289553908e+000,
1.2843750000e+001,3.7133225502e+000,4.5058449752e+000,3.7558461179e+000,4.0798730745e+000,4.2420291934e+000,4.3646313769e+000,4.2564308031e+000,3.7808007293e+000,3.4738369949e+000,5.0831723182e+000,3.5388606285e+000,4.7934632798e+000,3.3278351021e+000,4.1597354518e+000,
1.2937500000e+001,3.6463998208e+000,4.5169600791e+000,3.7379924145e+000,4.0442903528e+000,4.2174538610e+000,4.2978003225e+000,4.1341039549e+000,3.7682618540e+000,3.4386937825e+000,5.0807836712e+000,3.5837295091e+000,4.7801213198e+000,3.3949276048e+000,4.1563240632e+000,
1.3031250000e+001,3.6175209753e+000,4.4845256317e+000,3.7695446613e+000,4.0945072594e+000,4.0732904427e+000,4.2198178917e+000,4.1254089892e+000,3.9057156222e+000,3.4056500655e+000,5.0427318895e+000,3.5373367960e+000,4.7828624974e+000,3.4030623598e+000,4.1630230141e+000,
1.3125000000e+001,3.6346415889e+000,4.2316473373e+000,3.7359193644e+000,4.0025437816e+000,4.1395495574e+000,4.1183425858e+000,4.1259666169e+000,3.8756717959e+000,3.5011163154e+000,4.9075365397e+000,3.5257523393e+000,4.6859263445e+000,3.4805630231e+000,4.1471354926e+000,
1.3218750000e+001,3.6888566383e+000,4.2451520006e+000,3.7457469985e+000,4.0342287833e+000,3.9363803855e+000,4.1042462651e+000,4.0772133445e+000,3.8995345550e+000,3.5546787242e+000,4.9777460077e+000,3.4305302100e+000,4.6921531880e+000,3.4383085727e+000,4.1840696683e+000,
1.3312500000e+001,3.7254080755e+000,4.2458500190e+000,3.7538407424e+000,3.9691522699e+000,3.8724995898e+000,4.1336153856e+000,4.1118524527e+000,3.8325147709e+000,3.5596153458e+000,4.9946466061e+000,3.5350741957e+000,4.6749948577e+000,3.3557611987e+000,4.1514135832e+000,
1.3406250000e+001,3.7454054152e+000,4.3330000274e+000,3.7671925632e+000,4.1007711581e+000,4.0371372962e+000,4.1786168104e+000,4.1097664513e+000,3.8610562416e+000,3.5772175959e+000,4.9483777772e+000,3.5000889854e+000,4.6812740409e+000,3.2917864554e+000,4.1322222316e+000,
1.3500000000e+001,3.8812220476e+000,4.6520919313e+000,3.7556623207e+000,4.2613298980e+000,4.2824908789e+000,4.3170315374e+000,3.9841194280e+000,3.9029198727e+000,3.6028993431e+000,4.9516537085e+000,3.4852413582e+000,4.6711432977e+000,3.3726502374e+000,4.0975863211e+000,
1.3593750000e+001,3.9046360134e+000,4.7124824229e+000,3.8135873602e+000,4.3033840676e+000,4.3113074715e+000,4.3918206168e+000,4.0659996258e+000,3.9125721975e+000,3.5594856033e+000,4.9665692096e+000,3.4494913360e+000,4.5883784133e+000,3.3560550848e+000,3.9775534278e+000,
1.3687500000e+001,3.9694620495e+000,4.6411482566e+000,3.7928634965e+000,4.3055317644e+000,4.4013693331e+000,4.5281078357e+000,4.1314713742e+000,3.8997948765e+000,3.5027780108e+000,4.9651402273e+000,3.3753972220e+000,4.6574808329e+000,3.4012682807e+000,4.0480928642e+000,
1.3781250000e+001,3.9029168091e+000,4.6572456944e+000,3.7267523449e+000,4.2599333019e+000,4.3979122514e+000,4.5895324846e+000,4.1882461174e+000,3.8174251059e+000,3.4092035655e+000,4.8004383328e+000,3.4109493263e+000,4.3904239980e+000,3.3562302562e+000,3.8633821182e+000,
1.3875000000e+001,3.7940527798e+000,4.6552609006e+000,3.6423299759e+000,4.2506921106e+000,4.4078029996e+000,4.6011157835e+000,4.0446695233e+000,3.8366549706e+000,3.3599818620e+000,4.8246755460e+000,3.4475640582e+000,4.3653006108e+000,3.3672867479e+000,3.8151458209e+000,
1.3968750000e+001,3.8356202191e+000,4.8067374999e+000,3.7038704180e+000,4.3215189468e+000,4.4507972602e+000,4.6511250218e+000,4.1394039413e+000,3.8638920746e+000,3.4359343633e+000,4.8425503847e+000,3.4380519329e+000,4.2886155955e+000,3.2186662993e+000,3.7396284205e+000,
1.4062500000e+001,3.8939372046e+000,4.8391060336e+000,3.7340675151e+000,4.3592675518e+000,4.5391381237e+000,4.7019353670e+000,4.1802300837e+000,3.7914108923e+000,3.4254843129e+000,4.7682847764e+000,3.5372317825e+000,4.2000319756e+000,3.2094570168e+000,3.7576889823e+000,
1.4156250000e+001,3.9496826454e+000,4.9004520162e+000,3.7597945170e+000,4.4102398681e+000,4.5649664694e+000,4.7100440062e+000,4.2668320718e+000,3.8053400912e+000,3.3732096786e+000,4.7376822488e+000,3.6089361365e+000,4.2316164518e+000,3.1336512687e+000,3.7875752695e+000,
1.4250000000e+001,3.9497022951e+000,4.8417849852e+000,3.7401345975e+000,4.3613303142e+000,4.6086920490e+000,4.7030820261e+000,4.2973913084e+000,3.8001734767e+000,3.2795830406e+000,4.7762458268e+000,3.6512367031e+000,4.1295301278e+000,3.0721211678e+000,3.7941344806e+000,
1.4343750000e+001,4.1968177976e+000,4.9155329365e+000,3.7449823463e+000,4.3990791195e+000,4.7851932257e+000,4.8974090348e+000,4.3494840822e+000,3.8120369055e+000,3.3614041041e+000,4.7923807901e+000,3.7431018249e+000,4.0751417435e+000,3.1114502152e+000,3.8220295578e+000,
1.4437500000e+001,4.1921446115e+000,4.9630671892e+000,3.7677413961e+000,4.3481760018e+000,4.7581989344e+000,4.9080496634e+000,4.3917834164e+000,3.8825243779e+000,3.3925636936e+000,4.8559626054e+000,3.7513862219e+000,4.0866977420e+000,3.1204516974e+000,3.7955828878e+000,
1.4531250000e+001,4.1808290269e+000,4.7147749311e+000,3.7552641036e+000,4.2083752750e+000,4.6907127873e+000,4.8817630501e+000,4.4176009614e+000,3.9134348331e+000,3.5182482950e+000,4.9234108120e+000,3.7501564055e+000,4.1672435611e+000,3.2414011583e+000,3.8337573032e+000,
1.4625000000e+001,4.1335253953e+000,4.7115058561e+000,3.7493513598e+000,4.1950388793e+000,4.6137338121e+000,4.8886212897e+000,4.3477373602e+000,3.9413135517e+000,3.5288063857e+000,4.8878756902e+000,3.7365189916e+000,4.1385799131e+000,3.3720310460e+000,3.8247273423e+000,
1.4718750000e+001,4.1248940493e+000,4.7978411814e+000,3.7809914124e+000,4.2634934400e+000,4.5762757656e+000,4.8051029905e+000,4.2198886299e+000,3.9995310952e+000,3.5307104249e+000,4.9649159684e+000,3.7680747744e+000,4.2496031584e+000,3.3726159214e+000,3.8807928819e+000,
1.4812500000e+001,4.1214996463e+000,4.7589166995e+000,3.7848915821e+000,4.2587995944e+000,4.5352919188e+000,4.7245659797e+000,4.1889034727e+000,3.9388825105e+000,3.4774854552e+000,5.0547849795e+000,3.6065496156e+000,4.3789792618e+000,3.3216088449e+000,3.9373293132e+000,
1.4906250000e+001,4.1396766376e+000,4.8120182577e+000,3.8411710130e+000,4.2815719560e+000,4.5171185653e+000,4.7242647027e+000,4.1819441620e+000,3.8662805353e+000,3.3527498990e+000,4.9578761242e+000,3.5708250172e+000,4.4164248793e+000,3.3846683679e+000,3.9716702328e+000,
1.5000000000e+001,4.0933432243e+000,4.7277750242e+000,3.7888672120e+000,4.2146492226e+000,4.4975544358e+000,4.7185204074e+000,4.0877643933e+000,3.8564854264e+000,3.3648273752e+000,4.9439581528e+000,3.5400688039e+000,4.4762479854e+000,3.4155768532e+000,4.0294494312e+000,
1.5093750000e+001,4.1020673808e+000,4.7304773396e+000,3.8237015681e+000,4.2249792783e+000,4.4427326754e+000,4.7353393047e+000,4.0389974260e+000,3.9098051808e+000,3.3742592601e+000,5.0912051424e+000,3.4796940779e+000,4.5606177235e+000,3.5347605673e+000,4.0225915013e+000,
1.5187500000e+001,4.0646646335e+000,4.7691573211e+000,3.8566101569e+000,4.2867680556e+000,4.3874578230e+000,4.7232370282e+000,3.9317236832e+000,4.0121174187e+000,3.3414147551e+000,5.1564163969e+000,3.3916419917e+000,4.6165816116e+000,3.6420548956e+000,4.0592095061e+000,
1.5281250000e+001,4.0409822788e+000,4.7972717615e+000,3.8846406962e+000,4.2840563504e+000,4.3449748932e+000,4.7356694892e+000,3.9228759072e+000,3.9129323682e+000,3.2072680739e+000,5.0834592825e+000,3.3338128337e+000,4.5620847865e+000,3.6071287063e+000,3.9532931319e+000,
1.5375000000e+001,3.7012016709e+000,4.7114869491e+000,3.8219628660e+000,4.2306132097e+000,4.1719168237e+000,4.5604767931e+000,3.7888272352e+000,3.9265112156e+000,3.3194270923e+000,5.0615977676e+000,3.0904867177e+000,4.5919947668e+000,3.6722115647e+000,4.0130467155e+000,
1.5468750000e+001,3.7899609927e+000,4.7430592445e+000,3.9102588550e+000,4.2840093987e+000,4.2395391165e+000,4.6832018951e+000,3.7892490116e+000,3.8420333641e+000,3.2951260175e+000,5.1298682486e+000,3.1176235200e+000,4.6562636080e+000,3.7012019188e+000,4.1630198127e+000,
1.5562500000e+001,3.7787767693e+000,4.7491948418e+000,3.8953747823e+000,4.2305527872e+000,4.1814488006e+000,4.6095307557e+000,3.8218011143e+000,3.7933712270e+000,3.3165833363e+000,5.1307988220e+000,3.2160813778e+000,4.6591881700e+000,3.6503770694e+000,4.1833064567e+000,
1.5656250000e+001,3.8431845335e+000,4.6536506133e+000,3.8806137451e+000,4.1808947176e+000,4.1912796827e+000,4.5790032553e+000,3.8593992331e+000,3.7578506125e+000,3.2926016934e+000,5.1358178156e+000,3.2169110597e+000,4.7109394640e+000,3.5275141746e+000,4.1710343677e+000,
1.5750000000e+001,3.9075006840e+000,4.6126456998e+000,3.9480961073e+000,4.2175526280e+000,4.2680362143e+000,4.5384371776e+000,3.9522954949e+000,3.7969061562e+000,3.4034065559e+000,5.0810801554e+000,3.1399282220e+000,4.6784470938e+000,3.5176205007e+000,4.1623026317e+000,
1.5843750000e+001,3.8794125330e+000,4.5801980870e+000,3.9928080553e+000,4.2203026038e+000,4.3175197184e+000,4.5939624267e+000,3.9908888710e+000,3.8002870289e+000,3.4999869503e+000,5.0175576302e+000,3.2588758363e+000,4.6521327043e+000,3.4675645369e+000,4.1635763785e+000,
1.5937500000e+001,3.8986764668e+000,4.6061648118e+000,3.9590869295e+000,4.2064231061e+000,4.3502843431e+000,4.6453172169e+000,4.0403852122e+000,3.8280364689e+000,3.5535960002e+000,5.0579650135e+000,3.3630246319e+000,4.7016796042e+000,3.4401378623e+000,4.1959415095e+000,
1.6031250000e+001,3.8942546608e+000,4.6182246493e+000,3.9445117354e+000,4.2012837586e+000,4.3220380196e+000,4.6007055000e+000,4.0723452447e+000,3.7630290974e+000,3.5548551706e+000,5.0519824117e+000,3.4055005386e+000,4.6968074371e+000,3.3796072257e+000,4.2341647545e+000,
1.6125000000e+001,3.8544440762e+000,4.5493508608e+000,3.9323006933e+000,4.0930390166e+000,4.3888154762e+000,4.4624520655e+000,4.1044135271e+000,3.5790769692e+000,3.5471905120e+000,4.7971610828e+000,3.3983882410e+000,4.5794871266e+000,3.1375895681e+000,4.1512101801e+000,
1.6218750000e+001,3.8433351722e+000,4.7911836824e+000,3.8606571841e+000,4.0323367886e+000,4.3722862745e+000,4.5285390562e+000,4.2042980865e+000,3.4841351758e+000,3.6259814403e+000,4.8317695972e+000,3.4721511974e+000,4.5955482266e+000,3.1305282980e+000,4.1878057467e+000,
1.6312500000e+001,3.8528503474e+000,4.7604255556e+000,3.8687544205e+000,4.0202505993e+000,4.3384912985e+000,4.5420137511e+000,4.2235369881e+000,3.5137787219e+000,3.6805916910e+000,4.9082432750e+000,3.4740086833e+000,4.6713575494e+000,3.0096962626e+000,4.2191126834e+000,
1.6406250000e+001,3.8462305372e+000,4.7336894784e+000,3.8675641905e+000,3.9967453896e+000,4.2210460954e+000,4.4886014667e+000,4.2909418347e+000,3.4760215855e+000,3.6437826624e+000,4.9235557254e+000,3.3720129625e+000,4.6897827072e+000,2.9435658551e+000,4.1719734773e+000,
1.6500000000e+001,3.7823126194e+000,4.6640505204e+000,3.6476272852e+000,3.8859751882e+000,4.2227861891e+000,4.3101268998e+000,4.2131168506e+000,3.3384511731e+000,3.5309151644e+000,4.7907669815e+000,3.4208301551e+000,4.6501050215e+000,2.7607597168e+000,4.0382691151e+000,
1.6593750000e+001,3.6903599311e+000,4.7462410135e+000,3.6226847949e+000,3.7753388226e+000,4.1952581911e+000,4.2556180229e+000,4.1925622929e+000,3.3174864681e+000,3.5018755143e+000,4.8205608868e+000,3.3905270451e+000,4.5405625009e+000,2.7548488440e+000,3.9909407218e+000,
1.6687500000e+001,3.6304457780e+000,4.7395585085e+000,3.5464371500e+000,3.7672207883e+000,4.1209545500e+000,4.3528291675e+000,4.1116296263e+000,3.3791348424e+000,3.5119397724e+000,4.9028034354e+000,3.4268757214e+000,4.5442976499e+000,2.7477650800e+000,3.9816557063e+000,
1.6781250000e+001,3.6030702094e+000,4.8804068228e+000,3.4362065410e+000,3.7824286360e+000,4.2781256628e+000,4.4149271711e+000,4.1242362505e+000,3.3374386558e+000,3.4691808313e+000,4.9143478013e+000,3.3867015509e+000,4.5990667589e+000,2.8287078211e+000,4.0003055249e+000,
1.6875000000e+001,3.6491740054e+000,4.8935487098e+000,3.3930533113e+000,3.6861534537e+000,4.3244184713e+000,4.4402023838e+000,4.2023142084e+000,3.3482034754e+000,3.3655335712e+000,4.9632450900e+000,3.3621089707e+000,4.5619412508e+000,2.8170873063e+000,3.9437102133e+000,
1.6968750000e+001,3.7792331199e+000,4.9361479630e+000,3.4683264269e+000,3.7591128478e+000,4.3736900168e+000,4.3433318206e+000,4.2880965759e+000,3.4107763256e+000,3.4179490999e+000,4.9231269338e+000,3.4440127768e+000,4.5819192906e+000,2.9456896582e+000,3.9086442691e+000,
1.7062500000e+001,3.7763896130e+000,4.9430465768e+000,3.4643949332e+000,3.7358990275e+000,4.3797297173e+000,4.3858088062e+000,4.1950410779e+000,3.4185248207e+000,3.4465311574e+000,4.9626907423e+000,3.5745012313e+000,4.6386641324e+000,3.0508398341e+000,3.9674683843e+000,
1.7156250000e+001,3.7019658477e+000,4.7317524985e+000,3.4768242778e+000,3.7011159516e+000,4.2440356098e+000,4.3531139958e+000,4.1288754818e+000,3.3914586421e+000,3.4309259431e+000,4.9679467564e+000,3.4662818310e+000,4.6818538725e+000,3.0675146762e+000,3.9724701606e+000,
1.7250000000e+001,3.7152702075e+000,4.7075074017e+000,3.4042982885e+000,3.6530895203e+000,4.2218992762e+000,4.3125169691e+000,4.0597434650e+000,3.4608486510e+000,3.3975628106e+000,5.0067199195e+000,3.5427052180e+000,4.6606280266e+000,3.0671582866e+000,3.9131762239e+000,
1.7343750000e+001,3.8846046134e+000,4.7486564984e+000,3.5768791258e+000,3.7566961161e+000,4.3638084266e+000,4.3418415949e+000,4.1405064204e+000,3.6046253129e+000,3.5509940265e+000,5.1099049528e+000,3.5189946990e+000,4.6957312787e+000,3.0746502525e+000,3.9535352209e+000,
1.7437500000e+001,4.0284912972e+000,4.8976288498e+000,3.7172182297e+000,3.9652311165e+000,4.5039315687e+000,4.5728376922e+000,4.1597271256e+000,3.6660084875e+000,3.5313256904e+000,5.1650761146e+000,3.5289367163e+000,4.8117835922e+000,3.2297265371e+000,4.1050620935e+000,
1.7531250000e+001,3.9464496512e+000,4.7127332780e+000,3.6719677350e+000,3.9153103970e+000,4.4816742347e+000,4.4788986032e+000,4.2198704387e+000,3.6506930615e+000,3.5270162454e+000,5.0846078386e+000,3.4891255277e+000,4.7628747480e+000,3.1602532993e+000,4.0520800260e+000,
1.7625000000e+001,3.9915903516e+000,4.7236937487e+000,3.7205469526e+000,3.9914258677e+000,4.5113006171e+000,4.4907983655e+000,4.2351844972e+000,3.7085475389e+000,3.6220957618e+000,4.9212297342e+000,3.4907918377e+000,4.6795741783e+000,3.3405619454e+000,3.9893443175e+000,
1.7718750000e+001,3.9704131926e+000,4.6929370446e+000,3.8615589901e+000,4.0361146502e+000,4.4742909482e+000,4.3820948480e+000,4.2252452339e+000,3.6915788386e+000,3.6592567106e+000,4.9345210868e+000,3.4335597494e+000,4.6735276652e+000,3.3977476350e+000,3.9854018848e+000,
1.7812500000e+001,3.9988223137e+000,4.6169107657e+000,3.7894621161e+000,3.9991065364e+000,4.4712889094e+000,4.3300446627e+000,4.1537137601e+000,3.6394847866e+000,3.6264924482e+000,4.8957892330e+000,3.4557829382e+000,4.6026104281e+000,3.3976889880e+000,3.9988951088e+000,
1.7906250000e+001,3.9919489816e+000,4.6512284775e+000,3.9405812405e+000,4.1736847595e+000,4.4314251577e+000,4.3294196897e+000,4.1382994436e+000,3.8144279878e+000,3.6566581899e+000,4.9344373108e+000,3.4660405243e+000,4.6464749410e+000,3.4587803699e+000,4.0415275255e+000,
1.8000000000e+001,3.8496071701e+000,4.5375999108e+000,3.9212388957e+000,4.1257672619e+000,4.3371060529e+000,4.3171094264e+000,4.0841521615e+000,3.7537381104e+000,3.6372547604e+000,4.9628696133e+000,3.4130597879e+000,4.5777784608e+000,3.4741606774e+000,3.9214942664e+000,
1.8093750000e+001,3.9041151842e+000,4.4946028128e+000,3.9387822825e+000,4.1769181547e+000,4.4432455004e+000,4.2643098549e+000,4.2112483088e+000,3.8300929962e+000,3.6802107362e+000,5.0435730245e+000,3.3621348915e+000,4.6974990114e+000,3.4046562686e+000,3.9914412948e+000,
1.8187500000e+001,4.0021577187e+000,4.4788429394e+000,3.9825243420e+000,4.3031890780e+000,4.4881068728e+000,4.2723955393e+000,4.2123025981e+000,3.9298088943e+000,3.7000747627e+000,5.0237164668e+000,3.3874359279e+000,4.7319243290e+000,3.4363113424e+000,3.9855691548e+000,
1.8281250000e+001,4.0115148216e+000,4.5007333675e+000,4.0020682691e+000,4.3234249808e+000,4.4887886016e+000,4.2684818300e+000,4.1538673193e+000,3.9102610741e+000,3.6841007794e+000,4.9679200255e+000,3.3403188470e+000,4.7380059403e+000,3.4346530235e+000,4.0251826728e+000,
1.8375000000e+001,3.8717704531e+000,4.5909358215e+000,3.8461408447e+000,4.1630273014e+000,4.4232723070e+000,4.1973174842e+000,4.0252585074e+000,3.7713062599e+000,3.5848740547e+000,4.7557344652e+000,3.3301507226e+000,4.5709893948e+000,3.4623946093e+000,3.9375473823e+000,
1.8468750000e+001,3.7818232151e+000,4.4882307662e+000,3.7582779399e+000,4.0807640395e+000,4.3594973637e+000,3.9888089560e+000,3.9710079831e+000,3.7075127135e+000,3.5986589594e+000,4.6298267627e+000,3.2694114021e+000,4.4567200140e+000,3.3869057999e+000,3.8391154918e+000,
1.8562500000e+001,3.8451205796e+000,4.4450500736e+000,3.7806302119e+000,4.0920979509e+000,4.2891204123e+000,3.9594133920e+000,3.8444251026e+000,3.7629533934e+000,3.5037699985e+000,4.6964884581e+000,3.3639871092e+000,4.5577857477e+000,3.3091427201e+000,3.8643510382e+000,
1.8656250000e+001,3.7910768876e+000,4.4430620754e+000,3.7155834721e+000,4.0490599990e+000,4.2955333295e+000,3.9858201339e+000,3.8808112770e+000,3.6874819103e+000,3.4796380465e+000,4.7028540822e+000,3.5096004022e+000,4.5237239979e+000,3.2893322164e+000,3.9954775050e+000,
1.8750000000e+001,3.7992261042e+000,4.3496347907e+000,3.6635415163e+000,4.0489909252e+000,4.2348972191e+000,4.0124384108e+000,3.9112543796e+000,3.7308671984e+000,3.5234364576e+000,4.8210461882e+000,3.5556032222e+000,4.6392088368e+000,3.1447367861e+000,4.0238346688e+000,
1.8843750000e+001,3.7505012710e+000,4.4259800973e+000,3.7629493627e+000,4.0538096856e+000,4.1992087718e+000,4.1102207402e+000,3.9130616211e+000,3.8102368531e+000,3.6303541301e+000,4.9048312680e+000,3.5248284392e+000,4.7735903610e+000,3.2379156829e+000,4.0779587498e+000,
1.8937500000e+001,3.6789758597e+000,4.3660095884e+000,3.5040071387e+000,3.8602390148e+000,4.2208093210e+000,4.1031649852e+000,3.9101361902e+000,3.7114311605e+000,3.6295223123e+000,4.8615095564e+000,3.5033195093e+000,4.8216494071e+000,3.0910216737e+000,4.1058777217e+000,
1.9031250000e+001,3.6735865009e+000,4.5906115341e+000,3.4496176602e+000,3.8854105693e+000,4.1316239335e+000,4.1274015480e+000,3.9990250883e+000,3.6717409149e+000,3.5721022348e+000,4.8377181096e+000,3.5252604846e+000,4.7992413475e+000,3.0888113595e+000,4.0590551621e+000,
1.9125000000e+001,3.5832538015e+000,4.6101443894e+000,3.3261711175e+000,3.7310647852e+000,4.1332031907e+000,4.0865764159e+000,3.9204405858e+000,3.5034285325e+000,3.5523408578e+000,4.7203689029e+000,3.4161506317e+000,4.6481274828e+000,3.1046605728e+000,4.0133547428e+000,
1.9218750000e+001,3.4968966029e+000,4.6312122751e+000,3.3459036893e+000,3.8053453896e+000,4.1806666887e+000,4.0101247900e+000,3.9970423865e+000,3.6091626907e+000,3.5317036009e+000,4.8101532554e+000,3.3845471483e+000,4.6562834349e+000,3.1174704869e+000,4.0519828939e+000,
1.9312500000e+001,3.4667756244e+000,4.5509608652e+000,3.3364913084e+000,3.8309633799e+000,4.1196423024e+000,4.0090852811e+000,3.9925206130e+000,3.6092049254e+000,3.4938291638e+000,4.8080396771e+000,3.3554008514e+000,4.6845758980e+000,3.2318398392e+000,4.0601601745e+000,
1.9406250000e+001,3.3187045373e+000,4.5177319920e+000,3.3225306410e+000,3.7807336317e+000,3.9579211133e+000,3.9927881897e+000,3.9717297461e+000,3.5999861848e+000,3.5333553349e+000,4.8088614691e+000,3.4881713326e+000,4.6312856926e+000,3.2557454578e+000,4.0116336003e+000,
1.9500000000e+001,3.4625619314e+000,4.6765172144e+000,3.3542371342e+000,3.9257465602e+000,4.1158418667e+000,4.0692393180e+000,4.1037360351e+000,3.6386501557e+000,3.5508941293e+000,4.9059602030e+000,3.4829302284e+000,4.7145060586e+000,3.2749221182e+000,4.1655222861e+000,
1.9593750000e+001,3.3505002858e+000,4.7749266918e+000,3.3663494632e+000,3.8959843658e+000,4.1213765159e+000,4.0894232575e+000,4.1416615868e+000,3.6163552719e+000,3.5777534611e+000,4.8687520400e+000,3.5565010794e+000,4.7104294302e+000,3.2527296751e+000,4.1129968973e+000,
1.9687500000e+001,3.2927604783e+000,4.7815501254e+000,3.3372689269e+000,3.8865023666e+000,4.0761068831e+000,4.1505741371e+000,4.1734056924e+000,3.6481892482e+000,3.5974058652e+000,4.8720920493e+000,3.4834239639e+000,4.7397585333e+000,3.2154591352e+000,3.9810441017e+000,
1.9781250000e+001,3.2944478830e+000,4.7783527810e+000,3.2389527549e+000,3.8322623242e+000,4.0654496858e+000,4.1910400223e+000,4.1215691848e+000,3.6414566126e+000,3.5069616297e+000,4.8785196531e+000,3.4140685522e+000,4.6512043990e+000,3.1350005717e+000,3.9396703836e+000,
1.9875000000e+001,3.2593371962e+000,4.7249141800e+000,3.1237487352e+000,3.7563002320e+000,3.9314892172e+000,4.0839659501e+000,4.1484211869e+000,3.5009111309e+000,3.3899206152e+000,4.7264646645e+000,3.4032261371e+000,4.4018418778e+000,3.0892603277e+000,3.7915715924e+000,
1.9968750000e+001,3.1992578664e+000,4.6184881976e+000,3.1379661551e+000,3.6774263217e+000,3.8806531100e+000,4.0658107231e+000,4.0059351211e+000,3.3893597973e+000,3.2977123672e+000,4.8107025300e+000,3.2860089233e+000,4.4564041796e+000,3.0875188399e+000,3.7969229076e+000,
2.0062500000e+001,3.2260971662e+000,4.5220421356e+000,3.3002971579e+000,3.7637266658e+000,3.9000065647e+000,4.1217885181e+000,3.9201387045e+000,3.4548344680e+000,3.3014150509e+000,4.8425194412e+000,3.2866356926e+000,4.4713643481e+000,3.1310595746e+000,3.8607777312e+000,
2.0156250000e+001,3.1346245125e+000,4.4622464524e+000,3.2557559666e+000,3.7061877076e+000,3.8653662480e+000,4.1700770340e+000,3.7741945059e+000,3.4676461077e+000,3.3038710327e+000,4.9055418708e+000,3.3446924052e+000,4.5639315427e+000,3.0389895602e+000,3.8145054417e+000,
2.0250000000e+001,3.2046289486e+000,4.5011376172e+000,3.2816074499e+000,3.6712563801e+000,3.8663752162e+000,4.2175590734e+000,3.8591814083e+000,3.4558818734e+000,3.3369477975e+000,4.8558603885e+000,3.4506352366e+000,4.5076694921e+000,2.9325233187e+000,3.7541408411e+000,
2.0343750000e+001,3.3101024535e+000,4.5388689908e+000,3.3584472441e+000,3.7422159484e+000,3.9863917635e+000,4.2633055541e+000,3.9637625900e+000,3.4851169095e+000,3.3648825789e+000,4.9861881407e+000,3.4259570988e+000,4.6322405980e+000,2.9057880941e+000,3.7774656795e+000,
2.0437500000e+001,3.1747260640e+000,4.3654980437e+000,3.4564661437e+000,3.7696969799e+000,3.9879434582e+000,4.2607362227e+000,3.9602637605e+000,3.4949397481e+000,3.2894355116e+000,5.0675078245e+000,3.3560716701e+000,4.6761156604e+000,2.7625956537e+000,3.7178822532e+000,
2.0531250000e+001,3.2060120070e+000,4.1709663691e+000,3.4136711336e+000,3.5827031337e+000,3.8542669226e+000,4.1402262776e+000,3.9260247086e+000,3.4609463449e+000,3.3266712025e+000,5.0269697857e+000,3.2059805989e+000,4.6423569710e+000,2.7025929791e+000,3.6420683351e+000,
2.0625000000e+001,3.3539688928e+000,4.0756817208e+000,3.4894833754e+000,3.6776697070e+000,3.8784129683e+000,4.2424761432e+000,3.9293497494e+000,3.3994419898e+000,3.2795348901e+000,5.0076282250e+000,3.2100684636e+000,4.6043636391e+000,2.5956303603e+000,3.6697459819e+000,
2.0718750000e+001,3.4676574890e+000,4.0891817220e+000,3.5350526138e+000,3.6590757922e+000,3.9480935584e+000,4.1817511824e+000,3.9445599480e+000,3.2698534342e+000,3.2933972507e+000,4.9025506187e+000,3.2231884811e+000,4.5107829074e+000,2.6107952826e+000,3.6671921996e+000,
2.0812500000e+001,3.5351594505e+000,4.2243290929e+000,3.6862483328e+000,3.8072013543e+000,4.0658158606e+000,4.2099671450e+000,3.9345673979e+000,3.4374993744e+000,3.3184799977e+000,4.8437894363e+000,3.1901716582e+000,4.5328305403e+000,2.6072258100e+000,3.7369104248e+000,
2.0906250000e+001,3.6010569276e+000,4.2688162677e+000,3.7011590488e+000,3.8100535999e+000,4.2086876731e+000,4.3190698524e+000,3.9965272395e+000,3.5769144731e+000,3.5285130545e+000,4.9134466333e+000,3.2127222956e+000,4.6218687487e+000,2.5912367425e+000,3.7530672707e+000,
2.1000000000e+001,3.7262176395e+000,4.2606003147e+000,3.8178280465e+000,3.8998415803e+000,4.3117624054e+000,4.3358818764e+000,4.0083517374e+000,3.6424666609e+000,3.5749165310e+000,4.8809362955e+000,3.2785427791e+000,4.6010115192e+000,2.6398306497e+000,3.8276503154e+000,
2.1093750000e+001,3.7480455900e+000,4.3748742242e+000,3.8456780030e+000,3.8695642486e+000,4.3466651968e+000,4.3846882001e+000,4.1069723731e+000,3.5739012191e+000,3.5567486537e+000,4.9121004891e+000,3.2458952146e+000,4.5080104399e+000,2.6161386606e+000,3.7664635428e+000,
2.1187500000e+001,3.6996013801e+000,4.3153368663e+000,3.8033467999e+000,3.7464634210e+000,4.2253683812e+000,4.3554395627e+000,4.1076323925e+000,3.5207794234e+000,3.5514346547e+000,4.8347603875e+000,3.3212055067e+000,4.4344787437e+000,2.5512515931e+000,3.6674315318e+000,
2.1281250000e+001,3.7569834070e+000,4.3369434562e+000,3.8093565538e+000,3.8366261242e+000,4.2260659797e+000,4.3737373158e+000,4.0250867636e+000,3.5952182807e+000,3.4617807329e+000,4.8368979421e+000,3.2880065819e+000,4.4180958869e+000,2.6775544756e+000,3.7316755476e+000,
2.1375000000e+001,3.7745895855e+000,4.3860015787e+000,3.7617677282e+000,3.8167226918e+000,4.1201515179e+000,4.4115928438e+000,3.9862621252e+000,3.6106044555e+000,3.6098815890e+000,4.7815758363e+000,3.3802371215e+000,4.4042886859e+000,2.6912934526e+000,3.7750593406e+000,
2.1468750000e+001,3.8168824574e+000,4.4346627469e+000,3.8293767358e+000,3.8890362611e+000,4.1478145329e+000,4.3831679898e+000,3.9267984907e+000,3.6853423897e+000,3.6449941818e+000,4.7724376129e+000,3.3162366430e+000,4.3695104754e+000,2.8492173484e+000,3.7293801295e+000,
2.1562500000e+001,3.8232741504e+000,4.4584179750e+000,3.8455782436e+000,3.9010164387e+000,4.2356387907e+000,4.3710727298e+000,3.9422465741e+000,3.6504894337e+000,3.6450306468e+000,4.6850151156e+000,3.1982036807e+000,4.2808695505e+000,2.9385824642e+000,3.6825699424e+000,
2.1656250000e+001,3.7588597849e+000,4.4275592776e+000,3.7769445587e+000,3.8680016758e+000,4.1826794254e+000,4.2490105703e+000,3.9122724887e+000,3.6880041912e+000,3.6693870035e+000,4.7516259496e+000,3.2022112233e+000,4.2955160959e+000,2.9868430609e+000,3.6281252836e+000,
2.1750000000e+001,3.7072665833e+000,4.3670969613e+000,3.7734142156e+000,3.8604438094e+000,4.1089264886e+000,4.2574494840e+000,4.0313236544e+000,3.6524842615e+000,3.6718446336e+000,4.7313222323e+000,3.2654014470e+000,4.3633374618e+000,3.0052369553e+000,3.7221468849e+000,
2.1843750000e+001,3.7006390333e+000,4.2631464573e+000,3.6863779528e+000,3.8328193899e+000,4.0471424066e+000,4.1461077481e+000,3.9428973647e+000,3.6523141554e+000,3.7007804748e+000,4.7820326031e+000,3.2753776952e+000,4.3496832911e+000,2.9965298760e+000,3.6855367066e+000,
2.1937500000e+001,3.6249498004e+000,4.1911098555e+000,3.6224138463e+000,3.7792475580e+000,3.7835684495e+000,3.9764689830e+000,3.8863386045e+000,3.5451313136e+000,3.4949396377e+000,4.7476097653e+000,3.2606922369e+000,4.2545567996e+000,3.0034577281e+000,3.6049071302e+000,
2.2031250000e+001,3.5879002604e+000,4.1685649081e+000,3.4823019650e+000,3.8045250099e+000,3.7753171863e+000,3.8941455514e+000,3.9426709578e+000,3.5301514371e+000,3.4812560379e+000,4.6843878909e+000,3.3509755681e+000,4.1991549096e+000,2.9544475135e+000,3.5511911370e+000,
2.2125000000e+001,3.5998272030e+000,4.0536381092e+000,3.4166343497e+000,3.7794436962e+000,3.9302548246e+000,3.9798979578e+000,3.9462325065e+000,3.5556989117e+000,3.4826687934e+000,4.5941065464e+000,3.2826636037e+000,4.2001074780e+000,3.0473119957e+000,3.5662532229e+000,
2.2218750000e+001,3.5699236549e+000,4.1274916214e+000,3.3736153503e+000,3.7548679899e+000,4.0117402482e+000,3.9440634838e+000,3.8855727855e+000,3.5273356400e+000,3.4292196258e+000,4.6352932069e+000,3.1647032130e+000,4.2338297107e+000,3.1266958388e+000,3.5860702868e+000,
2.2312500000e+001,3.5817068702e+000,4.0474107448e+000,3.3818848859e+000,3.7542812721e+000,4.0551279384e+000,3.8315462648e+000,4.0018690226e+000,3.5466110240e+000,3.4724269659e+000,4.5261793943e+000,3.1041961504e+000,4.1178808241e+000,3.1171242512e+000,3.5238568659e+000,
2.2406250000e+001,3.5178287303e+000,3.9624352137e+000,3.3534746182e+000,3.7051137279e+000,4.1248599781e+000,3.8277760846e+000,3.9456504679e+000,3.4619862691e+000,3.4245999794e+000,4.5269026922e+000,3.1424587706e+000,4.1065736895e+000,3.1552423754e+000,3.5159313746e+000,
2.2500000000e+001,3.5430525378e+000,3.8815528975e+000,3.3068327037e+000,3.6928663486e+000,4.0599493492e+000,3.8832633839e+000,3.8757989430e+000,3.3846888989e+000,3.3913286478e+000,4.4261714574e+000,3.1872790466e+000,4.0238499354e+000,3.1001459124e+000,3.4403684092e+000,
2.2593750000e+001,3.4967914917e+000,4.0699348329e+000,3.4429483573e+000,3.8942070808e+000,4.0366753769e+000,3.9087047728e+000,3.6854780704e+000,3.4436119059e+000,3.3572419482e+000,4.4362767251e+000,3.1493881690e+000,3.9875816098e+000,3.0593936762e+000,3.4882780557e+000,
2.2687500000e+001,3.6300207513e+000,4.2002503615e+000,3.5044860146e+000,4.0353212251e+000,4.0302635794e+000,4.0103571185e+000,3.6786282047e+000,3.3960722257e+000,3.2950407966e+000,4.4122683778e+000,3.1739508386e+000,4.0151611787e+000,3.0481020821e+000,3.5415182020e+000,
2.2781250000e+001,3.6640681264e+000,4.2671149977e+000,3.6316928094e+000,4.0220456685e+000,4.1057857695e+000,4.0164809376e+000,3.5342439339e+000,3.3635804603e+000,3.2676887544e+000,4.4739237515e+000,3.2062832267e+000,4.0680134049e+000,3.0435250604e+000,3.5340936213e+000,
2.2875000000e+001,3.5977768108e+000,4.3171008339e+000,3.6484541033e+000,4.0360617397e+000,4.0340154953e+000,4.0702515492e+000,3.6376822729e+000,3.2816155016e+000,3.1826772980e+000,4.4805944016e+000,3.1976732205e+000,4.0628708840e+000,3.0724533758e+000,3.6157772573e+000,
2.2968750000e+001,3.6206640248e+000,4.3962717267e+000,3.6233748906e+000,4.0815632941e+000,4.0202316260e+000,4.0363304844e+000,3.5490832175e+000,3.2384947478e+000,3.2471078395e+000,4.4587663090e+000,3.2993585164e+000,4.1121234053e+000,3.3606382982e+000,3.8316726028e+000,
2.3062500000e+001,3.5540289044e+000,4.3735149715e+000,3.6275717651e+000,4.0310501742e+000,4.0118213967e+000,4.0355350409e+000,3.4728330121e+000,3.1887559343e+000,3.2097654525e+000,4.4896028942e+000,3.2568968884e+000,4.1675491994e+000,3.4005295476e+000,3.8450192597e+000,
2.3156250000e+001,3.4910298269e+000,4.4165700956e+000,3.6048188788e+000,4.0683843843e+000,3.8391736327e+000,3.9211388887e+000,3.5072300449e+000,3.2459313931e+000,3.2145103705e+000,4.5509568524e+000,3.2324483509e+000,4.2138371984e+000,3.3305951335e+000,3.8688688971e+000,
2.3250000000e+001,3.4193917113e+000,4.5052703671e+000,3.6394914864e+000,4.0847207853e+000,3.9200297699e+000,3.9411833119e+000,3.5436784562e+000,3.1936338159e+000,3.3799351062e+000,4.5054060699e+000,3.4400823381e+000,4.2631615114e+000,3.5111275042e+000,4.0007834195e+000,
2.3343750000e+001,3.4277291988e+000,4.5507891751e+000,3.6525173850e+000,4.0841856139e+000,3.8161147987e+000,3.9715664576e+000,3.5161673562e+000,3.1010983267e+000,3.2407865933e+000,4.4736914309e+000,3.4563177089e+000,4.2369987585e+000,3.4488090764e+000,3.9794214213e+000,
2.3437500000e+001,3.6173151659e+000,4.8204287335e+000,3.7017300211e+000,4.2265938052e+000,3.9358759673e+000,4.1329428664e+000,3.7563135830e+000,3.3213454512e+000,3.2667328363e+000,4.6168506417e+000,3.4669048123e+000,4.3220033001e+000,3.4528010608e+000,4.0250419369e+000,
2.3531250000e+001,3.8424632482e+000,4.8990438101e+000,3.7075698797e+000,4.1738757349e+000,4.2131618503e+000,4.1958935512e+000,3.8405759969e+000,3.3954192169e+000,3.3369774649e+000,4.6620565212e+000,3.4435616529e+000,4.3589069458e+000,3.5445811965e+000,4.1892407407e+000,
2.3625000000e+001,3.7995438443e+000,4.8184858588e+000,3.7240677987e+000,4.0330423008e+000,4.1859270390e+000,4.2287859763e+000,3.8883309853e+000,3.3427680550e+000,3.3314472147e+000,4.5926327928e+000,3.4549798191e+000,4.3137883402e+000,3.6073018279e+000,4.1991197961e+000,
2.3718750000e+001,3.7982189209e+000,4.8470267143e+000,3.7540643378e+000,4.0199334528e+000,4.2665076711e+000,4.1979421187e+000,3.9886847322e+000,3.4237978305e+000,3.3070454078e+000,4.6306116012e+000,3.4432741636e+000,4.3487913728e+000,3.6427027840e+000,4.1745663685e+000,
2.3812500000e+001,3.7833716355e+000,4.8918206985e+000,3.6706067697e+000,4.0947419070e+000,4.2672055624e+000,4.2055609779e+000,4.0540217380e+000,3.5065196871e+000,3.4228392230e+000,4.6776175569e+000,3.5328282320e+000,4.3837603699e+000,3.7598826198e+000,4.2039577736e+000,
2.3906250000e+001,3.7913356083e+000,4.8418669891e+000,3.7509079270e+000,4.0867514132e+000,4.3467241565e+000,4.2358355176e+000,4.0086151618e+000,3.5453373309e+000,3.4993902167e+000,4.6704210536e+000,3.4990536869e+000,4.3493202421e+000,3.7843858049e+000,4.1454644049e+000,
2.4000000000e+001,3.8578833227e+000,4.9362186986e+000,3.8432289512e+000,4.0806238237e+000,4.4666509871e+000,4.2525033516e+000,4.0313324982e+000,3.5964768000e+000,3.5912615901e+000,4.7396015117e+000,3.4999887793e+000,4.4683348585e+000,3.7319424019e+000,4.1846070744e+000,
2.4093750000e+001,3.9319189022e+000,5.0953317279e+000,3.8967576327e+000,4.1807712016e+000,4.5329582379e+000,4.3301146039e+000,4.0393898284e+000,3.5653121142e+000,3.6831277112e+000,4.7095232791e+000,3.5339745385e+000,4.5069978973e+000,3.7531411174e+000,4.2486928616e+000,
2.4187500000e+001,4.0527756170e+000,5.0565783447e+000,3.9512593624e+000,4.2041501569e+000,4.5147481206e+000,4.3633140662e+000,4.0714507894e+000,3.6031957562e+000,3.7479198526e+000,4.7761605417e+000,3.5059703419e+000,4.4931800190e+000,3.7566513777e+000,4.2345684441e+000,
2.4281250000e+001,4.1336873326e+000,5.0395008063e+000,3.9479551252e+000,4.2514111519e+000,4.5181353690e+000,4.5311541385e+000,4.1066204572e+000,3.7549826326e+000,3.6401985681e+000,4.8451898148e+000,3.3621352092e+000,4.5052793280e+000,3.6279907761e+000,4.1389580352e+000,
2.4375000000e+001,4.0971304864e+000,5.0026220723e+000,4.0316595490e+000,4.2710660634e+000,4.5264956015e+000,4.5018761779e+000,4.0985271583e+000,3.7675769572e+000,3.7257518923e+000,4.9445426936e+000,3.3854638576e+000,4.5309333065e+000,3.6982798797e+000,4.1780248768e+000,
2.4468750000e+001,3.8725120935e+000,4.8200411255e+000,3.9292924869e+000,4.1590144706e+000,4.3900521427e+000,4.3762665938e+000,4.0111324643e+000,3.6904000039e+000,3.7233483655e+000,4.9033950753e+000,3.4383061229e+000,4.5514088007e+000,3.7224883533e+000,4.1382405001e+000,
2.4562500000e+001,3.7715683316e+000,4.8387797082e+000,4.0252795280e+000,4.1916159763e+000,4.2525969673e+000,4.3152075108e+000,4.0249366899e+000,3.7161286374e+000,3.6935014292e+000,4.8714921786e+000,3.4515497610e+000,4.5493041770e+000,3.6480314124e+000,4.0188214604e+000,
2.4656250000e+001,3.6962326881e+000,4.8848693037e+000,4.0206846230e+000,4.2882951980e+000,4.2481257177e+000,4.3405238832e+000,3.9854894501e+000,3.6907439396e+000,3.7382003189e+000,4.8885517352e+000,3.4003525820e+000,4.5356983301e+000,3.6114519747e+000,4.0273411902e+000,
2.4750000000e+001,3.7647270954e+000,4.8554319297e+000,3.9622901736e+000,4.3698697294e+000,4.2383928024e+000,4.3382006470e+000,3.9296536313e+000,3.6207468436e+000,3.7794414100e+000,4.7914697019e+000,3.4040505489e+000,4.4778073797e+000,3.5249576285e+000,3.9688700031e+000,
2.4843750000e+001,3.8827853431e+000,4.9113250804e+000,3.9467941182e+000,4.3643661235e+000,4.3142650626e+000,4.2987524843e+000,3.8790897222e+000,3.6594172408e+000,3.6744951722e+000,4.7511471293e+000,3.3449404977e+000,4.4839843613e+000,3.3353404256e+000,3.8987632267e+000,
2.4937500000e+001,3.9800903443e+000,4.9959333363e+000,3.9565613441e+000,4.4416443933e+000,4.3546417227e+000,4.4245750291e+000,4.0604501821e+000,3.6946194769e+000,3.6998822624e+000,4.7660859084e+000,3.3078987207e+000,4.5673015269e+000,3.3835368145e+000,3.8947284641e+000,
2.5031250000e+001,3.9331107202e+000,4.8413882917e+000,3.9084382534e+000,4.4829402202e+000,4.1823154160e+000,4.4242419661e+000,4.0630851147e+000,3.6814982509e+000,3.6360959545e+000,4.7106411417e+000,3.3031028217e+000,4.3948403009e+000,3.3464198851e+000,3.7223053006e+000,
2.5125000000e+001,3.9152089108e+000,4.8181797347e+000,3.9015101905e+000,4.4687283919e+000,4.1252841351e+000,4.4481486960e+000,4.0972438035e+000,3.6553770146e+000,3.5321165253e+000,4.8229235357e+000,3.2717451632e+000,4.4509821176e+000,3.3727524465e+000,3.8317478911e+000,
2.5218750000e+001,3.7846942689e+000,4.7800073386e+000,3.8775347053e+000,4.4018351716e+000,4.0653811666e+000,4.3358638977e+000,4.0921272541e+000,3.5462511058e+000,3.5527347343e+000,4.6488042636e+000,3.2593245570e+000,4.3624584452e+000,3.4250428535e+000,3.8172005807e+000,
2.5312500000e+001,3.7707262791e+000,4.7970910530e+000,3.8504230622e+000,4.3516009761e+000,4.0236192830e+000,4.2079302305e+000,4.0614896544e+000,3.4547203242e+000,3.5546997357e+000,4.5749473457e+000,3.2811968857e+000,4.3416153249e+000,3.4959690580e+000,3.8122425746e+000,
2.5406250000e+001,3.7508400549e+000,4.7322851648e+000,3.7211661719e+000,4.4058405859e+000,3.9294157263e+000,4.1580956898e+000,4.0343199986e+000,3.4290912232e+000,3.4023479621e+000,4.4483023111e+000,3.1331334600e+000,4.3300259514e+000,3.4070900318e+000,3.7544655112e+000,
2.5500000000e+001,3.7183610133e+000,4.7377814788e+000,3.6108181017e+000,4.4004946591e+000,3.9662479843e+000,4.1372164211e+000,3.9906142138e+000,3.3495388051e+000,3.3485310640e+000,4.4256468060e+000,2.9519943338e+000,4.3170560700e+000,3.3973574996e+000,3.7605045080e+000,
2.5593750000e+001,3.7612688431e+000,4.7622135986e+000,3.6554369441e+000,4.4305040368e+000,3.9837586807e+000,4.2409153900e+000,3.9851321274e+000,3.4142603743e+000,3.3486288293e+000,4.4497098033e+000,2.9881972743e+000,4.4253871622e+000,3.4707873126e+000,3.7611150553e+000,
2.5687500000e+001,3.8349602895e+000,4.7206957536e+000,3.6214313758e+000,4.2928524529e+000,4.0106478311e+000,4.2090501467e+000,3.9534261411e+000,3.4948771456e+000,3.3287628843e+000,4.5333268395e+000,2.9631922319e+000,4.5504125793e+000,3.5249485738e+000,3.8464852185e+000,
2.5781250000e+001,3.7411353731e+000,4.7676275489e+000,3.6122494892e+000,4.2260944065e+000,4.0742556385e+000,4.2573901500e+000,4.0467637578e+000,3.5176890285e+000,3.2596122889e+000,4.5328287001e+000,2.8897894501e+000,4.5560654454e+000,3.5972906762e+000,3.9535587772e+000,
2.5875000000e+001,3.7797802217e+000,4.6815954146e+000,3.5911546774e+000,4.1370669921e+000,4.0593513469e+000,4.1713967364e+000,3.8589622458e+000,3.4592218883e+000,3.2748527221e+000,4.5256546155e+000,2.8305228567e+000,4.5032097518e+000,3.5711226081e+000,3.9315207708e+000,
2.5968750000e+001,3.7917232441e+000,4.6869942026e+000,3.9378419222e+000,4.1409983465e+000,3.9860738149e+000,4.1911060529e+000,3.8863526729e+000,3.4628420119e+000,3.2168933378e+000,4.5118924976e+000,2.8283198181e+000,4.3810735988e+000,3.4762590146e+000,3.8742875620e+000,
2.6062500000e+001,3.7098754759e+000,4.5798902507e+000,4.0316807117e+000,4.0690215694e+000,4.0310246068e+000,4.0950296837e+000,3.7720044544e+000,3.4969074979e+000,3.2192719832e+000,4.5311108369e+000,2.8187634878e+000,4.4270498933e+000,3.4655401589e+000,3.8423259520e+000,
2.6156250000e+001,3.7742639095e+000,4.5530312606e+000,4.0081908845e+000,4.0698962355e+000,4.0431887973e+000,4.0342754726e+000,3.7058985204e+000,3.6449189799e+000,3.2549798563e+000,4.4652350303e+000,2.7836860536e+000,4.3886284922e+000,3.4159613738e+000,3.8207087881e+000,
2.6250000000e+001,3.8386767688e+000,4.5022512682e+000,4.0366064186e+000,4.0788069392e+000,4.0779750086e+000,4.1530607214e+000,3.7551131336e+000,3.6457135085e+000,3.2471699650e+000,4.5594293653e+000,2.8785962613e+000,4.3542908939e+000,3.3482211450e+000,3.7819357581e+000,
2.6343750000e+001,4.1391640125e+000,4.7398186789e+000,4.1764825811e+000,4.1438785402e+000,4.4515912657e+000,4.2096789597e+000,3.7498470552e+000,3.7228770569e+000,3.2704441866e+000,4.7214626666e+000,2.8111086819e+000,4.3753391380e+000,3.2705929064e+000,3.7844046133e+000,
2.6437500000e+001,4.2576948548e+000,4.7964906540e+000,4.1965608968e+000,4.0868123802e+000,4.5371231427e+000,4.2600909230e+000,3.6921896522e+000,3.7211620665e+000,3.2837608648e+000,4.7109502771e+000,2.8288153416e+000,4.3715577673e+000,3.2358036363e+000,3.7252421733e+000,
2.6531250000e+001,4.3080927775e+000,4.7758378199e+000,4.2162017349e+000,4.0930853225e+000,4.5188708588e+000,4.2684699815e+000,3.6739614876e+000,3.7029095425e+000,3.3659829404e+000,4.7338313388e+000,2.8350312398e+000,4.3425843162e+000,3.2387379896e+000,3.7480869592e+000,
2.6625000000e+001,4.2941678120e+000,4.7201151113e+000,4.1909560549e+000,4.0426382584e+000,4.5170855377e+000,4.1562802440e+000,3.6701541503e+000,3.7029741263e+000,3.3316489856e+000,4.6513979879e+000,2.8802401521e+000,4.1302910605e+000,3.1676950394e+000,3.6945674160e+000,
2.6718750000e+001,4.2651459221e+000,4.6396898789e+000,4.2050565969e+000,4.1243893654e+000,4.5237026530e+000,4.1777736216e+000,3.7041394394e+000,3.7172112683e+000,3.4493957068e+000,4.7009743578e+000,2.8792999485e+000,4.2072456739e+000,3.2291417538e+000,3.6196723293e+000,
2.6812500000e+001,4.2274374795e+000,4.5839260235e+000,4.2065225700e+000,4.2028851335e+000,4.4344802367e+000,4.0985726229e+000,3.6772778125e+000,3.7582512021e+000,3.4439811022e+000,4.7448205959e+000,2.8931201467e+000,4.1841876826e+000,3.1191073879e+000,3.6319638048e+000,
2.6906250000e+001,4.1736638175e+000,4.5268019291e+000,4.0435783083e+000,4.1728041814e+000,4.4338757819e+000,4.0395415923e+000,3.6783663448e+000,3.7814458560e+000,3.4291257233e+000,4.7302851374e+000,2.8361040858e+000,4.2088316676e+000,3.1207241912e+000,3.6737107759e+000,
2.7000000000e+001,4.1104462674e+000,4.4398865804e+000,3.8551782070e+000,4.0436910775e+000,4.4097771969e+000,4.0712397632e+000,3.6814577481e+000,3.7513354977e+000,3.5155279924e+000,4.6993673265e+000,2.7708608517e+000,4.1509851492e+000,3.0959188001e+000,3.5965858258e+000,
2.7093750000e+001,4.0824664212e+000,4.3665693959e+000,3.7473519324e+000,4.0225860087e+000,4.3825310594e+000,4.0879710132e+000,3.6582933573e+000,3.7408721248e+000,3.5012532677e+000,4.6659045213e+000,2.8240915956e+000,4.1508751952e+000,3.1321368376e+000,3.6000265591e+000,
2.7187500000e+001,4.1221718792e+000,4.4155114047e+000,3.7584040008e+000,4.0157238583e+000,4.3898164905e+000,4.0816612177e+000,3.6488818645e+000,3.5777956213e+000,3.4600598318e+000,4.5628796731e+000,2.9572657252e+000,4.1128444954e+000,3.1246024139e+000,3.6102855512e+000,
2.7281250000e+001,4.0026251133e+000,4.3968564438e+000,3.6732341306e+000,4.0334683442e+000,4.2496873374e+000,4.0200096499e+000,3.6255304496e+000,3.6623264699e+000,3.4891932796e+000,4.5550037387e+000,2.8301647804e+000,4.1419195740e+000,3.0296341317e+000,3.5929988323e+000,
2.7375000000e+001,3.5831906347e+000,4.0111588297e+000,3.5193179791e+000,3.9361312383e+000,3.9331426936e+000,4.0281990414e+000,3.6103918095e+000,3.5995126319e+000,3.6569222489e+000,4.4534397970e+000,2.9964539688e+000,4.2413240238e+000,3.1329900523e+000,3.6476447020e+000,
2.7468750000e+001,3.4990174999e+000,3.9387303364e+000,3.5140705263e+000,3.9108836988e+000,3.9940061535e+000,4.0729282761e+000,3.6314009471e+000,3.5950036370e+000,3.6736874410e+000,4.5922551960e+000,3.0698710178e+000,4.2805196645e+000,3.3349062532e+000,3.6936328885e+000,
2.7562500000e+001,3.4753367539e+000,3.9411253982e+000,3.3695442074e+000,3.8081277260e+000,3.9336053837e+000,4.0091317360e+000,3.5687857305e+000,3.5729985535e+000,3.5849812624e+000,4.5579433063e+000,2.9944441819e+000,4.2182518413e+000,3.2387386475e+000,3.6510222891e+000,
2.7656250000e+001,3.4499706424e+000,3.9202045692e+000,3.4746772865e+000,3.7782690962e+000,3.9330448137e+000,4.0378217560e+000,3.5672789211e+000,3.6357299546e+000,3.5666258284e+000,4.5780562734e+000,3.0653614412e+000,4.1374766308e+000,3.1270078210e+000,3.5878417882e+000,
2.7750000000e+001,3.4888263433e+000,3.8963595345e+000,3.4702567892e+000,3.6907593257e+000,3.8972669269e+000,4.0648009746e+000,3.6141110307e+000,3.5711693971e+000,3.4692614578e+000,4.4847424504e+000,3.0881027616e+000,4.1667676052e+000,3.1791815857e+000,3.5977174258e+000,
2.7843750000e+001,3.5629614412e+000,4.0105814781e+000,3.5092463778e+000,3.5534111253e+000,3.8443809056e+000,4.1220113235e+000,3.6330278624e+000,3.4174635867e+000,3.5657370672e+000,4.4731051782e+000,3.1991582932e+000,4.1534014934e+000,3.1224833351e+000,3.5069124058e+000,
2.7937500000e+001,3.6282918661e+000,4.0937059502e+000,3.5241022977e+000,3.6802487915e+000,3.9382178559e+000,4.2832122245e+000,3.6982363204e+000,3.4729650137e+000,3.5692310042e+000,4.5915914799e+000,3.1445477766e+000,4.2776322080e+000,3.1405963762e+000,3.5414712890e+000,
2.8031250000e+001,3.6950125335e+000,4.1536737284e+000,3.5456127761e+000,3.7063205075e+000,4.0427145434e+000,4.2840921112e+000,3.7592011128e+000,3.4677193838e+000,3.5273234704e+000,4.6459567593e+000,3.1601744566e+000,4.3416949338e+000,3.2871159655e+000,3.5908422123e+000,
2.8125000000e+001,3.6529841234e+000,4.3147623674e+000,3.6514307939e+000,3.7603080164e+000,4.0032856153e+000,4.2734483187e+000,3.8296243545e+000,3.6296171227e+000,3.5715166440e+000,4.7318461979e+000,3.1707121073e+000,4.3871779635e+000,3.1925660362e+000,3.5353218137e+000,
2.8218750000e+001,3.6538386356e+000,4.2592462874e+000,3.6020261218e+000,3.7725798285e+000,4.0480247973e+000,4.2955629361e+000,3.8848970300e+000,3.6742846671e+000,3.5943160237e+000,4.7335209601e+000,3.1285811428e+000,4.4660617934e+000,3.1744886755e+000,3.5657263687e+000,
2.8312500000e+001,3.7909576851e+000,4.2996251715e+000,3.5875139385e+000,3.7791004877e+000,4.1224153605e+000,4.3619436095e+000,3.8821378206e+000,3.5811997973e+000,3.5270792233e+000,4.7860997135e+000,3.2068078643e+000,4.5155815769e+000,3.1458886135e+000,3.6141491267e+000,
2.8406250000e+001,3.7667228948e+000,4.3645031003e+000,3.5734574832e+000,3.7320199206e+000,4.0228692401e+000,4.3290918476e+000,3.8122643548e+000,3.5960012764e+000,3.3982971089e+000,4.6227261696e+000,3.1156538294e+000,4.3651733878e+000,2.9286590910e+000,3.5329725602e+000,
2.8500000000e+001,3.8257222442e+000,4.3087820112e+000,3.5531244400e+000,3.7203385424e+000,4.0397904464e+000,4.3373247268e+000,3.8865223286e+000,3.6283997390e+000,3.4381636773e+000,4.6348896282e+000,3.1813355727e+000,4.3836813310e+000,2.8047468344e+000,3.4609859338e+000,
2.8593750000e+001,3.7864686678e+000,4.2767924861e+000,3.5066804656e+000,3.7450034195e+000,4.0630086882e+000,4.3827182149e+000,3.9328017264e+000,3.6577026645e+000,3.4565429153e+000,4.7593439952e+000,3.1366030972e+000,4.4910154357e+000,2.7897231546e+000,3.4900472168e+000,
2.8687500000e+001,3.8188562147e+000,4.3662847520e+000,3.4934227754e+000,3.7483511628e+000,4.0543117090e+000,4.3473462234e+000,3.9825664168e+000,3.6212983735e+000,3.4778857646e+000,4.7334359331e+000,3.0892090356e+000,4.4248859194e+000,2.7352807490e+000,3.4756812011e+000,
2.8781250000e+001,3.7428209396e+000,4.3343226030e+000,3.5010638497e+000,3.6983414563e+000,4.0346461044e+000,4.4233868139e+000,3.8683571880e+000,3.5779659607e+000,3.4726319928e+000,4.7261425668e+000,3.0266491893e+000,4.3990015018e+000,2.8313173235e+000,3.3831051965e+000,
2.8875000000e+001,3.7162402994e+000,4.2686010577e+000,3.5552364835e+000,3.8114813900e+000,4.0547999367e+000,4.5285212048e+000,3.8480268199e+000,3.6538658522e+000,3.3768422064e+000,4.7439234983e+000,3.1667469270e+000,4.4512862028e+000,3.0400484353e+000,3.5297087937e+000,
2.8968750000e+001,3.6046282924e+000,4.2975288880e+000,3.5283705322e+000,3.7965178845e+000,3.9853375320e+000,4.4724979370e+000,3.7587007876e+000,3.5926623014e+000,3.4189513513e+000,4.7041483351e+000,3.2887848220e+000,4.4354618117e+000,3.2222071640e+000,3.5288008347e+000,
2.9062500000e+001,3.6722845098e+000,4.1738201997e+000,3.5770010918e+000,3.8105629674e+000,3.8713690554e+000,4.3952150283e+000,3.6599790236e+000,3.4644486913e+000,3.4462269070e+000,4.6235676135e+000,3.1957740652e+000,4.3490376269e+000,3.0808297632e+000,3.5585954454e+000,
2.9156250000e+001,3.7977253392e+000,4.2373926633e+000,3.6294918909e+000,3.8792853563e+000,3.9415846283e+000,4.4219893283e+000,3.7907296410e+000,3.5063836361e+000,3.4009541046e+000,4.6829117459e+000,3.2232485877e+000,4.3539345847e+000,3.1121720674e+000,3.5501723337e+000,
2.9250000000e+001,3.7179386081e+000,4.2121549010e+000,3.5810883261e+000,3.8535454025e+000,3.7926671070e+000,4.3547710617e+000,3.7463006801e+000,3.4586133247e+000,3.3452102257e+000,4.6967414751e+000,3.1793613574e+000,4.2810567304e+000,3.1697306900e+000,3.5649797739e+000,
2.9343750000e+001,3.7058338470e+000,4.2172294976e+000,3.6051989115e+000,3.7616550508e+000,3.6981792461e+000,4.3436152011e+000,3.7683004527e+000,3.3876600111e+000,3.3323724426e+000,4.6230456080e+000,3.1244590633e+000,4.2003793338e+000,3.2069420130e+000,3.5807342755e+000,
2.9437500000e+001,3.7020427455e+000,4.1618641538e+000,3.6237997681e+000,3.8030505993e+000,3.6456987834e+000,4.3492953691e+000,3.8028625807e+000,3.3485946486e+000,3.2955420190e+000,4.7053816646e+000,3.0517337800e+000,4.2020662054e+000,3.2352796080e+000,3.6229687111e+000,
2.9531250000e+001,3.6932825790e+000,4.2479993925e+000,3.6339272407e+000,3.7835488893e+000,3.6618016038e+000,4.3190722976e+000,3.7724117929e+000,3.4170040803e+000,3.3477197521e+000,4.7759143664e+000,3.0293501240e+000,4.3383420835e+000,3.2290745265e+000,3.7304948154e+000,
2.9625000000e+001,3.6048820597e+000,4.2086004485e+000,3.6684449880e+000,3.7987994732e+000,3.6368780260e+000,4.2541678983e+000,3.6069210229e+000,3.3638650908e+000,3.3055551613e+000,4.7722394870e+000,3.1124751071e+000,4.3143672361e+000,3.2609112447e+000,3.7239029482e+000,
2.9718750000e+001,3.6682748000e+000,4.2422246982e+000,3.7086735559e+000,3.8817971667e+000,3.8295898550e+000,4.3162252612e+000,3.6695926274e+000,3.4288128124e+000,3.3099275187e+000,4.7649278859e+000,3.1109833584e+000,4.3253084476e+000,3.2846634895e+000,3.7854565928e+000,
2.9812500000e+001,3.7216316029e+000,4.2982930692e+000,3.7925416769e+000,3.9946690578e+000,3.9274053682e+000,4.2616878118e+000,3.6657045289e+000,3.5397268011e+000,3.4404189487e+000,4.8344055885e+000,3.1202748721e+000,4.4369319097e+000,3.3214565747e+000,3.9024758502e+000,
2.9906250000e+001,3.7274694090e+000,4.3777356793e+000,3.9134747180e+000,4.1028882478e+000,3.9442079603e+000,4.2045220604e+000,3.7120061540e+000,3.6031273707e+000,3.4971161632e+000,4.8820653174e+000,3.1644865335e+000,4.4498838671e+000,3.3468523745e+000,3.9905090164e+000,
3.0000000000e+001,3.5979552978e+000,4.3629419456e+000,3.8405251011e+000,4.0883166032e+000,3.8901902130e+000,4.1058184165e+000,3.7085000191e+000,3.6796395415e+000,3.4468715753e+000,4.9705105438e+000,3.1792839098e+000,4.5892567909e+000,3.2021213207e+000,3.9880968982e+000,
3.0093750000e+001,3.4828490191e+000,4.3006538344e+000,3.8207097478e+000,4.0270525047e+000,3.8043972625e+000,4.1161657085e+000,3.6795977757e+000,3.6346801405e+000,3.4218771297e+000,4.9898770440e+000,3.2302718887e+000,4.6306191367e+000,3.2002218409e+000,3.9423371056e+000,
3.0187500000e+001,3.4052960641e+000,4.2995199100e+000,3.8362634535e+000,4.0948084297e+000,3.8202412131e+000,4.1817446254e+000,3.6428603331e+000,3.6686853095e+000,3.3718446198e+000,5.0899564827e+000,3.1823234648e+000,4.7441200314e+000,3.1827855036e+000,4.0143349801e+000,
3.0281250000e+001,3.3175956044e+000,4.2675379183e+000,3.8772932629e+000,4.1241247901e+000,3.8564844813e+000,4.1425821309e+000,3.6150964531e+000,3.6694902797e+000,3.4466610785e+000,5.0949239005e+000,3.1140701189e+000,4.7430241631e+000,3.0771749746e+000,3.9910583081e+000,
3.0375000000e+001,3.4366177892e+000,4.3305278403e+000,3.9924942991e+000,4.2174262103e+000,3.9858124816e+000,4.1474491029e+000,3.6156066305e+000,3.7039631018e+000,3.4876648277e+000,5.0540436743e+000,3.2529796701e+000,4.7299631246e+000,3.2173196317e+000,3.9845421404e+000,
3.0468750000e+001,3.4921400547e+000,4.4538789865e+000,3.9978225834e+000,4.2334567259e+000,4.0680683138e+000,4.1615189990e+000,3.6906205301e+000,3.7164478329e+000,3.5574295620e+000,4.9826536567e+000,3.3299388377e+000,4.7144059878e+000,3.2473166821e+000,3.9157938286e+000,
3.0562500000e+001,3.5221121726e+000,4.4455207216e+000,4.0425739003e+000,4.2527723232e+000,4.2309035378e+000,4.1659111124e+000,3.7642766801e+000,3.6716964606e+000,3.6928686473e+000,4.9705699621e+000,3.3957172126e+000,4.6832674871e+000,3.3575637802e+000,3.9472635836e+000,
3.0656250000e+001,3.5421583478e+000,4.4579103031e+000,3.9590197913e+000,4.1490042545e+000,4.2082168024e+000,4.1962033027e+000,3.7903262201e+000,3.5982057186e+000,3.7563318465e+000,4.9016817588e+000,3.3974951214e+000,4.6565879435e+000,3.5214293071e+000,3.9603158774e+000,
3.0750000000e+001,3.4441010089e+000,4.4009112331e+000,3.8622263533e+000,4.1327485201e+000,4.0807283770e+000,4.0893767369e+000,3.7369982989e+000,3.6221314104e+000,3.6983483995e+000,4.9422602677e+000,3.4434119968e+000,4.6369119782e+000,3.5717555506e+000,3.8824998456e+000,
3.0843750000e+001,3.4683701449e+000,4.3151385246e+000,3.7481688988e+000,4.0059080429e+000,4.1009601330e+000,4.1824276258e+000,3.7456292221e+000,3.5412927353e+000,3.6630000814e+000,4.8924214506e+000,3.3921791378e+000,4.6039971278e+000,3.4824029188e+000,3.7682332685e+000,
3.0937500000e+001,3.3722745203e+000,4.2605636615e+000,3.6077814334e+000,3.8322204665e+000,4.0453653554e+000,4.2237693762e+000,3.6986324231e+000,3.4211466354e+000,3.6946634082e+000,4.7399319763e+000,3.2999211314e+000,4.3771071295e+000,3.3912215174e+000,3.6367553069e+000,
3.1031250000e+001,3.4069322952e+000,4.1779044814e+000,3.5820507570e+000,3.7505750586e+000,4.0377694816e+000,4.2730194178e+000,3.6976115593e+000,3.3962952631e+000,3.6389356086e+000,4.6638364786e+000,3.3058526327e+000,4.2921071955e+000,3.4105646424e+000,3.5672775102e+000,
3.1125000000e+001,3.4575131914e+000,4.1096045543e+000,3.5573491156e+000,3.8107710339e+000,4.0856706033e+000,4.2804486942e+000,3.7002751936e+000,3.4078540455e+000,3.6952707923e+000,4.6537459493e+000,3.3127765511e+000,4.3161831598e+000,3.4665898811e+000,3.6116624546e+000,
3.1218750000e+001,3.5145148932e+000,4.0676543843e+000,3.5657749148e+000,3.8038030001e+000,4.0309269968e+000,4.1602475626e+000,3.6447035365e+000,3.4834015750e+000,3.6977478029e+000,4.2913248786e+000,3.4208884063e+000,4.1309167465e+000,3.4624750421e+000,3.4730014438e+000,
3.1312500000e+001,3.4491160031e+000,4.0103686207e+000,3.4817810588e+000,3.6856706814e+000,4.0514159457e+000,4.2029310892e+000,3.6377382419e+000,3.4962281241e+000,3.6760229343e+000,4.3313419666e+000,3.4125919561e+000,4.1196018769e+000,3.4743689379e+000,3.4336135450e+000,
3.1406250000e+001,3.4383523219e+000,3.9089863672e+000,3.5116997421e+000,3.6516916567e+000,4.1865523779e+000,4.2228649817e+000,3.6525084554e+000,3.5478673777e+000,3.7179855223e+000,4.3934623858e+000,3.3035295058e+000,4.2296985779e+000,3.5385525955e+000,3.5234923379e+000,
3.1500000000e+001,3.3390103192e+000,3.7191155684e+000,3.4456343104e+000,3.5458315886e+000,4.0473644634e+000,4.1629230609e+000,3.6014568449e+000,3.5308478693e+000,3.5372203445e+000,4.3621008999e+000,3.1895202420e+000,4.1982085962e+000,3.4583968233e+000,3.4822988858e+000,
3.1593750000e+001,3.2600615652e+000,3.7533488192e+000,3.3627325229e+000,3.5028172925e+000,4.0115154603e+000,4.2309042334e+000,3.4775564003e+000,3.4786720397e+000,3.5323667545e+000,4.2999215267e+000,3.1257979315e+000,4.2222051694e+000,3.3966806904e+000,3.4415024292e+000,
3.1687500000e+001,3.3874156852e+000,3.7224505386e+000,3.3215284105e+000,3.4954562867e+000,4.0899348108e+000,4.2266021357e+000,3.5929360636e+000,3.5061118556e+000,3.4634312552e+000,4.2523522134e+000,3.0162477305e+000,4.2048327470e+000,3.2021611864e+000,3.4250259119e+000,
3.1781250000e+001,3.4691490312e+000,3.9554416736e+000,3.4566889088e+000,3.6130446483e+000,4.0845049209e+000,4.1382073092e+000,3.8763122403e+000,3.4217088882e+000,3.4600865336e+000,4.2942685035e+000,2.9381768764e+000,4.3523796492e+000,3.2340546818e+000,3.6410312459e+000,
3.1875000000e+001,3.5695193372e+000,4.0252286004e+000,3.5799459409e+000,3.7453301260e+000,4.1347147978e+000,4.0747134842e+000,3.8515800730e+000,3.4797607110e+000,3.3744080526e+000,4.4046866001e+000,3.0094000354e+000,4.4600387106e+000,3.2826984225e+000,3.7662441343e+000,
3.1968750000e+001,3.6599132203e+000,4.0765782625e+000,3.7203779221e+000,3.9472143183e+000,4.2122132314e+000,3.9772800100e+000,3.8718503524e+000,3.6295885222e+000,3.3211216715e+000,4.4365752767e+000,2.9617470473e+000,4.4949907792e+000,3.2374718120e+000,3.8562928795e+000,
3.2062500000e+001,3.6815650976e+000,4.1753068326e+000,3.7460116975e+000,3.9509344401e+000,4.1868361677e+000,3.8884311897e+000,3.8772133274e+000,3.6216093677e+000,3.3161593412e+000,4.4212506043e+000,2.9526777930e+000,4.5201290507e+000,3.3505638527e+000,3.9089511278e+000,
3.2156250000e+001,3.6127457489e+000,4.2890884943e+000,3.6839525614e+000,3.8325657545e+000,4.1430839433e+000,3.8508328968e+000,3.8348835334e+000,3.5497671783e+000,3.2018423160e+000,4.4994755652e+000,2.8570817813e+000,4.5336453674e+000,3.2218156264e+000,3.9166598969e+000,
3.2250000000e+001,3.6633092263e+000,4.3848127846e+000,3.7406092506e+000,3.9812085785e+000,4.1908107970e+000,4.0189845234e+000,3.9820086499e+000,3.5946818943e+000,3.2889707098e+000,4.5107325454e+000,2.9228229193e+000,4.5784691288e+000,3.2328097214e+000,3.9691459039e+000,
3.2343750000e+001,3.7280697168e+000,4.4824450633e+000,3.7366385342e+000,3.9890988288e+000,4.1631617901e+000,4.0741404147e+000,4.1041182004e+000,3.5718075407e+000,3.2180339326e+000,4.6243828503e+000,3.0166651782e+000,4.6176967096e+000,3.2847014835e+000,3.9901492536e+000,
3.2437500000e+001,3.7361188925e+000,4.4387791371e+000,3.7005373599e+000,3.9687061504e+000,4.1117526037e+000,3.9991046118e+000,4.0689830870e+000,3.6629574947e+000,3.1184697287e+000,4.7269715615e+000,2.9980947466e+000,4.6914497627e+000,3.1685675171e+000,4.0397859155e+000,
3.2531250000e+001,3.7216395776e+000,4.4625531026e+000,3.7184736195e+000,3.9866303570e+000,4.1047263438e+000,4.0799997950e+000,4.0757168084e+000,3.6401040170e+000,3.0928438468e+000,4.8235956117e+000,2.9828416846e+000,4.7713545927e+000,3.0707727127e+000,4.0397047459e+000,
3.2625000000e+001,3.7900106130e+000,4.5204291419e+000,3.8813887732e+000,4.0597421775e+000,4.1056831297e+000,4.1810054769e+000,4.0740501406e+000,3.6581327996e+000,3.1571902523e+000,5.0414270311e+000,2.9877057474e+000,4.8883295433e+000,3.1491446627e+000,4.1495628144e+000,
3.2718750000e+001,3.6974616197e+000,4.3935588868e+000,3.8625769932e+000,3.9426667503e+000,3.9815149376e+000,4.1639187199e+000,3.9834777113e+000,3.5855055629e+000,3.1597681274e+000,5.0032291615e+000,2.9233538871e+000,4.8426786458e+000,3.1277442846e+000,4.1278849329e+000,
3.2812500000e+001,3.7096968196e+000,4.3735393901e+000,3.8475684865e+000,4.0179878813e+000,3.9694751091e+000,4.2138768475e+000,3.8605001957e+000,3.6253289104e+000,3.2032653571e+000,4.9290090048e+000,2.9824182260e+000,4.7067276505e+000,3.0511166043e+000,4.0162724036e+000,
3.2906250000e+001,3.6210159108e+000,4.3491376781e+000,3.6988860619e+000,3.8769214514e+000,3.8398358295e+000,4.2590111623e+000,3.8513048852e+000,3.5840530470e+000,3.2085847110e+000,4.8616999688e+000,2.8672655169e+000,4.6303227884e+000,3.0021724496e+000,3.9520274793e+000,
3.3000000000e+001,3.5385998971e+000,4.2985089875e+000,3.6012999475e+000,3.7927513924e+000,3.9365614643e+000,4.2996375910e+000,3.8920214272e+000,3.5539173326e+000,3.2230950945e+000,4.8830873462e+000,2.8438201471e+000,4.6353121203e+000,2.9129967570e+000,3.9015173398e+000,
3.3093750000e+001,3.7525724533e+000,4.3462544607e+000,3.7215726552e+000,3.9456939994e+000,4.0984273157e+000,4.4048668480e+000,3.9349524901e+000,3.6767605974e+000,3.2590485158e+000,4.9567101046e+000,2.7990304670e+000,4.7135917599e+000,3.0156398726e+000,4.0452937700e+000,
3.3187500000e+001,3.7870423779e+000,4.1524927772e+000,3.7282034660e+000,3.9209078438e+000,4.1073850984e+000,4.4634091001e+000,3.8410385968e+000,3.6573094275e+000,3.4007495482e+000,4.9643028092e+000,2.9573150657e+000,4.6649055170e+000,3.1438510931e+000,4.0972792219e+000,
3.3281250000e+001,3.7996391727e+000,4.1120934888e+000,3.7965665863e+000,3.8542657200e+000,4.1008003537e+000,4.4177002341e+000,3.7867340021e+000,3.5126419563e+000,3.2974140500e+000,4.9709694646e+000,2.8682068671e+000,4.6159089944e+000,3.2653715422e+000,4.0604077726e+000,
3.3375000000e+001,3.7902295525e+000,4.0441551748e+000,3.8152673303e+000,3.9518920768e+000,4.1424527747e+000,4.3733084189e+000,3.7254120501e+000,3.5125653593e+000,3.2844758833e+000,4.9025875808e+000,2.8968007117e+000,4.5779582262e+000,3.1619025968e+000,4.0776241338e+000,
3.3468750000e+001,3.7924383411e+000,4.0702813740e+000,3.8111241876e+000,3.9474302294e+000,4.0665690579e+000,4.3410587923e+000,3.7630363430e+000,3.5286848775e+000,3.3306064344e+000,4.8951784345e+000,2.8937058587e+000,4.5988898916e+000,3.1509692896e+000,4.0024218572e+000,
3.3562500000e+001,3.7748355879e+000,4.0677133297e+000,3.7606815231e+000,3.9089375198e+000,4.0691331210e+000,4.2145591033e+000,3.7697297963e+000,3.5292268194e+000,3.3165873729e+000,4.8070101041e+000,2.9006542088e+000,4.5635976828e+000,3.2177807982e+000,4.0105786448e+000,
3.3656250000e+001,3.7143333792e+000,4.0286225611e+000,3.6092035447e+000,3.9002850981e+000,4.1761531728e+000,4.1182604549e+000,3.6539267663e+000,3.5466942789e+000,3.1837716328e+000,4.5994328447e+000,2.9332820653e+000,4.5096338628e+000,3.1400979689e+000,3.9039523824e+000,
3.3750000000e+001,3.7283770553e+000,4.0779851872e+000,3.6235083846e+000,3.9134542640e+000,4.2463072979e+000,4.0439223780e+000,3.6917750344e+000,3.6762089988e+000,3.2658397145e+000,4.6520431387e+000,3.1012126849e+000,4.5209488646e+000,3.1585927327e+000,3.9151857714e+000,
3.3843750000e+001,3.6783444096e+000,4.1410742372e+000,3.5930838665e+000,3.8141061821e+000,4.3751143580e+000,3.9571543018e+000,3.6661436537e+000,3.5474799383e+000,3.3013201080e+000,4.6520983139e+000,3.1443013084e+000,4.5540175577e+000,3.1501273145e+000,3.9109839573e+000,
3.3937500000e+001,3.7870669393e+000,4.2388608684e+000,3.6840179030e+000,3.8907001021e+000,4.3799520330e+000,4.2133187466e+000,3.7241408133e+000,3.5152322518e+000,3.3297390359e+000,4.7050066591e+000,3.1778658042e+000,4.5837520285e+000,3.2003167756e+000,3.9078232226e+000,
3.4031250000e+001,3.8135935588e+000,4.2555239152e+000,3.6300299165e+000,3.8611398349e+000,4.3076338485e+000,4.2305760874e+000,3.7422669620e+000,3.5253342313e+000,3.3921240054e+000,4.7370476669e+000,3.2268955312e+000,4.5505216779e+000,3.0876466522e+000,3.8252068248e+000,
3.4125000000e+001,3.6435962771e+000,4.2118715983e+000,3.4555162064e+000,3.7687056080e+000,4.1836176489e+000,4.0304266727e+000,3.6726759699e+000,3.3947794145e+000,3.3604826322e+000,4.6652824467e+000,3.2414893734e+000,4.5057024119e+000,3.0350718985e+000,3.6129594214e+000,
3.4218750000e+001,3.6982467133e+000,4.2936996191e+000,3.2843541606e+000,3.7125993932e+000,4.1915256588e+000,3.9897201860e+000,3.7132378345e+000,3.5083506207e+000,3.1973613656e+000,4.6341723104e+000,3.1535780688e+000,4.4341818371e+000,2.8934362825e+000,3.5283432047e+000,
3.4312500000e+001,3.7428310190e+000,4.3695512604e+000,3.3847784015e+000,3.7271883393e+000,4.1906934545e+000,4.0096499254e+000,3.6599411309e+000,3.5692839293e+000,3.2444727890e+000,4.6417917100e+000,3.1371207141e+000,4.4534747819e+000,3.0641981390e+000,3.6305165280e+000,
3.4406250000e+001,3.9166381027e+000,4.5965081286e+000,3.6420738136e+000,3.9431223040e+000,4.3122171372e+000,4.2478874624e+000,3.7158437124e+000,3.6902122837e+000,3.4596811730e+000,4.5872122112e+000,3.2415115412e+000,4.5049410114e+000,3.4140701610e+000,3.7876145750e+000,
3.4500000000e+001,3.9450948945e+000,4.6164139304e+000,3.6623810640e+000,3.9449404439e+000,4.3054934856e+000,4.2045742104e+000,3.7662802557e+000,3.6676886130e+000,3.4268394075e+000,4.5722072181e+000,3.2843238013e+000,4.4666412688e+000,3.4257892745e+000,3.7847024381e+000,
3.4593750000e+001,4.0386318010e+000,4.5995493649e+000,3.6523117795e+000,3.9340208889e+000,4.3558101611e+000,4.2885852303e+000,3.7376142598e+000,3.6356052846e+000,3.5297861064e+000,4.5490733372e+000,3.2880175040e+000,4.3626537300e+000,3.4208395466e+000,3.7268150081e+000,
3.4687500000e+001,4.0114533508e+000,4.5142249666e+000,3.6240620082e+000,3.8535847182e+000,4.2729855843e+000,4.2824296516e+000,3.7791494188e+000,3.5084409918e+000,3.5566285799e+000,4.4647830581e+000,3.2339096847e+000,4.2491278058e+000,3.4153882519e+000,3.6688360946e+000,
3.4781250000e+001,3.9987992638e+000,4.4889339328e+000,3.5763784009e+000,3.8560086930e+000,4.1205451221e+000,4.2884608887e+000,3.7569382083e+000,3.5498687935e+000,3.4577115654e+000,4.5831203307e+000,3.1579313899e+000,4.3166255653e+000,3.4585050257e+000,3.7138219528e+000,
3.4875000000e+001,3.9919678729e+000,4.5100494351e+000,3.5976671056e+000,3.8900412172e+000,4.0630016563e+000,4.2409908192e+000,3.7765734374e+000,3.5438225249e+000,3.5328957066e+000,4.5688692455e+000,3.1035123083e+000,4.3717784526e+000,3.4561098216e+000,3.7159787325e+000,
3.4968750000e+001,3.9259972985e+000,4.3942645737e+000,3.5088921391e+000,3.7936806162e+000,4.0163776962e+000,3.9759251003e+000,3.7174421511e+000,3.4900678522e+000,3.4773097430e+000,4.4893556177e+000,3.0833263388e+000,4.3454099531e+000,3.4170415630e+000,3.6776895219e+000,
3.5062500000e+001,3.8214144089e+000,4.3974348944e+000,3.4913924377e+000,3.7744017599e+000,4.0078061013e+000,3.8757038937e+000,3.6716213627e+000,3.4542235666e+000,3.5411108981e+000,4.4795756772e+000,3.0844164707e+000,4.4473915835e+000,3.5736603770e+000,3.8022463682e+000,
3.5156250000e+001,3.7685743615e+000,4.4727901539e+000,3.5318508617e+000,3.7880005478e+000,4.0084202400e+000,3.9125385845e+000,3.6277114194e+000,3.4472100786e+000,3.5588237905e+000,4.4683086666e+000,3.0719379007e+000,4.5905919910e+000,3.5693378826e+000,3.9014458618e+000,
3.5250000000e+001,3.8186888717e+000,4.5575659514e+000,3.4847066566e+000,3.7810158388e+000,4.0613496849e+000,4.0759094520e+000,3.6236509820e+000,3.4508493659e+000,3.5386582710e+000,4.5550314944e+000,3.0206293706e+000,4.6223854705e+000,3.5600654779e+000,3.8280298242e+000,
3.5343750000e+001,3.7859733823e+000,4.6341401640e+000,3.7426135971e+000,4.1271292757e+000,4.1135788270e+000,4.1861326312e+000,3.8011282213e+000,3.6096533320e+000,3.4693710340e+000,4.6808856698e+000,2.9504310988e+000,4.6725670608e+000,3.4285460978e+000,3.8215699871e+000,
3.5437500000e+001,3.5774412851e+000,4.4199732390e+000,3.5195135659e+000,3.9252658133e+000,3.9106771326e+000,4.0331663929e+000,3.8821085590e+000,3.4253076000e+000,3.3173450628e+000,4.6560201667e+000,2.8470445431e+000,4.6345014824e+000,3.1330105920e+000,3.7329990841e+000,
3.5531250000e+001,3.4737949955e+000,4.3734098858e+000,3.4252988376e+000,3.8849274086e+000,3.8345460326e+000,4.0458512791e+000,3.8732152151e+000,3.3832096642e+000,3.2703200052e+000,4.6159039615e+000,2.8560268060e+000,4.5653489331e+000,3.1706912842e+000,3.7622544798e+000,
3.5625000000e+001,3.4584541789e+000,4.4179971440e+000,3.4908883663e+000,3.9413743958e+000,3.8731890360e+000,4.0136689303e+000,3.9153611156e+000,3.3726212439e+000,3.2509146363e+000,4.5582506908e+000,2.8822535868e+000,4.5664388238e+000,3.1577707693e+000,3.7641428411e+000,
3.5718750000e+001,3.4460229553e+000,4.4437745933e+000,3.4951039353e+000,3.9478764709e+000,3.8828328835e+000,4.1218414450e+000,4.0105861307e+000,3.4439659177e+000,3.3488673699e+000,4.8261386918e+000,2.9374342948e+000,4.6917048066e+000,3.1869627756e+000,3.8360366698e+000,
3.5812500000e+001,3.4909704419e+000,4.4622725639e+000,3.4971508826e+000,3.9247133595e+000,3.9210520101e+000,4.1651222542e+000,4.0931913804e+000,3.3840646979e+000,3.4350734010e+000,4.7039988701e+000,2.9266555390e+000,4.6143241822e+000,3.1878892569e+000,3.8021401983e+000,
3.5906250000e+001,3.7415745734e+000,4.5465867477e+000,3.5335401402e+000,4.0060108275e+000,4.1164076852e+000,4.3709487577e+000,4.0598125625e+000,3.4688892150e+000,3.5199693708e+000,4.7415473505e+000,2.9732759347e+000,4.6364200984e+000,3.3389082312e+000,3.8692222902e+000,
3.6000000000e+001,3.8652754944e+000,4.5816424329e+000,3.5947089150e+000,4.0330373184e+000,4.1856486479e+000,4.4179807206e+000,4.0933559014e+000,3.5274344033e+000,3.5895980729e+000,4.7821748684e+000,2.9854918682e+000,4.6569506827e+000,3.3358213562e+000,3.9510549110e+000,
3.6093750000e+001,3.8844655602e+000,4.5460373591e+000,3.7429976748e+000,4.1234051695e+000,4.2258828129e+000,4.4123579907e+000,4.1212646811e+000,3.5347384490e+000,3.5215989040e+000,4.7277144964e+000,3.1326341529e+000,4.5535590990e+000,3.2679753372e+000,3.8545250574e+000,
3.6187500000e+001,3.8749977180e+000,4.5627786897e+000,3.8364815519e+000,4.1624007779e+000,4.2559425963e+000,4.4128821610e+000,4.1999675115e+000,3.6192023097e+000,3.5005325819e+000,4.7267957752e+000,3.3078509078e+000,4.7007465784e+000,3.6032798186e+000,3.9466400717e+000,
3.6281250000e+001,3.7686695975e+000,4.4181986359e+000,3.8409788255e+000,4.0977130811e+000,4.2054076600e+000,4.4244544082e+000,4.1520190108e+000,3.5090087982e+000,3.5185323834e+000,4.5978093303e+000,3.2393037391e+000,4.6354095213e+000,3.6764831920e+000,3.9332051736e+000,
3.6375000000e+001,3.7404587609e+000,4.2641699911e+000,3.5749102184e+000,3.8724590410e+000,4.0976726568e+000,4.3052162667e+000,3.8847029387e+000,3.4760771538e+000,3.5932383703e+000,4.5407289481e+000,3.2010706926e+000,4.5627955555e+000,3.7191871078e+000,3.8896833470e+000,
3.6468750000e+001,3.8040626584e+000,4.3292368678e+000,3.6218507834e+000,3.9694161872e+000,4.1416920945e+000,4.3030148093e+000,3.8770774298e+000,3.6231564557e+000,3.6318535429e+000,4.7166979435e+000,3.2159883662e+000,4.6081844252e+000,3.6963915691e+000,3.9469733046e+000,
3.6562500000e+001,3.7770049850e+000,4.3913207366e+000,3.6647848184e+000,4.0177551406e+000,4.1207588881e+000,4.3090038129e+000,3.8428236474e+000,3.7594632155e+000,3.6699547816e+000,4.8513848468e+000,3.2339641735e+000,4.7004500749e+000,3.7095891869e+000,3.9723102199e+000,
3.6656250000e+001,3.8029926728e+000,4.3385935153e+000,3.7440285485e+000,4.0295374476e+000,4.1187602582e+000,4.2736250421e+000,3.7992753307e+000,3.7757448964e+000,3.7493294709e+000,4.7862295284e+000,3.2951176395e+000,4.6978959744e+000,3.7479400609e+000,3.9713232226e+000,
3.6750000000e+001,3.7945635692e+000,4.3112616988e+000,3.7854974999e+000,4.0054424336e+000,4.1149248301e+000,4.2486432963e+000,3.6178408150e+000,3.6790250793e+000,3.7805254651e+000,4.6945035720e+000,3.2527720739e+000,4.6810828518e+000,3.8360457789e+000,4.0365623670e+000,
3.6843750000e+001,3.8150605130e+000,4.4941092613e+000,3.8241143068e+000,4.0807155304e+000,4.0688710966e+000,4.2866661447e+000,3.6596257575e+000,3.6980172356e+000,3.6846737872e+000,4.7180196797e+000,3.3460885655e+000,4.6911189465e+000,3.7624997751e+000,4.0283911982e+000,
3.6937500000e+001,3.4532018588e+000,4.2928694133e+000,3.7860414962e+000,4.0185493950e+000,3.8390751514e+000,4.1698530976e+000,3.6102882808e+000,3.6879813509e+000,3.5629962445e+000,4.6741572869e+000,3.3683664511e+000,4.6564908899e+000,3.7779548088e+000,4.0063552278e+000,
3.7031250000e+001,3.3980414141e+000,4.3168815178e+000,3.7499835943e+000,3.9606171110e+000,3.7615064256e+000,4.1499255101e+000,3.5942009417e+000,3.6868194654e+000,3.5250297714e+000,4.7080232036e+000,3.3212401002e+000,4.7468697116e+000,3.7686094497e+000,3.9896137295e+000,
3.7125000000e+001,3.3589472748e+000,4.3363690136e+000,3.7029977019e+000,3.9580628395e+000,3.8265541353e+000,4.2563840092e+000,3.6630517977e+000,3.7198780831e+000,3.5177236177e+000,4.6937013849e+000,3.1374740834e+000,4.6071281446e+000,3.7345773861e+000,3.9559524882e+000,
3.7218750000e+001,3.3389404780e+000,4.2390009658e+000,3.5548965194e+000,3.8025431644e+000,3.7531837308e+000,4.2028452144e+000,3.5122739905e+000,3.5734750958e+000,3.5484488502e+000,4.7054299173e+000,3.0379834612e+000,4.4440219782e+000,3.3780248009e+000,3.8494972009e+000,
3.7312500000e+001,3.3749357011e+000,4.3098990529e+000,3.5111841871e+000,3.7887356559e+000,3.7480307058e+000,4.2201968283e+000,3.5382854185e+000,3.5645179764e+000,3.5146607367e+000,4.8553686736e+000,3.1505573256e+000,4.5148025295e+000,3.3229703198e+000,3.8270224728e+000,
3.7406250000e+001,3.4026505020e+000,4.3984351832e+000,3.5430140539e+000,3.8033769172e+000,3.7723819821e+000,4.2740287502e+000,3.5524002552e+000,3.4633899434e+000,3.4193732765e+000,4.8299251135e+000,3.1498689311e+000,4.5291258504e+000,3.2602272250e+000,3.8174852213e+000,
3.7500000000e+001,3.3200970809e+000,4.2793799119e+000,3.4991260870e+000,3.6606198220e+000,3.6885559359e+000,4.2708756113e+000,3.6341258050e+000,3.2945617616e+000,3.3947844601e+000,4.6842794266e+000,3.1814528476e+000,4.4160359653e+000,3.3743295481e+000,3.7460094401e+000,
3.7593750000e+001,3.3440348684e+000,4.3645920830e+000,3.4948569296e+000,3.6763759957e+000,3.7708244018e+000,4.2829209082e+000,3.7447797289e+000,3.2443954411e+000,3.3434746276e+000,4.6171552394e+000,3.1550392968e+000,4.3588707483e+000,3.3771707741e+000,3.7392172477e+000,
3.7687500000e+001,3.3108545993e+000,4.4391292957e+000,3.3569340386e+000,3.6721519093e+000,3.8476572351e+000,4.2645515065e+000,3.7724316799e+000,3.2790462578e+000,3.2009004305e+000,4.6087440827e+000,3.1844974693e+000,4.3002086136e+000,3.2563978973e+000,3.6754253863e+000,
3.7781250000e+001,3.4091870071e+000,4.5292488032e+000,3.6295493624e+000,3.9646824532e+000,3.9187209800e+000,4.3398815291e+000,3.8230333751e+000,3.3971585371e+000,3.1381047527e+000,4.6890975336e+000,3.0560347885e+000,4.2636850010e+000,3.1735592184e+000,3.6444246378e+000,
3.7875000000e+001,3.4997664022e+000,4.4222246098e+000,3.6604491531e+000,3.9661784845e+000,3.9307147112e+000,4.3084801830e+000,3.8040364540e+000,3.4492379329e+000,3.1413085315e+000,4.7450962053e+000,2.9206264082e+000,4.3732246716e+000,3.1632042373e+000,3.8575656785e+000,
3.7968750000e+001,3.4947234253e+000,4.4377187970e+000,3.6600857805e+000,3.9387606248e+000,3.9726212442e+000,4.4249610067e+000,3.8316798820e+000,3.3929375766e+000,3.2190483411e+000,4.7454270074e+000,2.9852666512e+000,4.3577771103e+000,3.1844688397e+000,3.8468697358e+000,
3.8062500000e+001,3.5493609076e+000,4.3486966903e+000,3.6435528935e+000,3.9313914013e+000,4.1691224127e+000,4.4563125555e+000,3.8994631406e+000,3.3461594344e+000,3.2766306371e+000,4.7223632013e+000,3.1500022870e+000,4.2898669902e+000,3.2885804074e+000,3.9289730893e+000,
3.8156250000e+001,3.8532019345e+000,4.4104672222e+000,3.8481396516e+000,4.0380679669e+000,4.4243961275e+000,4.4555351792e+000,4.0032932614e+000,3.4011068308e+000,3.4396464313e+000,4.7858226010e+000,3.1935445390e+000,4.3990910558e+000,3.2222615353e+000,4.0070168902e+000,
3.8250000000e+001,3.8807650719e+000,4.4637424753e+000,3.8849191851e+000,4.0425928115e+000,4.4364372956e+000,4.4418876121e+000,4.0286712886e+000,3.4566111716e+000,3.4206441711e+000,4.7550759093e+000,3.1595716156e+000,4.4099137095e+000,3.1904821980e+000,4.0307535132e+000,
3.8343750000e+001,4.0851038062e+000,4.4965702927e+000,3.8982618291e+000,4.1034255282e+000,4.5098170983e+000,4.4035859795e+000,4.2368905129e+000,3.4805314745e+000,3.5628470655e+000,4.6312524506e+000,3.0950302671e+000,4.3955512873e+000,3.1404033159e+000,4.0440797997e+000,
3.8437500000e+001,4.1819092007e+000,4.5252160302e+000,3.9386532533e+000,4.1562605741e+000,4.5451509266e+000,4.3796878815e+000,4.2342404911e+000,3.5469673604e+000,3.6226530911e+000,4.6133808060e+000,3.1697478294e+000,4.5306314054e+000,3.1900021802e+000,4.1531788748e+000,
3.8531250000e+001,4.1659353352e+000,4.5192028901e+000,3.9183949707e+000,4.0904505749e+000,4.5546959230e+000,4.3370711589e+000,4.2171757288e+000,3.4671407481e+000,3.5312682607e+000,4.5793655869e+000,3.1451953064e+000,4.5371309269e+000,3.0849711077e+000,4.1487202741e+000,
3.8625000000e+001,4.1822640182e+000,4.4637805663e+000,3.8934273682e+000,4.1713538437e+000,4.4922596954e+000,4.3663035367e+000,4.1508967872e+000,3.5475357393e+000,3.5230271301e+000,4.6320700370e+000,3.2137372022e+000,4.5466570962e+000,3.0825030112e+000,4.1574204911e+000,
3.8718750000e+001,4.1655899183e+000,4.4486079290e+000,3.8719799745e+000,4.1495878030e+000,4.4929938762e+000,4.4199983434e+000,4.1203390841e+000,3.5980492334e+000,3.5249362471e+000,4.7036494114e+000,3.1585154708e+000,4.5777341224e+000,3.0286300705e+000,4.1628688487e+000,
3.8812500000e+001,4.1077825382e+000,4.3453514411e+000,3.7102442226e+000,4.0349448410e+000,4.4772689985e+000,4.3486352529e+000,4.0928795573e+000,3.6016472302e+000,3.5031195502e+000,4.6592451380e+000,3.1971148755e+000,4.5610994625e+000,3.0775009961e+000,4.1791920469e+000,
3.8906250000e+001,4.0921581100e+000,4.3947620382e+000,3.6781669048e+000,4.2063085434e+000,4.4856537245e+000,4.2846229910e+000,4.0671852581e+000,3.6726763083e+000,3.4667767373e+000,4.5654017949e+000,3.2458683576e+000,4.5000569034e+000,3.0504792757e+000,4.0232123374e+000,
3.9000000000e+001,4.1154297714e+000,4.4134199908e+000,3.6198526051e+000,4.2140424159e+000,4.5048951873e+000,4.1934403753e+000,4.0323561891e+000,3.6746378111e+000,3.4072486548e+000,4.5208174223e+000,3.0888955103e+000,4.4399631177e+000,2.9560462478e+000,3.9212359473e+000,
3.9093750000e+001,4.0942038259e+000,4.4457952647e+000,3.4716898965e+000,4.1631591221e+000,4.2552025630e+000,4.1175898278e+000,3.9894165911e+000,3.6247890856e+000,3.1461207363e+000,4.5412629364e+000,3.0902916907e+000,4.4170762202e+000,3.1577561521e+000,3.8857549092e+000,
3.9187500000e+001,3.8493413531e+000,4.3840935578e+000,3.2332503579e+000,4.0983704658e+000,4.0758971892e+000,4.0930295051e+000,3.8781130744e+000,3.5789008919e+000,3.1745148745e+000,4.4883594418e+000,3.1686902193e+000,4.3936638699e+000,3.1804413054e+000,3.8576998702e+000,
3.9281250000e+001,3.6433526114e+000,4.2932185591e+000,3.1354883785e+000,4.1692593925e+000,4.0181772941e+000,4.0849099559e+000,3.7989709835e+000,3.5618781552e+000,3.1079755852e+000,4.5220848078e+000,3.3389458709e+000,4.4733154762e+000,3.3620489384e+000,3.8045212038e+000,
3.9375000000e+001,3.4424607428e+000,4.1058746232e+000,3.1843560882e+000,4.1598141803e+000,3.8768902128e+000,4.1108503959e+000,3.9129659978e+000,3.6514810480e+000,2.9701249276e+000,4.6996632951e+000,3.4067852243e+000,4.5118526661e+000,3.4968186676e+000,3.8952537649e+000,
3.9468750000e+001,3.3737970564e+000,4.0205019165e+000,3.1752188448e+000,4.1514699669e+000,3.9711003882e+000,4.2475960191e+000,3.8978824176e+000,3.6692038006e+000,2.9890804127e+000,4.7826871768e+000,3.4134392434e+000,4.3931523695e+000,3.5790404480e+000,3.7109895986e+000,
3.9562500000e+001,3.3276673775e+000,4.0641221845e+000,3.3702929831e+000,4.1888766565e+000,3.9220817047e+000,4.1661048867e+000,3.8675497362e+000,3.6388164489e+000,3.0254951652e+000,4.7022405510e+000,3.4211214197e+000,4.3877584144e+000,3.6844096196e+000,3.6720222851e+000,
3.9656250000e+001,3.4571329672e+000,4.2333307268e+000,3.5933969486e+000,4.3043854652e+000,3.9706498505e+000,4.1892543334e+000,3.8915522038e+000,3.6906310521e+000,3.0463703135e+000,4.7848724172e+000,3.3870334520e+000,4.4481250708e+000,3.6467983461e+000,3.6859783853e+000,
3.9750000000e+001,3.4829630482e+000,4.3047932513e+000,3.6562024705e+000,4.3087775218e+000,4.0384551189e+000,4.1720657334e+000,3.8222502686e+000,3.7362733970e+000,3.0945912934e+000,4.7439626440e+000,3.4065433282e+000,4.4095286162e+000,3.7370333347e+000,3.6067057130e+000,
3.9843750000e+001,3.4664159198e+000,4.3373045338e+000,3.6710314105e+000,4.2132925416e+000,4.0550575600e+000,4.2238347412e+000,3.8680964160e+000,3.7052028583e+000,3.1366439142e+000,4.7807232060e+000,3.4383150052e+000,4.4413875396e+000,3.7722742410e+000,3.5866718678e+000,
3.9937500000e+001,3.5386344705e+000,4.3145726712e+000,4.1084602931e+000,4.0852740083e+000,4.0445065018e+000,4.1992349113e+000,3.9589284092e+000,3.6509163031e+000,3.2704360915e+000,4.8443667218e+000,3.4626821190e+000,4.5578777604e+000,3.8292139878e+000,3.6095542995e+000,
4.0031250000e+001,3.4891479144e+000,4.3864769356e+000,4.1522996403e+000,4.0804350613e+000,4.0160836203e+000,4.2035209125e+000,3.9601330042e+000,3.6437729139e+000,3.3521428953e+000,4.8537719371e+000,3.4468610881e+000,4.5753317512e+000,3.7326450674e+000,3.5876850568e+000,
4.0125000000e+001,3.4761730721e+000,4.4498972007e+000,4.1599455024e+000,4.0365154581e+000,4.0289604012e+000,4.1068424912e+000,3.8945989613e+000,3.6391574607e+000,3.3336010472e+000,4.8860822324e+000,3.4600402499e+000,4.5596352686e+000,3.6999797179e+000,3.5262297932e+000,
4.0218750000e+001,3.4863498864e+000,4.4765932057e+000,4.2182209493e+000,4.0388340331e+000,4.0012257439e+000,4.1149086423e+000,3.8354736481e+000,3.6702713824e+000,3.2477659571e+000,4.8200417116e+000,3.4515552108e+000,4.4842975849e+000,3.6845073560e+000,3.4556729473e+000,
4.0312500000e+001,3.4345311646e+000,4.4575678152e+000,4.2207030422e+000,3.8846076438e+000,3.9345415655e+000,4.1350877802e+000,3.7701230079e+000,3.6832429212e+000,3.2740074039e+000,4.8049201291e+000,3.1892634344e+000,4.3707059845e+000,3.5265056487e+000,3.4117532648e+000,
4.0406250000e+001,3.3693741398e+000,4.4698979670e+000,4.2422368722e+000,3.8956387393e+000,3.8741855433e+000,4.0995285604e+000,3.6254809560e+000,3.6279199068e+000,3.2103853309e+000,4.6239653651e+000,3.1494393629e+000,4.2369141510e+000,3.5674492708e+000,3.3706912125e+000,
4.0500000000e+001,3.3827761739e+000,4.4631073077e+000,4.2580363139e+000,3.9106590908e+000,3.7775381614e+000,4.0373106740e+000,3.6325283838e+000,3.6262025472e+000,3.2394418391e+000,4.6291811441e+000,3.0451529311e+000,4.1922339869e+000,3.4260425775e+000,3.4167332600e+000,
4.0593750000e+001,3.4011512291e+000,4.3236528696e+000,4.1249545493e+000,3.6259924547e+000,3.7280907692e+000,4.0573746915e+000,3.7780272124e+000,3.5390247847e+000,3.2394595218e+000,4.5626423035e+000,3.0592152563e+000,4.1182052258e+000,3.3188361023e+000,3.4348592486e+000,
4.0687500000e+001,3.2559121682e+000,4.2804014462e+000,4.1009660165e+000,3.4776484883e+000,3.7826010314e+000,4.1689387614e+000,3.8814509627e+000,3.5118551493e+000,3.2116266495e+000,4.4754233801e+000,3.0000816653e+000,4.1229613719e+000,3.2145344295e+000,3.4399274148e+000,
4.0781250000e+001,3.2637940493e+000,4.1230044769e+000,4.0840081908e+000,3.4314439546e+000,3.6843170757e+000,4.0176749465e+000,3.8397779839e+000,3.3562101245e+000,3.2483110423e+000,4.3154182410e+000,3.0181935503e+000,4.0058963421e+000,3.1438581247e+000,3.4247623443e+000,
4.0875000000e+001,3.3224355462e+000,4.1196381091e+000,3.9767656295e+000,3.3910803923e+000,3.7204375685e+000,4.1448051843e+000,3.8555612276e+000,3.3253716944e+000,3.2201437216e+000,4.1995255188e+000,3.0084600945e+000,3.8652386012e+000,3.1382788752e+000,3.4857321417e+000,
4.0968750000e+001,3.2947553260e+000,4.1112991158e+000,3.6044123980e+000,3.4386371265e+000,3.8093397882e+000,4.1141169617e+000,3.8034657127e+000,3.3116650946e+000,3.2050688607e+000,4.2934613121e+000,2.9462558157e+000,3.7550715751e+000,3.1778886470e+000,3.5026349951e+000,
4.1062500000e+001,3.3192711126e+000,3.9555056812e+000,3.6188659633e+000,3.4723203384e+000,3.7796876874e+000,4.1235966059e+000,3.8883560253e+000,3.3311242246e+000,3.2670152863e+000,4.2940993193e+000,2.9608729863e+000,3.8161097059e+000,3.2076242039e+000,3.5888182244e+000,
4.1156250000e+001,3.3995385078e+000,3.9390310091e+000,3.5842781632e+000,3.5291777745e+000,3.8218795926e+000,4.1638582414e+000,3.9164081824e+000,3.3380743917e+000,3.3491097253e+000,4.3426031655e+000,2.9491186850e+000,3.9735319326e+000,3.3036757987e+000,3.7547821286e+000,
