Time (s),AF3,AF4,F3,F4,F7,F8,FC5,FC6,T7,T8,P7,P8,O1,O2,Sampling Rate
0.0000000000e+000,4.2075499553e+000,3.9923163733e+000,3.1859468150e+000,3.8598945651e+000,4.0349873737e+000,4.6900283985e+000,3.2840573373e+000,3.8786005668e+000,3.5599480870e+000,4.0094403377e+000,1.5000025650e+000,3.6278880872e+000,2.9919704966e+000,3.7313222368e+000,1
9.3750000000e-002,4.1942782050e+000,3.9622847121e+000,3.1069331435e+000,3.9804278223e+000,4.0337817413e+000,4.5866315012e+000,3.2104142682e+000,3.9034982747e+000,3.3392084015e+000,3.9529970211e+000,1.5548547485e+000,3.4305776441e+000,3.0115945996e+000,3.6439076714e+000,
1.8750000000e-001,4.0744825378e+000,3.9135537863e+000,3.1036666855e+000,4.0570405747e+000,3.9251057971e+000,4.5160493779e+000,3.1134423119e+000,3.9272746964e+000,3.4093119359e+000,4.0009287154e+000,1.4703744606e+000,3.4468409987e+000,2.8806492547e+000,3.6447178771e+000,
2.8125000000e-001,4.0934518492e+000,3.9972420271e+000,3.1772049072e+000,4.0605738048e+000,3.9935155615e+000,4.5419976290e+000,3.0945135989e+000,3.9403759724e+000,3.4022147829e+000,4.0397673093e+000,1.5159705468e+000,3.5276266078e+000,2.9680467529e+000,3.7344079133e+000,
3.7500000000e-001,4.0852294072e+000,4.0433968846e+000,3.2280309827e+000,4.1306597504e+000,4.0252495706e+000,4.5558172477e+000,3.1539611619e+000,3.9912028738e+000,3.3570753060e+000,4.0538520120e+000,1.5160125186e+000,3.6415319628e+000,2.9649345299e+000,3.7549013653e+000,
4.6875000000e-001,4.0424771920e+000,4.0107573377e+000,3.2611556329e+000,4.1965407297e+000,3.9268699993e+000,4.5071106166e+000,3.2574129693e+000,3.9616828651e+000,3.3658725970e+000,4.1126465354e+000,1.6914467693e+000,3.6973084528e+000,3.0988192480e+000,3.7779116071e+000,
5.6250000000e-001,4.0155610040e+000,4.0422966972e+000,3.2490384768e+000,4.2619752777e+000,3.9669014719e+000,4.5395316480e+000,3.1620492216e+000,4.0080494651e+000,3.3879945673e+000,4.0156234389e+000,1.7399866789e+000,3.6272445561e+000,3.1207291498e+000,3.7850895131e+000,
6.5625000000e-001,3.8465539134e+000,3.9818362738e+000,3.2335047373e+000,4.2434945175e+000,3.9642707346e+000,4.4450834466e+000,3.0936929299e+000,4.1023498130e+000,3.3879458545e+000,3.9094169456e+000,1.7028258570e+000,3.5303896130e+000,3.0545318270e+000,3.7503472996e+000,
7.5000000000e-001,3.5490172229e+000,3.8237061121e+000,3.2662422997e+000,4.1398704140e+000,3.7936228033e+000,4.2314081153e+000,3.0392628276e+000,4.1267594495e+000,3.3316330892e+000,3.9956416763e+000,1.7279383192e+000,3.6934921616e+000,3.2274170664e+000,3.9360550722e+000,
8.4375000000e-001,3.5059501633e+000,3.7445352710e+000,3.2015599392e+000,4.1197268210e+000,3.8746646822e+000,4.2104098203e+000,3.1299523794e+000,4.1360638175e+000,3.2673623018e+000,4.0185646202e+000,1.6375974105e+000,3.6463595587e+000,3.1361940761e+000,3.8418347393e+000,
9.3750000000e-001,3.5375721955e+000,3.7318686991e+000,3.2266587091e+000,4.1685351296e+000,3.8397998662e+000,4.2153850881e+000,3.0706711022e+000,4.1475100302e+000,3.2429373423e+000,3.9518293339e+000,1.5541102343e+000,3.6169753188e+000,3.0960225084e+000,3.6997931084e+000,
1.0312500000e+000,3.5980100603e+000,3.7094389134e+000,3.3029325522e+000,4.0811148741e+000,3.9554650145e+000,4.1693566955e+000,3.0699057623e+000,4.1258853360e+000,3.2661478026e+000,3.9414472503e+000,1.5053518782e+000,3.5948500060e+000,3.0819939250e+000,3.6759289859e+000,
1.1250000000e+000,3.6545825335e+000,3.7358701190e+000,3.2854532280e+000,4.0137491095e+000,3.9346275420e+000,4.2418936044e+000,3.1274459054e+000,4.1234921602e+000,3.2117202854e+000,3.9774498125e+000,1.5273748781e+000,3.6097533173e+000,3.0201083428e+000,3.7376287585e+000,
1.2187500000e+000,3.7211391613e+000,3.6750776257e+000,3.3166074369e+000,3.9517954988e+000,3.9458683261e+000,4.2727658191e+000,3.0809029882e+000,4.1694544955e+000,3.2358611830e+000,3.9619737790e+000,1.5256383435e+000,3.6014418527e+000,2.9839168175e+000,3.8190698609e+000,
1.3125000000e+000,3.7637640410e+000,3.6924741674e+000,3.3278986831e+000,3.9496565905e+000,3.9019807773e+000,4.2238061620e+000,3.0763101752e+000,4.1718438703e+000,3.2695724329e+000,3.9099108906e+000,1.4653944465e+000,3.5616105993e+000,3.0238645027e+000,3.7548812297e+000,
1.4062500000e+000,3.8405922616e+000,3.6563257261e+000,3.3396809278e+000,3.8714440743e+000,3.9358439514e+000,4.1508879171e+000,3.0138591873e+000,4.0756812978e+000,3.2801046787e+000,3.8143431463e+000,1.2764941076e+000,3.4810764081e+000,2.9456843188e+000,3.7590486508e+000,
1.5000000000e+000,3.8712623307e+000,3.6644425232e+000,3.2732405961e+000,3.7235384836e+000,3.9041658008e+000,4.0940886008e+000,2.9134507328e+000,3.9946498204e+000,3.2707826323e+000,3.6985654086e+000,1.0703143694e+000,3.4574732804e+000,3.0018573068e+000,3.7687743753e+000,
1.5937500000e+000,3.9876195082e+000,3.7955452968e+000,3.3465433472e+000,3.6937786619e+000,3.8526742620e+000,4.1300276192e+000,2.9234783009e+000,4.0097047817e+000,3.2715340240e+000,3.7514554844e+000,1.1255127535e+000,3.5078553797e+000,3.0824325675e+000,3.7549517025e+000,
1.6875000000e+000,4.0772744327e+000,3.7987525230e+000,3.3680449034e+000,3.7177701932e+000,3.9178979669e+000,4.1491925537e+000,3.0327559815e+000,3.9171745710e+000,3.2990092619e+000,3.7061848322e+000,1.2066797102e+000,3.4599320833e+000,3.0845940275e+000,3.8254492751e+000,
1.7812500000e+000,4.1028259122e+000,3.8896126135e+000,3.3682506466e+000,3.7241092003e+000,3.9668685076e+000,4.2073702490e+000,2.9113612087e+000,3.7978230847e+000,3.2709335557e+000,3.5355883296e+000,1.1830270138e+000,3.2690512502e+000,2.8917464448e+000,3.6695915019e+000,
1.8750000000e+000,4.0416264801e+000,3.8965464117e+000,3.3587381600e+000,3.7687362735e+000,4.0011604002e+000,4.1171628788e+000,2.7980663097e+000,3.7618751761e+000,3.2615958799e+000,3.6143731123e+000,1.2591562279e+000,3.2983256454e+000,2.9739359374e+000,3.7013330527e+000,
1.9687500000e+000,3.9765069946e+000,3.7825350867e+000,3.2011768749e+000,3.6011719491e+000,3.9265685370e+000,4.0261812381e+000,2.6830837379e+000,3.6320100334e+000,3.2334290798e+000,3.5824195514e+000,1.5690018929e+000,3.4382416806e+000,3.0581671632e+000,3.7246460664e+000,
2.0625000000e+000,3.9761866713e+000,3.8161175737e+000,3.2164690687e+000,3.5028328375e+000,3.8804189088e+000,3.9888247577e+000,2.5708100197e+000,3.5439636575e+000,3.2184612786e+000,3.5864420067e+000,1.5984269164e+000,3.4851023844e+000,3.1172029591e+000,3.7304222188e+000,
2.1562500000e+000,3.9598409110e+000,3.8435504890e+000,3.2028530709e+000,4.9169320960e+000,3.9409331932e+000,3.9205607403e+000,2.5538037195e+000,3.5226330208e+000,3.0821100818e+000,3.5283758347e+000,1.5890991144e+000,3.5388011484e+000,3.1719287006e+000,3.7686463636e+000,
2.2500000000e+000,3.9133566959e+000,4.8896437725e+000,4.5585440516e+000,1.0609449320e+001,3.9864388168e+000,3.9827399758e+000,2.9717397430e+000,4.4250811778e+000,2.9931580545e+000,3.7006252809e+000,3.2952993251e+000,3.6978690302e+000,3.1805075488e+000,3.8259238437e+000,
2.3437500000e+000,3.8424167440e+000,4.9813630637e+000,4.6096143984e+000,1.0839712528e+001,3.9945424178e+000,3.9810390765e+000,3.0053221981e+000,4.7360734020e+000,2.9592240800e+000,3.7429171163e+000,3.3438405022e+000,3.7670897798e+000,3.1731271012e+000,3.8769240729e+000,
2.4375000000e+000,3.7435693903e+000,4.9703580656e+000,4.5961122808e+000,1.0840834305e+001,3.9781996612e+000,4.0035515307e+000,3.0968972508e+000,4.7630925484e+000,3.0072639307e+000,3.6469434173e+000,3.3455175690e+000,3.7021011934e+000,3.1170640330e+000,3.7851836252e+000,
2.5312500000e+000,3.6932062306e+000,4.9690424349e+000,4.5922490092e+000,1.0840997372e+001,4.0066613002e+000,3.9928600707e+000,3.1290046691e+000,4.8333257901e+000,3.0511645923e+000,3.6789759293e+000,3.3588182276e+000,3.6616104510e+000,3.0987669853e+000,3.7543357471e+000,
2.6250000000e+000,3.4488366445e+000,4.9283775327e+000,4.5735373472e+000,1.0841234160e+001,3.9789388721e+000,3.8892338919e+000,3.1468717790e+000,4.8105866658e+000,3.0484363560e+000,3.6386352464e+000,3.3433809664e+000,3.7539226357e+000,3.0745472387e+000,3.7531103522e+000,
2.7187500000e+000,3.3266656173e+000,4.9116904157e+000,4.5591476334e+000,1.0841360235e+001,3.9020326725e+000,3.7565931404e+000,3.1156044885e+000,4.7882202049e+000,2.9493057441e+000,3.5713683174e+000,3.3549581818e+000,3.7325399696e+000,3.0532601296e+000,3.6682315092e+000,
2.8125000000e+000,3.3235986294e+000,4.8872943398e+000,4.5582903850e+000,1.0841743413e+001,3.8490905412e+000,3.7148081374e+000,3.1696685327e+000,4.7933257466e+000,3.0375385125e+000,3.5804132509e+000,3.3528631363e+000,3.6787122974e+000,3.0381419503e+000,3.6815526630e+000,
2.9062500000e+000,3.4181416330e+000,4.8862904112e+000,4.5674715945e+000,1.0841972205e+001,3.7746583936e+000,3.9655288331e+000,3.2403487440e+000,4.8120103149e+000,3.0513399423e+000,3.6174477119e+000,3.3499322619e+000,3.7553415779e+000,3.0953808244e+000,3.7628999248e+000,
3.0000000000e+000,3.4063494795e+000,4.8853689587e+000,4.5550757303e+000,1.0847366735e+001,4.1239588238e+000,4.7404760993e+000,3.3870294192e+000,4.9067418445e+000,3.1488146520e+000,4.2836585580e+000,3.3552122115e+000,3.8849078223e+000,3.1921462022e+000,3.9024324912e+000,
3.0937500000e+000,3.3847359067e+000,4.8875208235e+000,4.5797515897e+000,1.0849732997e+001,4.1433116275e+000,5.3534463934e+000,3.4986071225e+000,4.9732329608e+000,3.1720337083e+000,4.4803826144e+000,3.3556692770e+000,3.9062165995e+000,3.1992311854e+000,3.8862426009e+000,
3.1875000000e+000,3.3161139255e+000,4.6455485108e+000,4.4136710239e+000,1.0559852417e+001,4.1847287286e+000,5.4054406779e+000,3.4768133717e+000,4.8853865848e+000,3.2759700805e+000,4.5858468210e+000,3.0229690338e+000,3.8690921713e+000,3.2654300375e+000,3.7798780553e+000,
3.2812500000e+000,3.4486381813e+000,3.5788571750e+000,3.1434986813e+000,8.3815821596e+000,4.1778921568e+000,5.5000064631e+000,3.4124378685e+000,4.3925102952e+000,3.2096264762e+000,4.5293422620e+000,1.9328702338e+000,3.7040814245e+000,3.2505023894e+000,3.5788840943e+000,
3.3750000000e+000,3.4886512539e+000,3.8944423579e+000,2.9832760029e+000,8.3350001634e+000,4.2946510741e+000,5.5433401062e+000,3.4417858915e+000,4.4629374776e+000,3.2195851414e+000,4.6625868218e+000,1.8278449451e+000,3.7533223514e+000,3.2915423846e+000,3.6219384527e+000,
3.4687500000e+000,3.5848990383e+000,4.2266409218e+000,3.1259882925e+000,8.7792081639e+000,4.4348717916e+000,5.5662866154e+000,3.4343435398e+000,9.3989254093e+000,3.2743553102e+000,4.7892526759e+000,1.8370679856e+000,4.1788303120e+000,3.3126903313e+000,3.6275687668e+000,
3.5625000000e+000,3.5485817045e+000,4.2939827333e+000,3.1935163500e+000,8.9924838723e+000,4.4912416491e+000,5.6067210642e+000,3.4552426567e+000,9.5656023657e+000,3.2357246416e+000,4.8163526295e+000,1.8425027091e+000,4.2553488447e+000,3.3340467478e+000,3.6012809632e+000,
3.6562500000e+000,3.5743998885e+000,4.3019821702e+000,3.2092820654e+000,9.0207249578e+000,4.4687599584e+000,5.6313492980e+000,3.5344222441e+000,9.5704134052e+000,3.2866833322e+000,4.8413849756e+000,1.8771059807e+000,4.2662531772e+000,3.3922348081e+000,3.6655803421e+000,
3.7500000000e+000,3.5198543218e+000,4.2794648829e+000,3.1759479634e+000,9.0237196485e+000,4.4567821070e+000,5.6269748266e+000,3.5354394888e+000,9.5706729031e+000,3.3288125073e+000,4.8434625347e+000,1.8327706925e+000,4.2458460423e+000,3.4018957985e+000,3.6744227193e+000,
3.8437500000e+000,3.4687788811e+000,4.2685522295e+000,3.1366765057e+000,9.0238099651e+000,4.4674487088e+000,5.6157969855e+000,3.5489449402e+000,9.5704926380e+000,3.2965815974e+000,4.8392311679e+000,1.8218080684e+000,4.2388163390e+000,3.3898022992e+000,3.7184143111e+000,
3.9375000000e+000,3.4661286896e+000,4.2392133902e+000,3.1136289264e+000,8.9979005484e+000,4.4110525654e+000,5.4931833614e+000,3.4634784346e+000,9.5698574705e+000,3.3392991152e+000,4.8016438454e+000,1.6843382930e+000,4.1269810459e+000,3.2692065421e+000,3.6143232982e+000,
4.0312500000e+000,3.4068764116e+000,4.2245235767e+000,3.0575653178e+000,8.9946782394e+000,4.2282799601e+000,5.1664037680e+000,3.2254641767e+000,9.5692246741e+000,3.3102098651e+000,4.4558812545e+000,1.7378942338e+000,4.0498834273e+000,3.1436760837e+000,3.4785484906e+000,
4.1250000000e+000,3.4180165872e+000,4.1500950216e+000,3.0358473849e+000,8.9707899860e+000,4.1723259104e+000,4.6775779628e+000,3.2975022864e+000,9.5687842194e+000,3.3193994270e+000,4.1659330236e+000,1.7168405729e+000,4.0633441056e+000,3.0731339688e+000,3.4774476869e+000,
4.2187500000e+000,3.4658443135e+000,4.1440973552e+000,3.1270505192e+000,8.9672570337e+000,4.0679473384e+000,4.5891278355e+000,3.3378461064e+000,9.5688772772e+000,3.2507702099e+000,4.1606019428e+000,1.6367013423e+000,4.0531635805e+000,3.0021570742e+000,3.4229087730e+000,
4.3125000000e+000,3.3872470955e+000,4.1181858856e+000,3.1766489959e+000,8.8144188536e+000,4.0114983486e+000,4.3084826962e+000,3.1902021086e+000,9.5679316306e+000,3.3874912988e+000,4.1715270538e+000,1.7014796249e+000,4.1704550689e+000,3.1617418588e+000,3.7747331465e+000,
4.4062500000e+000,3.4196877643e+000,3.5287370401e+000,2.9761213836e+000,7.9000669748e+000,3.7494799265e+000,4.1812252858e+000,3.1700944357e+000,9.5586834091e+000,3.3062390377e+000,3.8324430927e+000,1.6500624026e+000,4.1132293311e+000,3.0681382827e+000,3.7681868398e+000,
4.5000000000e+000,3.6112200501e+000,3.6738707601e+000,2.9137328162e+000,7.4929441141e+000,3.5589715988e+000,4.2374844396e+000,3.1423781763e+000,6.5854628764e+000,3.3943813966e+000,3.6775111000e+000,1.6390535332e+000,3.5873016804e+000,3.0894084719e+000,3.7869143610e+000,
4.5937500000e+000,3.5925925095e+000,3.5254654432e+000,2.8360845131e+000,5.7877507939e+000,3.5182143455e+000,3.9918103181e+000,3.0100058440e+000,4.2135879720e+000,3.3968029974e+000,3.5822935087e+000,1.6304063303e+000,3.5607256101e+000,3.0829644093e+000,3.8384286499e+000,
4.6875000000e+000,3.6542285837e+000,3.6075394412e+000,2.8731339253e+000,5.1320473684e+000,3.5701995612e+000,4.0087032089e+000,2.9316641432e+000,3.5050033377e+000,3.4987482395e+000,3.6240806623e+000,1.7001159554e+000,3.5119381257e+000,3.2514210103e+000,3.8357599256e+000,
4.7812500000e+000,3.6446974695e+000,3.6733765229e+000,2.8887500549e+000,4.8787114131e+000,3.6619883057e+000,4.0639705441e+000,3.0155649000e+000,3.5449237983e+000,3.4930150017e+000,3.5637779815e+000,1.8360589751e+000,3.4988773074e+000,3.3482395135e+000,3.7838453999e+000,
4.8750000000e+000,3.6385008752e+000,3.6615882474e+000,2.7893948844e+000,4.9621711647e+000,3.5789303058e+000,4.0121555206e+000,3.0683750380e+000,3.5558521796e+000,3.4743141429e+000,3.5577749282e+000,1.8489935359e+000,3.4967224703e+000,3.2593291828e+000,3.7223383396e+000,
4.9687500000e+000,3.5873928331e+000,3.6609143911e+000,2.7650682654e+000,4.8643065538e+000,3.6239381534e+000,3.9622598974e+000,3.2425031160e+000,3.6099038106e+000,3.4018207453e+000,3.5093913444e+000,1.8682195881e+000,3.4507710174e+000,3.2383875000e+000,3.6761920411e+000,
5.0625000000e+000,3.6140986896e+000,3.6915303899e+000,2.7329996021e+000,4.8478057302e+000,3.6447412405e+000,3.9869908036e+000,3.2568229569e+000,3.6563551706e+000,3.3505473964e+000,3.5105359687e+000,1.7837826801e+000,3.3424167057e+000,3.1760706914e+000,3.6717073023e+000,
5.1562500000e+000,3.6210240890e+000,3.6928041675e+000,2.7613038824e+000,4.8393874741e+000,3.7084750122e+000,4.0158249996e+000,3.2941363264e+000,3.6380363093e+000,3.3853519482e+000,3.5817855671e+000,1.7914258136e+000,3.3316771462e+000,3.2675958233e+000,3.7327580706e+000,
5.2500000000e+000,3.5929263765e+000,3.6765897752e+000,2.6674003489e+000,4.9845623437e+000,3.7511803374e+000,3.9125430591e+000,3.2246093581e+000,3.5492835754e+000,3.3621242103e+000,3.5345274703e+000,1.7978542864e+000,3.4218796880e+000,3.3313809418e+000,3.8445989041e+000,
5.3437500000e+000,3.6645068646e+000,3.6990567888e+000,2.7839864844e+000,4.9844871607e+000,3.7475447014e+000,3.9646305208e+000,3.1828699045e+000,3.6295112795e+000,3.3455244824e+000,3.5958661166e+000,1.6848479372e+000,3.4191794361e+000,3.2179914902e+000,3.5803326054e+000,
5.4375000000e+000,3.3903504496e+000,3.5619853013e+000,2.7256858565e+000,4.9888915629e+000,3.6778241356e+000,3.8943303084e+000,3.1512176224e+000,3.5829641133e+000,3.3278741459e+000,3.6259403317e+000,1.6773649995e+000,3.4200220232e+000,3.2386345775e+000,3.5965641088e+000,
5.5312500000e+000,3.3844910710e+000,3.4574913895e+000,2.8201580225e+000,4.9959875569e+000,3.7733687446e+000,3.8624800909e+000,3.1539411654e+000,3.6557428372e+000,3.1897311872e+000,3.7675946308e+000,1.7294082556e+000,3.6389512332e+000,3.2885406885e+000,3.7044177099e+000,
5.6250000000e+000,3.3669995981e+000,3.4606749097e+000,2.8891363204e+000,5.0840568243e+000,3.7798663541e+000,3.8083335858e+000,3.2916933330e+000,3.6141699037e+000,3.1186524015e+000,3.7363036083e+000,1.7237939430e+000,3.6898856440e+000,3.3226167909e+000,3.7143752097e+000,
5.7187500000e+000,3.3898899838e+000,3.4838875088e+000,2.9351617709e+000,5.1838303098e+000,3.7398484276e+000,3.7661187301e+000,3.2663091657e+000,3.4572400693e+000,3.0721235359e+000,3.7603980347e+000,1.5442984642e+000,3.7577997502e+000,3.0626421666e+000,3.6562648038e+000,
5.8125000000e+000,3.4801287847e+000,3.4506110565e+000,2.9378428090e+000,5.1836102973e+000,3.7830658098e+000,3.7496554853e+000,3.2145672679e+000,3.4500086986e+000,3.1627980342e+000,3.8912909769e+000,1.4665758455e+000,3.8165128149e+000,3.0387549951e+000,3.7557987689e+000,
5.9062500000e+000,3.5403583899e+000,3.5462520936e+000,2.8986321748e+000,5.1692190563e+000,3.7512257956e+000,3.8834703311e+000,3.2349427181e+000,3.4984969656e+000,3.2070578880e+000,3.9824939869e+000,1.4414466873e+000,3.8334846140e+000,3.0775637391e+000,3.7879428942e+000,
6.0000000000e+000,3.6915945037e+000,3.6077190470e+000,2.9573791637e+000,5.1166733516e+000,3.7688445778e+000,4.0142265278e+000,3.2651141995e+000,3.5408704483e+000,3.3415324086e+000,4.1099157069e+000,1.5193053781e+000,3.9281414286e+000,3.1269094204e+000,3.7877574249e+000,
6.0937500000e+000,3.7096789890e+000,3.6496920892e+000,2.9692566667e+000,5.0451961249e+000,3.6466648427e+000,4.0076360586e+000,3.1776908525e+000,3.5150308846e+000,3.3037000337e+000,4.0755645731e+000,1.5352150115e+000,3.9481451580e+000,3.2074193614e+000,3.7643617375e+000,
6.1875000000e+000,3.6630344610e+000,3.6307677197e+000,2.9009579462e+000,4.9959619227e+000,3.6079422459e+000,4.0308574668e+000,3.1827364225e+000,3.5517158427e+000,3.3097507735e+000,4.0205613737e+000,1.5500855454e+000,3.8765896426e+000,3.1582907848e+000,3.6398034597e+000,
6.2812500000e+000,3.7345239470e+000,3.6642808568e+000,2.9415036809e+000,4.8706084797e+000,3.6839153410e+000,4.1091145635e+000,3.2246739656e+000,3.5743970810e+000,3.3690210958e+000,3.9934167721e+000,1.5863813713e+000,3.8666936284e+000,3.1039536788e+000,3.6389055034e+000,
6.3750000000e+000,3.6698259044e+000,3.6705386316e+000,2.8097739367e+000,4.8798066849e+000,3.6078609624e+000,4.0152405960e+000,3.2862480911e+000,3.5201895648e+000,3.2744843369e+000,3.8864629282e+000,1.6718086691e+000,3.7960913068e+000,3.0321799547e+000,3.6051599177e+000,
6.4687500000e+000,3.6776162392e+000,4.2797463587e+000,2.9334430310e+000,9.4101248416e+000,3.6839080401e+000,4.1266723462e+000,3.3629488566e+000,3.6947339668e+000,3.3689023321e+000,3.9877966642e+000,1.6488291529e+000,3.7746106225e+000,3.0507621477e+000,3.5991602945e+000,
6.5625000000e+000,3.5711953530e+000,4.3462390389e+000,2.7537243060e+000,9.6951440299e+000,3.6687687282e+000,4.0973691289e+000,3.3165988611e+000,3.6250346088e+000,3.4089635769e+000,3.8809385366e+000,1.6210239207e+000,3.6436331092e+000,2.9446209325e+000,3.5224456158e+000,
6.6562500000e+000,3.5869765659e+000,4.3650994710e+000,2.7103015307e+000,9.7712600223e+000,3.7199063555e+000,4.1980987962e+000,3.2051510437e+000,3.6443617682e+000,3.4148015033e+000,3.9137520860e+000,1.7608891414e+000,3.6018934163e+000,3.0293400818e+000,3.5019570028e+000,
6.7500000000e+000,3.6317328138e+000,4.3608866043e+000,2.6711947066e+000,9.7884851088e+000,3.7597571572e+000,4.3086652380e+000,3.2281999985e+000,3.8027475287e+000,3.4131037396e+000,3.8890137774e+000,1.8959463455e+000,3.5863891205e+000,3.0489100580e+000,3.5224854670e+000,
6.8437500000e+000,3.7039862947e+000,4.3220190945e+000,2.7139309842e+000,9.7895629951e+000,3.7399582212e+000,4.2196561798e+000,3.1414308758e+000,3.7686889376e+000,3.3298805809e+000,3.8232940940e+000,1.8534553158e+000,3.5620690955e+000,2.9888791848e+000,3.4973423873e+000,
6.9375000000e+000,3.7018911244e+000,4.2990897362e+000,2.8168246348e+000,9.7884515881e+000,3.7645969591e+000,4.1272994702e+000,3.0026004894e+000,3.7732054053e+000,3.3458014964e+000,3.7448697323e+000,1.9712634847e+000,3.5653248267e+000,3.0555363695e+000,3.5509524847e+000,
7.0312500000e+000,3.5565404722e+000,4.2735028220e+000,2.8393238789e+000,9.7877748949e+000,3.7518262677e+000,4.1006946420e+000,2.9151888951e+000,3.7125177576e+000,3.2502404512e+000,3.6516536448e+000,1.9221582866e+000,3.5217627642e+000,3.1829299641e+000,3.5517567806e+000,
7.1250000000e+000,3.5891732325e+000,4.3091499603e+000,2.8707026700e+000,9.7880688955e+000,3.8409020883e+000,4.1125217398e+000,3.0046996732e+000,3.7360360984e+000,3.2511531061e+000,3.7294198143e+000,1.9345579607e+000,3.6164518079e+000,3.0835563965e+000,3.5637201637e+000,
7.2187500000e+000,3.6842200586e+000,4.4351254658e+000,2.9453444475e+000,9.7878633642e+000,3.9223363436e+000,4.1927321445e+000,3.0063006703e+000,3.7165488110e+000,3.2994965983e+000,3.8830892423e+000,1.9225558511e+000,3.5501980578e+000,3.1317157893e+000,3.5243999189e+000,
7.3125000000e+000,3.7912469058e+000,4.5085442126e+000,3.0136175133e+000,9.7880543379e+000,3.9705932739e+000,4.2750076821e+000,3.0564256276e+000,3.7996564939e+000,3.2918774512e+000,4.0186580195e+000,1.9083980897e+000,3.6682157793e+000,3.2190255295e+000,3.6677777173e+000,
7.4062500000e+000,3.8389906471e+000,4.4741399570e+000,3.0447941111e+000,9.6798151720e+000,4.0109574583e+000,4.2936116717e+000,3.0207169938e+000,3.8010232870e+000,3.3346397998e+000,4.0467060032e+000,1.9365904883e+000,3.7484328406e+000,3.2389604979e+000,3.7944939589e+000,
7.5000000000e+000,3.8053354913e+000,3.8855706895e+000,2.9299599090e+000,8.1923117630e+000,3.9311272064e+000,4.2504154671e+000,2.9269701057e+000,3.6921703755e+000,3.1462212089e+000,3.9697978851e+000,1.9449952745e+000,3.7259160967e+000,3.1325645036e+000,3.6988131189e+000,
7.5937500000e+000,3.8750937021e+000,3.8144865133e+000,3.0548556821e+000,7.0221491185e+000,3.9514948951e+000,4.2289287792e+000,2.9958382845e+000,3.6842419704e+000,3.1602349581e+000,3.9494507470e+000,1.8706897869e+000,3.6585437655e+000,3.0962381460e+000,3.6328354532e+000,
7.6875000000e+000,3.8665296660e+000,3.8037000465e+000,3.1207321981e+000,5.8430990816e+000,3.9462345568e+000,4.1771547054e+000,3.0051742885e+000,3.6632382040e+000,3.1108774368e+000,3.8927426864e+000,1.7587944692e+000,3.6287744380e+000,3.0929969339e+000,3.6274981970e+000,
7.7812500000e+000,3.7678109483e+000,3.8362714454e+000,3.1196855855e+000,4.2865131598e+000,3.8747150121e+000,4.0882499616e+000,2.9692049555e+000,3.5764781650e+000,3.0752717821e+000,3.9197357373e+000,1.8142789990e+000,3.6376717095e+000,3.0989290333e+000,3.6917733996e+000,
7.8750000000e+000,3.7513054048e+000,3.8724346963e+000,3.0956930529e+000,4.0770281306e+000,3.8647603382e+000,4.1046211323e+000,2.9611379609e+000,3.5957985533e+000,3.0553960662e+000,3.8808863596e+000,1.8160202016e+000,3.7745638684e+000,3.1623874310e+000,3.8300303278e+000,
7.9687500000e+000,3.6997794377e+000,3.9169268052e+000,3.0759463698e+000,4.0538934253e+000,3.8524441270e+000,4.1097169818e+000,2.8519210501e+000,3.4922459255e+000,2.9797536753e+000,3.7942482336e+000,1.6752796532e+000,3.8797666545e+000,2.9665539108e+000,3.8932072889e+000,
8.0625000000e+000,3.6866822230e+000,3.9029723667e+000,3.0607977661e+000,4.0394345078e+000,3.7999021097e+000,4.0536092592e+000,2.8710492418e+000,3.5276439812e+000,3.0091198324e+000,3.7509084690e+000,1.6505005982e+000,3.9017262853e+000,2.8736228917e+000,3.9609670390e+000,
8.1562500000e+000,3.6248243747e+000,3.7666534411e+000,2.9804471654e+000,3.7732744598e+000,3.7661163734e+000,3.9555849061e+000,2.7404580684e+000,3.3680348680e+000,2.8485728704e+000,3.6318166900e+000,1.6175565935e+000,4.0008464390e+000,2.8453524999e+000,4.1703734288e+000,
8.2500000000e+000,3.5565867488e+000,3.4356757116e+000,2.9673229991e+000,3.7297887175e+000,3.8116941880e+000,3.9036979710e+000,2.6729593346e+000,3.3675910740e+000,2.8277022111e+000,3.4808924333e+000,1.6274972601e+000,3.9315069857e+000,2.7415763329e+000,4.1404438868e+000,
8.3437500000e+000,3.3372081076e+000,3.2839945516e+000,2.8009838391e+000,3.7447497752e+000,3.6698261927e+000,3.7700463818e+000,2.5661670211e+000,3.3367121605e+000,2.8139594815e+000,3.2739088329e+000,1.8460436371e+000,3.8868779028e+000,2.5331749811e+000,4.0848810600e+000,
8.4375000000e+000,3.3649669357e+000,3.3248196726e+000,2.8276013545e+000,3.8763385580e+000,3.6883054428e+000,3.9866484869e+000,2.6303342770e+000,3.5183194004e+000,2.7390961791e+000,3.2958250174e+000,1.8335914246e+000,3.8203075485e+000,2.5443762537e+000,4.0522659541e+000,
8.5312500000e+000,3.5579330447e+000,3.5344854417e+000,2.9368615317e+000,3.9798066445e+000,3.8270288740e+000,3.9907028242e+000,2.8784382020e+000,3.5411282108e+000,2.7273330748e+000,3.3786837447e+000,1.8407849642e+000,3.8728234219e+000,2.4600929797e+000,4.0621559980e+000,
8.6250000000e+000,3.5698098735e+000,3.5269795615e+000,2.8988903019e+000,4.0128395505e+000,3.7897942882e+000,4.4945515256e+000,2.9273454098e+000,3.6933097798e+000,2.8007917748e+000,3.4850521222e+000,1.9519816724e+000,3.8965682428e+000,2.4984408950e+000,4.0676161741e+000,
8.7187500000e+000,3.6129243323e+000,3.5042395725e+000,2.9059048691e+000,3.9524453958e+000,3.8006607926e+000,4.8971372754e+000,2.9478020550e+000,3.8408522913e+000,2.8081353960e+000,3.7026543981e+000,1.9270379672e+000,4.0754514769e+000,2.6602872311e+000,4.2319402097e+000,
8.8125000000e+000,3.6444815367e+000,3.4816177275e+000,3.0371377183e+000,3.9411739578e+000,3.9105952346e+000,4.9891442605e+000,3.2306486065e+000,3.8474284842e+000,3.0434459505e+000,3.8614690185e+000,1.8509517745e+000,4.0938695235e+000,2.8075166198e+000,4.3198707355e+000,
8.9062500000e+000,3.7930753833e+000,3.6029938815e+000,3.2770154321e+000,4.1246427139e+000,3.8640854473e+000,5.1491546080e+000,3.2684112325e+000,3.9328655687e+000,3.2691811935e+000,3.9738940822e+000,1.8636964242e+000,4.0021925969e+000,2.7156591294e+000,4.1757025239e+000,
9.0000000000e+000,3.9017753729e+000,3.6274841446e+000,3.3710381035e+000,4.1894830029e+000,3.8984277730e+000,5.2645843818e+000,3.3914132307e+000,4.0252514819e+000,3.2926494801e+000,4.0471783263e+000,1.8699454513e+000,3.9717987679e+000,2.8241864290e+000,4.1155442502e+000,
9.0937500000e+000,3.9514953569e+000,3.7002632154e+000,3.3904575471e+000,4.2335115727e+000,3.9424780458e+000,5.3495455997e+000,3.5167316447e+000,4.0887277104e+000,3.2933943719e+000,4.1644401452e+000,1.9724826461e+000,3.7875563149e+000,2.8909092449e+000,3.9201575476e+000,
9.1875000000e+000,3.9746380023e+000,3.8407943493e+000,3.4517707826e+000,4.2986772218e+000,4.0442691568e+000,5.4210208050e+000,3.5454434259e+000,4.1697837108e+000,3.4143274427e+000,4.1551743355e+000,2.1117888743e+000,3.7991525491e+000,2.9387487882e+000,3.8836836887e+000,
9.2812500000e+000,3.9763372793e+000,3.8450893319e+000,3.5623552970e+000,4.4061177619e+000,4.1700256619e+000,5.4588055512e+000,3.6726681029e+000,4.2558821879e+000,3.4276124535e+000,4.2256866182e+000,2.1809003318e+000,3.8267860929e+000,2.9780056413e+000,3.9291518236e+000,
9.3750000000e+000,3.9570739084e+000,3.8757049804e+000,3.6248295839e+000,4.3330102630e+000,4.1825419914e+000,5.4969142128e+000,3.6620350580e+000,4.2802662864e+000,3.4457863493e+000,4.3404657573e+000,2.0892749393e+000,3.9274686102e+000,2.9993152631e+000,4.0484980403e+000,
9.4687500000e+000,3.8928830949e+000,3.9230001984e+000,3.8867537015e+000,4.3645148196e+000,4.0717099729e+000,5.4892981031e+000,3.6254878249e+000,4.2462403825e+000,3.5189015796e+000,4.3321448528e+000,2.1899518251e+000,3.9663604472e+000,3.1412136604e+000,4.0366067850e+000,
9.5625000000e+000,3.8161580714e+000,3.8310384838e+000,3.9195534617e+000,4.4295070600e+000,4.0851547197e+000,5.4401194890e+000,3.5772927448e+000,4.2470440648e+000,3.6008567100e+000,4.3257088055e+000,2.1485861798e+000,3.9493221924e+000,3.2842025635e+000,4.0494504753e+000,
9.6562500000e+000,3.8078130836e+000,3.8156365336e+000,3.8830914602e+000,4.4030861964e+000,4.0421601852e+000,5.2829134189e+000,3.5627201145e+000,4.2043497001e+000,3.5667869388e+000,4.3229153219e+000,2.0973511549e+000,3.9014972037e+000,3.2225376887e+000,4.0338856964e+000,
9.7500000000e+000,3.8341495284e+000,3.9359336816e+000,3.8781922350e+000,4.4673938697e+000,4.0303115604e+000,5.0933383388e+000,3.4353228243e+000,4.1974671630e+000,3.5724832866e+000,4.3351499414e+000,2.1047212713e+000,3.8118768207e+000,3.1764166794e+000,3.9178240488e+000,
9.8437500000e+000,3.7401477720e+000,3.9554025771e+000,3.8626984861e+000,4.4126869308e+000,4.0235558985e+000,4.9933929137e+000,3.4342800830e+000,4.1754321033e+000,3.4178448127e+000,4.2270668197e+000,2.0939945019e+000,3.7457382186e+000,3.1827600805e+000,3.7003900219e+000,
9.9375000000e+000,3.8629749802e+000,3.9738004330e+000,3.8585494318e+000,4.4946260202e+000,4.1368656939e+000,4.9126377929e+000,3.5141058295e+000,4.2614530334e+000,3.4884967423e+000,4.1783511861e+000,2.2073258486e+000,3.7219811126e+000,3.3141284725e+000,3.8238756288e+000,
1.0031250000e+001,4.0437085904e+000,4.0558916900e+000,3.9891835214e+000,4.6653912960e+000,4.2579894178e+000,4.8233405482e+000,3.3590374139e+000,4.2583068466e+000,3.5530171382e+000,4.2111188764e+000,2.2236490276e+000,3.7139885330e+000,3.4182708676e+000,3.8811655874e+000,
1.0125000000e+001,4.1298049154e+000,4.0923838143e+000,4.1215191061e+000,4.7316139253e+000,4.3490380095e+000,4.9109208195e+000,3.3552168589e+000,4.3675564282e+000,3.5219027885e+000,4.3587895790e+000,2.1117386426e+000,3.7852648994e+000,3.3414171666e+000,3.8318599335e+000,
1.0218750000e+001,4.2022526887e+000,4.0555257692e+000,4.1370690129e+000,4.7273432209e+000,4.3695269206e+000,4.8560744151e+000,3.2986844919e+000,4.4307724500e+000,3.5167995619e+000,4.5105736556e+000,2.0065641447e+000,3.9295103984e+000,3.3939995720e+000,4.0055130810e+000,
1.0312500000e+001,4.2488535994e+000,4.0912387946e+000,4.1266648428e+000,4.7454353767e+000,4.2948603569e+000,4.9370802626e+000,3.3424177931e+000,4.4737322761e+000,3.5126316016e+000,4.4872693148e+000,2.0329976206e+000,3.9216601129e+000,3.5267498009e+000,4.0278803496e+000,
1.0406250000e+001,4.2558303585e+000,4.0333283237e+000,4.0852744821e+000,4.9325212067e+000,4.4584445510e+000,4.9151311865e+000,3.3051236388e+000,4.4682382922e+000,3.5313460625e+000,4.5305013168e+000,2.2418885323e+000,3.8806717761e+000,3.6117695671e+000,4.0451875908e+000,
1.0500000000e+001,4.1969690827e+000,3.9308358660e+000,3.9000643100e+000,4.8388469026e+000,4.5016778252e+000,4.8683328885e+000,3.4072129153e+000,4.4603443016e+000,3.5846856128e+000,4.5542378114e+000,2.2237846754e+000,3.8559253722e+000,3.5706910842e+000,4.0917381274e+000,
1.0593750000e+001,4.1963060306e+000,3.9397447628e+000,3.9249665581e+000,4.8894819721e+000,4.5750018737e+000,5.0219707912e+000,3.3717588256e+000,4.4500059272e+000,3.5891445359e+000,4.5374104277e+000,2.2632487815e+000,3.8332285969e+000,3.5405977525e+000,4.1086612386e+000,
1.0687500000e+001,4.1523708486e+000,3.9052495793e+000,3.9286371994e+000,4.8671866047e+000,4.5857530413e+000,5.0627286283e+000,3.4012865437e+000,4.4475698495e+000,3.5915141177e+000,4.4508214993e+000,2.2690349775e+000,3.7494736422e+000,3.5016380112e+000,4.1685928787e+000,
1.0781250000e+001,4.2159991528e+000,3.9389533980e+000,3.9218300861e+000,4.8298035411e+000,4.6431545284e+000,5.0724216317e+000,3.4111500516e+000,4.9050122405e+000,3.5699443167e+000,4.4699521043e+000,2.2399566390e+000,3.7477126879e+000,3.5658797734e+000,4.2897226876e+000,
1.0875000000e+001,4.1529672595e+000,3.8666426351e+000,3.9322965186e+000,4.8066922721e+000,4.5996846806e+000,5.1155336399e+000,3.4273015763e+000,8.7152347450e+000,3.6595847616e+000,4.4865842512e+000,2.2246044218e+000,3.8387862587e+000,3.5299493010e+000,4.3474947945e+000,
1.0968750000e+001,3.9334443638e+000,3.7476354927e+000,3.8933487420e+000,4.5861894774e+000,4.6167418039e+000,5.0653450110e+000,3.3674520955e+000,8.7412132639e+000,3.7604562030e+000,4.4867832338e+000,2.0788828040e+000,3.8067211678e+000,3.4786857404e+000,4.2931642184e+000,
1.1062500000e+001,3.7820675560e+000,3.7228392714e+000,3.7374620307e+000,4.4938472529e+000,4.4696493240e+000,5.0351453779e+000,3.3140870959e+000,8.7420357283e+000,3.8305909519e+000,4.4653658030e+000,2.0583392794e+000,3.7304790486e+000,3.4894579186e+000,4.2420330872e+000,
1.1156250000e+001,3.6729574683e+000,3.6014458309e+000,3.6004083731e+000,4.4315150225e+000,4.3855988264e+000,4.8940939691e+000,3.2292084628e+000,8.7402128187e+000,3.8210210989e+000,4.2543916722e+000,2.0851868646e+000,3.6932282564e+000,3.4869228803e+000,4.2278551488e+000,
1.1250000000e+001,3.6386107688e+000,3.5826150407e+000,3.6444638699e+000,4.4448471141e+000,4.3633028056e+000,4.8165725904e+000,3.2776463968e+000,8.7404597000e+000,3.8132026021e+000,4.2143141285e+000,2.1100496950e+000,3.6160868683e+000,3.4706634171e+000,4.1019850993e+000,
1.1343750000e+001,3.7730987648e+000,3.5857086376e+000,3.9501098773e+000,5.0195388833e+000,4.3516555454e+000,4.6678127635e+000,3.2322274345e+000,8.7433714029e+000,3.7622890996e+000,4.1272979138e+000,2.5123234095e+000,3.6270460429e+000,3.4311729794e+000,3.9782743928e+000,
1.1437500000e+001,3.8413240198e+000,3.6687583784e+000,4.2363557883e+000,5.4807783322e+000,4.2368158277e+000,4.5794018597e+000,3.3111695507e+000,8.7453522085e+000,3.7211476236e+000,4.0458119225e+000,2.8136664759e+000,3.6180626093e+000,3.3989437374e+000,3.9208719714e+000,
1.1531250000e+001,3.9114225507e+000,3.7901132930e+000,4.2712764633e+000,5.5252741879e+000,4.2259605911e+000,4.6206394371e+000,3.2058220774e+000,8.7465523191e+000,3.5925960169e+000,4.1118566938e+000,2.8481375650e+000,3.6876974160e+000,3.3861641629e+000,3.9265167587e+000,
1.1625000000e+001,4.0351439156e+000,3.8212731791e+000,4.4980655711e+000,5.5235339388e+000,4.2362555665e+000,4.3432272106e+000,3.2563806063e+000,8.7458839098e+000,3.6456753040e+000,4.1631032481e+000,2.8534549847e+000,3.8796517213e+000,3.6060481151e+000,3.9125639055e+000,
1.1718750000e+001,4.0472019210e+000,3.8759788197e+000,4.6014696813e+000,5.5397523531e+000,4.1609836834e+000,4.3213513304e+000,3.2449924427e+000,8.7457205730e+000,3.8219097772e+000,4.1826773400e+000,2.8484169246e+000,3.8984810707e+000,3.6584816638e+000,3.8184016938e+000,
1.1812500000e+001,4.0196593965e+000,3.8915944774e+000,4.6688177803e+000,5.5591884630e+000,4.0959007789e+000,4.3088775407e+000,3.1775787996e+000,7.0699374134e+000,3.9122710346e+000,4.1563969274e+000,2.8517689293e+000,3.8263539463e+000,3.6751465063e+000,3.7568192036e+000,
1.1906250000e+001,4.0300937566e+000,3.9083613774e+000,4.6365888803e+000,5.5566920078e+000,4.0470126365e+000,4.2359992606e+000,3.1688260754e+000,7.8468221549e+000,3.7040487697e+000,4.0958460164e+000,2.8567188396e+000,3.8663220582e+000,3.6515087462e+000,3.7566548679e+000,
1.2000000000e+001,3.9918564570e+000,3.9688629056e+000,4.7371971437e+000,5.9438149598e+000,3.9161877161e+000,4.1553781101e+000,3.1676769871e+000,1.0721594237e+001,3.6926450594e+000,4.1348054731e+000,2.9154238367e+000,4.8710156095e+000,3.5571077086e+000,3.7159812707e+000,
1.2093750000e+001,4.0444091216e+000,3.8939572296e+000,4.9673008220e+000,5.9631285077e+000,3.8901567577e+000,4.0581239638e+000,3.2415809737e+000,1.0743171193e+001,3.7222942855e+000,4.0926206308e+000,2.9084908231e+000,4.8950133233e+000,3.5867310962e+000,3.7489758859e+000,
1.2187500000e+001,4.0732236773e+000,3.8536519989e+000,4.9810838291e+000,6.1973700962e+000,3.9541554206e+000,4.1436440061e+000,3.2791048199e+000,1.1251235656e+001,3.7038818175e+000,4.2160719933e+000,2.9000556029e+000,5.2803970035e+000,3.5993430244e+000,3.8251280816e+000,
1.2281250000e+001,4.0485505361e+000,3.8599594144e+000,4.9097159034e+000,6.2022735256e+000,3.8868012608e+000,4.2024384660e+000,3.2212632508e+000,1.1285583174e+001,3.6849122856e+000,4.2234453256e+000,2.8804049803e+000,5.3202787966e+000,3.6044477840e+000,4.0025934688e+000,
1.2375000000e+001,3.8638347699e+000,3.7889724734e+000,4.6782802904e+000,5.7645641634e+000,3.8015129923e+000,4.2259034212e+000,3.0761531769e+000,1.1287870500e+001,3.7263829643e+000,4.2492621021e+000,1.8987936973e+000,5.3593662951e+000,3.4900516267e+000,4.1089483154e+000,
1.2468750000e+001,3.8975330323e+000,3.7560174453e+000,4.6853862121e+000,5.7065379061e+000,3.6585867871e+000,4.2304340727e+000,3.0769684738e+000,1.1287857639e+001,3.7425800726e+000,4.2581357878e+000,1.6940526709e+000,5.3754515705e+000,3.5328873474e+000,4.1360432905e+000,
1.2562500000e+001,3.8001130596e+000,3.7371354086e+000,4.6674104018e+000,5.6869039587e+000,3.5864105247e+000,4.1069970704e+000,3.1261455392e+000,1.1287736136e+001,3.7829000811e+000,4.2015829573e+000,1.6664956032e+000,5.3595629383e+000,3.4319682066e+000,4.1474798210e+000,
1.2656250000e+001,3.7059433371e+000,3.7482334805e+000,4.5189609389e+000,5.6668693077e+000,3.5004503930e+000,4.0197620387e+000,3.0559201208e+000,1.1287700209e+001,3.6771228905e+000,4.1516580187e+000,1.6091046606e+000,5.3218943802e+000,3.1764539747e+000,4.0639685386e+000,
1.2750000000e+001,3.6091462149e+000,3.5768953853e+000,4.3979060606e+000,5.6494493484e+000,3.4874812898e+000,3.9495790305e+000,3.0005688442e+000,1.1287668839e+001,3.5117836826e+000,4.1343003694e+000,1.6775456067e+000,5.3245158701e+000,3.1818604282e+000,4.0938617248e+000,
1.2843750000e+001,3.7262986075e+000,3.6278903814e+000,4.3234492633e+000,5.6457842974e+000,3.5409357203e+000,3.8987510988e+000,3.1312859620e+000,1.1284362976e+001,3.4970076596e+000,4.0798264955e+000,1.6699036549e+000,5.3130633605e+000,3.1013131305e+000,3.9480700487e+000,
1.2937500000e+001,3.7987200376e+000,3.5906506383e+000,4.3026864342e+000,5.6024834710e+000,3.5892997155e+000,3.9146023876e+000,3.1679555620e+000,1.1104826943e+001,3.4450823193e+000,4.0945759458e+000,1.6246300623e+000,5.2232326219e+000,3.1777053523e+000,3.9526975445e+000,
1.3031250000e+001,3.7950713143e+000,3.5846171768e+000,3.8135415149e+000,5.0774469506e+000,3.6504423076e+000,4.0390816811e+000,3.1474387734e+000,1.0433516552e+001,3.4262198754e+000,4.0693687927e+000,1.4925859584e+000,4.7533245235e+000,3.2242666376e+000,4.0260663960e+000,
1.3125000000e+001,3.7195380544e+000,3.6289689820e+000,3.5011846751e+000,5.0438434904e+000,3.7726849102e+000,4.2022835616e+000,3.2464367817e+000,1.0380258134e+001,3.2697060796e+000,4.1874702134e+000,1.5406700779e+000,4.7319461927e+000,3.2181130018e+000,4.1125745671e+000,
1.3218750000e+001,3.5893940531e+000,3.6095796477e+000,3.6031575865e+000,3.9720230725e+000,3.8452217346e+000,4.2339887951e+000,3.3113289972e+000,7.5818271388e+000,3.3354026326e+000,4.0401233991e+000,1.6194379987e+000,3.7954667796e+000,3.1128786046e+000,4.0030616124e+000,
1.3312500000e+001,3.6312554269e+000,3.5716281324e+000,3.7024511402e+000,3.8003267228e+000,4.0141841195e+000,4.3326628202e+000,3.5003748252e+000,3.7672333075e+000,3.3988309336e+000,3.9410934472e+000,1.8776883309e+000,3.4946760363e+000,3.0340773929e+000,3.7189935642e+000,
1.3406250000e+001,3.6514854062e+000,3.5254495994e+000,3.8554848444e+000,3.8875852737e+000,4.0941468391e+000,4.5884343513e+000,3.6053679340e+000,6.1295993675e+000,3.4127437108e+000,3.9045473622e+000,1.9388632694e+000,3.2777759045e+000,3.1138127191e+000,3.8387867041e+000,
1.3500000000e+001,3.5554090026e+000,3.5227093708e+000,3.7557918646e+000,3.9217808792e+000,4.0772803712e+000,4.7267628797e+000,3.5755669865e+000,6.3939086094e+000,3.4338143521e+000,3.9101179432e+000,1.9731737016e+000,3.1860551482e+000,3.0951047900e+000,3.8475133952e+000,
1.3593750000e+001,3.5137503028e+000,3.4933876444e+000,3.7022355756e+000,3.9207848427e+000,4.2279131694e+000,4.9204784303e+000,3.6826065739e+000,6.6542263609e+000,3.3919457101e+000,3.8911552113e+000,2.0006377852e+000,3.2030594335e+000,3.1564818312e+000,3.8676552747e+000,
1.3687500000e+001,3.6205736999e+000,3.4350441787e+000,3.7596714756e+000,4.2848396032e+000,4.2480135563e+000,4.9619895624e+000,3.7306666547e+000,8.3256267234e+000,3.3509252321e+000,3.9741955060e+000,2.0625568994e+000,3.4596824048e+000,3.2211277334e+000,3.9247792183e+000,
1.3781250000e+001,3.6586416850e+000,3.3786026114e+000,3.8138390805e+000,4.6928473050e+000,4.3043742544e+000,5.0958788004e+000,3.7813353816e+000,8.6177471695e+000,3.3855823917e+000,4.2530230470e+000,2.1970393781e+000,3.9214885599e+000,3.2591834053e+000,4.0675050669e+000,
1.3875000000e+001,3.6583222441e+000,3.3558461147e+000,3.8328514917e+000,5.1380824493e+000,4.3138019683e+000,5.1272267160e+000,3.7798627916e+000,1.1322815108e+001,3.3307763590e+000,4.3227637421e+000,2.2424694316e+000,4.5803828258e+000,3.2522311768e+000,4.1238171070e+000,
1.3968750000e+001,3.6375040600e+000,3.3667831682e+000,3.8305271433e+000,6.1334633681e+000,4.3818383162e+000,5.1137515817e+000,4.0457648993e+000,1.2343901252e+001,3.3685975412e+000,4.4129016068e+000,2.2715893836e+000,5.6936655391e+000,3.3563240939e+000,4.1419034065e+000,
1.4062500000e+001,3.7920651751e+000,3.4369461767e+000,3.8437653323e+000,6.1503047085e+000,4.4510356733e+000,5.0900345807e+000,4.3171432528e+000,1.2372329065e+001,3.6624385108e+000,4.4345344780e+000,2.3000926387e+000,5.7203967169e+000,3.3489554111e+000,4.1889471721e+000,
1.4156250000e+001,3.7544753473e+000,3.4093943513e+000,3.7972321398e+000,6.1404629438e+000,4.4223434942e+000,5.0694693334e+000,4.2919917842e+000,1.2373831215e+001,3.6632573473e+000,4.3931281276e+000,2.2650784235e+000,5.7197933430e+000,3.3183505221e+000,4.1093145941e+000,
1.4250000000e+001,3.7996782715e+000,3.4873437105e+000,3.8064877657e+000,6.1503990832e+000,4.4721124304e+000,5.1000285092e+000,4.1913462731e+000,1.2373851586e+001,3.5955838704e+000,4.3942289406e+000,2.1831502500e+000,5.7191350612e+000,3.3479519998e+000,4.1070967974e+000,
1.4343750000e+001,3.8241338362e+000,3.5144997690e+000,3.7675469461e+000,6.1547465880e+000,4.3393532975e+000,5.1320337867e+000,4.1592447145e+000,1.2372279836e+001,3.5756375000e+000,4.3943966771e+000,2.0997656030e+000,5.7125624626e+000,3.5148962111e+000,4.2120552057e+000,
1.4437500000e+001,3.8014997885e+000,3.5314294053e+000,3.6410375775e+000,6.1496021638e+000,4.3524556164e+000,5.1125736281e+000,4.1397378061e+000,1.2371743641e+001,3.5292751514e+000,4.4396601768e+000,1.9855666244e+000,5.7041173090e+000,3.4554261180e+000,4.0591027643e+000,
1.4531250000e+001,3.8396995922e+000,3.5798352679e+000,3.6831098190e+000,6.1366950172e+000,4.3847598959e+000,5.0374047725e+000,4.1359870656e+000,1.2370797830e+001,3.5228474684e+000,4.4067115720e+000,1.9381035143e+000,5.7095397089e+000,3.4640965749e+000,4.0633741618e+000,
1.4625000000e+001,3.8563906891e+000,3.7068536778e+000,3.6506466759e+000,6.1381650978e+000,4.3509171040e+000,5.1020103309e+000,4.0778873636e+000,1.2367910120e+001,3.5792651021e+000,4.4507050391e+000,1.8732989553e+000,5.7116737425e+000,3.5210839149e+000,4.0731879829e+000,
1.4718750000e+001,3.7344013922e+000,3.7726569003e+000,3.5392960202e+000,6.0347024793e+000,4.3837603672e+000,5.3146924192e+000,4.1498873386e+000,1.2352306541e+001,3.6174071181e+000,4.5293512524e+000,1.6706440111e+000,5.6648802594e+000,3.4698396585e+000,4.0074289917e+000,
1.4812500000e+001,3.6492122977e+000,3.8159583333e+000,3.6017024752e+000,5.9993177559e+000,4.3850906343e+000,5.3360873114e+000,4.1362325657e+000,1.2326263209e+001,3.7070092428e+000,4.3743242421e+000,1.4631214143e+000,5.6339435113e+000,3.3736269439e+000,3.8351837013e+000,
1.4906250000e+001,3.6534875581e+000,3.7404965527e+000,3.6055086280e+000,5.0586081148e+000,4.4842814013e+000,5.3773281439e+000,4.0960335476e+000,1.0872833848e+001,3.7184455191e+000,4.3400413456e+000,1.3706809285e+000,4.7306473246e+000,3.2584734859e+000,3.7588579380e+000,
1.5000000000e+001,3.5699483009e+000,3.7565459807e+000,3.6377847144e+000,3.7729188912e+000,4.4270490104e+000,5.4316801872e+000,3.7758362782e+000,8.2359895262e+000,3.6943703548e+000,4.3725816521e+000,1.2892785060e+000,3.4832868756e+000,3.2423685614e+000,3.6842367954e+000,
1.5093750000e+001,3.5809997185e+000,3.8072064370e+000,3.6553295528e+000,3.8240191527e+000,4.2954901752e+000,5.4498231405e+000,3.5856392663e+000,4.1209662671e+000,3.5234548251e+000,4.3802199405e+000,1.2884587893e+000,3.2392179316e+000,3.2206608622e+000,3.5132514941e+000,
1.5187500000e+001,3.5701007576e+000,3.8113583939e+000,3.5481661376e+000,3.8621945215e+000,4.3376137201e+000,5.6158320441e+000,3.5996666911e+000,3.3213340762e+000,3.5252160356e+000,4.3787477842e+000,1.2899014262e+000,3.2973722131e+000,3.3310286819e+000,3.4802996730e+000,
1.5281250000e+001,3.7553206065e+000,3.9015983941e+000,3.4803075818e+000,3.8261401457e+000,4.3671944069e+000,5.7025147666e+000,3.6562783727e+000,3.5000584383e+000,3.4730854778e+000,4.3947781749e+000,1.3023824763e+000,3.3653106834e+000,3.4169310359e+000,3.5519836628e+000,
1.5375000000e+001,3.8543351783e+000,3.9895009963e+000,3.4648178742e+000,3.9306035848e+000,4.3779685687e+000,5.7220487206e+000,3.7416138718e+000,3.7588214581e+000,3.4614660398e+000,4.4652854405e+000,1.2750994279e+000,3.5547513575e+000,3.2141258786e+000,3.5098072427e+000,
1.5468750000e+001,3.8783693704e+000,4.0225384879e+000,3.4724894459e+000,3.9220521735e+000,4.3256820053e+000,5.6721489226e+000,3.6727797981e+000,3.8436786324e+000,3.4406999479e+000,4.4702016115e+000,1.3097796022e+000,3.5804033086e+000,3.2407215740e+000,3.5294342800e+000,
1.5562500000e+001,3.8640910891e+000,3.9644707333e+000,3.4083555874e+000,3.9413765734e+000,4.2793584374e+000,5.7021309898e+000,3.6808549373e+000,4.0084293518e+000,3.4710733085e+000,4.5064587353e+000,1.3222576726e+000,3.5495593976e+000,3.2631680816e+000,3.5438778191e+000,
1.5656250000e+001,3.8932870357e+000,3.8803145445e+000,3.3718808378e+000,3.9079826307e+000,4.2828566423e+000,5.6531385027e+000,3.6170878134e+000,4.1718321446e+000,3.4232699891e+000,4.4383130417e+000,1.2534876012e+000,3.6191047871e+000,3.2704027378e+000,3.5292750308e+000,
1.5750000000e+001,3.9602242069e+000,3.8890673684e+000,3.2980987184e+000,3.9297636978e+000,4.1994577160e+000,5.6446859153e+000,3.5548988826e+000,4.2720975219e+000,3.4002662226e+000,4.4821599594e+000,1.2402441257e+000,3.6813401930e+000,3.3090122970e+000,3.5529103519e+000,
1.5843750000e+001,3.9020469083e+000,3.8906805124e+000,3.2653109605e+000,3.9494776382e+000,4.1724298540e+000,5.6762517319e+000,3.5423053349e+000,4.4208659659e+000,3.2457373398e+000,4.4697101027e+000,1.2914165070e+000,3.6791088958e+000,3.3413449938e+000,3.5241166278e+000,
1.5937500000e+001,3.9426054089e+000,3.9598974965e+000,3.3058462208e+000,3.9764758164e+000,4.1702495618e+000,5.6487734105e+000,3.5776873569e+000,4.4782664363e+000,3.2685202491e+000,4.4840263611e+000,1.5821477023e+000,3.7388377630e+000,3.3793576971e+000,3.6585178001e+000,
1.6031250000e+001,4.0166794220e+000,3.9870256037e+000,3.3046654173e+000,4.0077463789e+000,4.2914405246e+000,5.6950716979e+000,3.4994280872e+000,4.5664588160e+000,3.1718547451e+000,4.4750330874e+000,1.5686759473e+000,3.7616715437e+000,3.3691747777e+000,3.7409906631e+000,
1.6125000000e+001,3.9453055332e+000,3.9229517707e+000,3.2665826554e+000,3.8782981052e+000,4.2861390945e+000,5.5555897537e+000,3.3935804176e+000,4.5265124562e+000,3.1782145234e+000,4.4516539974e+000,1.5806116285e+000,3.7848303489e+000,3.4686188216e+000,3.8193921108e+000,
1.6218750000e+001,3.9078138973e+000,3.8677268793e+000,3.3383101159e+000,3.8185844374e+000,4.2899306118e+000,5.4224466679e+000,3.3538002874e+000,4.9949357371e+000,3.3457377568e+000,4.5524031119e+000,1.6158143438e+000,3.8895295264e+000,3.3793245542e+000,4.0472422444e+000,
1.6312500000e+001,3.8059636268e+000,3.8687442564e+000,3.2088229841e+000,4.5018621603e+000,4.3277711082e+000,5.3153826774e+000,3.2500425834e+000,1.1475730229e+001,3.4103989446e+000,4.5310675715e+000,1.5742507530e+000,4.5919173557e+000,3.5398253817e+000,4.0854931384e+000,
1.6406250000e+001,3.6786583946e+000,3.8248391628e+000,3.2093904440e+000,4.4758970162e+000,4.3774107555e+000,5.3182454206e+000,3.2045325628e+000,1.1536173226e+001,3.4473888735e+000,4.4908438565e+000,1.7628831717e+000,4.5972204688e+000,3.5996367820e+000,4.1094115830e+000,
1.6500000000e+001,3.7974202696e+000,3.8017963811e+000,3.2293221834e+000,4.5109520222e+000,4.3718224598e+000,5.2826186379e+000,3.2451931131e+000,1.1539897340e+001,3.4427876539e+000,4.4954864182e+000,1.7792038840e+000,4.7226702644e+000,3.5582706877e+000,4.3160258855e+000,
1.6593750000e+001,3.7650497140e+000,3.8846267058e+000,3.1904633309e+000,4.5030084654e+000,4.3621043118e+000,5.3520437632e+000,3.2431272860e+000,1.1540026083e+001,3.4788599578e+000,4.4897390116e+000,1.7757063411e+000,4.7571471723e+000,3.5391123469e+000,4.3746156388e+000,
1.6687500000e+001,3.6841112805e+000,3.8010050553e+000,3.1868658335e+000,4.4972736602e+000,4.3164551842e+000,5.2870461005e+000,3.2156591060e+000,1.1539993650e+001,3.3950451084e+000,4.5025656202e+000,1.8022726712e+000,4.7857218431e+000,3.6090844337e+000,4.6167190915e+000,
1.6781250000e+001,3.7742457468e+000,3.8250854289e+000,3.2902598878e+000,4.5204056622e+000,4.4287515837e+000,5.4375656770e+000,3.3140234803e+000,1.1540105140e+001,3.5172762706e+000,4.5490730737e+000,1.8490111568e+000,4.8383929904e+000,3.6741464075e+000,4.7206617951e+000,
1.6875000000e+001,3.8538329003e+000,3.8385342414e+000,3.2056797568e+000,4.5054337969e+000,4.5117178813e+000,5.5470889397e+000,3.2907544446e+000,1.1540038081e+001,3.5577179864e+000,4.5376198310e+000,1.8367262072e+000,4.8353023420e+000,3.6686542788e+000,4.7990361040e+000,
1.6968750000e+001,3.8680653405e+000,3.8500419773e+000,3.2256999764e+000,4.4862700146e+000,4.5907335625e+000,5.5696433973e+000,3.4865846560e+000,1.1540050771e+001,3.5744383753e+000,4.6377754195e+000,1.7155230963e+000,4.8847982734e+000,3.8238653696e+000,4.8736245934e+000,
1.7062500000e+001,3.8498139041e+000,3.8136805932e+000,3.1663064346e+000,4.4674135981e+000,4.5043406853e+000,5.7001889466e+000,3.4985115828e+000,1.1540086339e+001,3.6571965292e+000,4.6189401797e+000,1.7129188444e+000,4.8949740302e+000,3.8174192487e+000,4.9109817493e+000,
1.7156250000e+001,3.8679224056e+000,3.7988743332e+000,3.2049615502e+000,4.4830518954e+000,4.6479913603e+000,5.7393281368e+000,3.6334539159e+000,1.1540119133e+001,3.7054067445e+000,4.5162532205e+000,1.8328280918e+000,4.8987942792e+000,3.7743376423e+000,4.8776821505e+000,
1.7250000000e+001,3.8787953663e+000,3.8142557312e+000,3.2036223437e+000,4.3129473785e+000,4.6850617437e+000,5.8649448831e+000,3.8900044508e+000,1.1271541287e+001,3.6209890996e+000,4.5154670564e+000,1.8876703511e+000,4.8269432319e+000,3.7518022826e+000,4.8332616291e+000,
1.7343750000e+001,3.9771639225e+000,3.8281216021e+000,3.2825359278e+000,3.7137616658e+000,4.7335882692e+000,6.0580057795e+000,3.9582518232e+000,8.2584665067e+000,3.5558153526e+000,4.6161937027e+000,1.8550446580e+000,4.3984526709e+000,3.5983332902e+000,4.7990384806e+000,
1.7437500000e+001,3.9368244297e+000,3.8003429337e+000,3.3140001036e+000,3.6865912609e+000,4.7235739937e+000,6.0728745090e+000,4.0062680964e+000,5.3828976955e+000,3.5644468051e+000,4.6618912060e+000,1.7098415615e+000,4.3694551717e+000,3.6011657250e+000,4.7960840447e+000,
1.7531250000e+001,3.9541864146e+000,3.8011945510e+000,3.3252705507e+000,3.7844066163e+000,4.8091400998e+000,6.1370577791e+000,4.0238623491e+000,4.7569698620e+000,3.5124378910e+000,4.6972715774e+000,1.7104978344e+000,4.2020216418e+000,3.6011174724e+000,4.6588492115e+000,
1.7625000000e+001,4.0064400159e+000,3.8516094436e+000,3.3609691226e+000,3.8595381700e+000,4.9129274213e+000,6.1860297631e+000,4.1057440598e+000,4.7554706105e+000,3.4730246908e+000,4.6796472408e+000,1.7492898053e+000,4.0778677906e+000,3.5291665681e+000,4.5165318455e+000,
1.7718750000e+001,4.0734415455e+000,3.8714555411e+000,3.3704506472e+000,3.9025859811e+000,4.9515024005e+000,6.2057331815e+000,4.2531301071e+000,4.7416609570e+000,3.4364688299e+000,4.7083348815e+000,1.7378029603e+000,4.0629369565e+000,3.4388039291e+000,4.3108491616e+000,
1.7812500000e+001,4.0234586448e+000,3.7874848165e+000,3.4350471052e+000,3.8398451122e+000,4.9826096977e+000,6.1652089351e+000,4.2666945943e+000,4.6352787055e+000,3.6403880917e+000,4.6842161335e+000,1.7377468484e+000,3.9518361205e+000,3.3744280028e+000,4.1775221368e+000,
1.7906250000e+001,3.9378869207e+000,3.7690876717e+000,3.5588042325e+000,3.7454635628e+000,4.9230900278e+000,6.1008162840e+000,4.3065846861e+000,4.6525847595e+000,4.0417875716e+000,4.5436425775e+000,1.7972028808e+000,3.8244555661e+000,3.1660624936e+000,3.8270029564e+000,
1.8000000000e+001,3.9035167955e+000,3.6836360120e+000,3.5420642949e+000,3.7538166058e+000,4.9256503304e+000,6.0777061096e+000,4.2699588316e+000,4.6294069798e+000,3.9912628261e+000,4.5035742848e+000,1.7837323955e+000,3.8315903932e+000,3.0701966415e+000,3.7072204873e+000,
1.8093750000e+001,3.8672768677e+000,3.7097761672e+000,3.5337671964e+000,3.7889343931e+000,4.9555500892e+000,6.0708424194e+000,4.2438806642e+000,4.5761762076e+000,3.9377562803e+000,4.6049137175e+000,1.8227742824e+000,4.0030189082e+000,3.1931791503e+000,3.8662456286e+000,
1.8187500000e+001,3.8770807873e+000,3.6980865700e+000,3.4664680495e+000,3.7783438930e+000,4.8756509792e+000,6.0837661272e+000,4.1693955333e+000,4.6207878878e+000,3.9762329259e+000,4.6158690949e+000,1.6913823641e+000,4.0211348590e+000,3.2464305118e+000,3.8762010515e+000,
1.8281250000e+001,3.8504183776e+000,3.6249626293e+000,3.3963640249e+000,3.6808421185e+000,4.8225578219e+000,5.8877222806e+000,4.1952142971e+000,4.5029255145e+000,3.9689050841e+000,4.4894136218e+000,1.6465056208e+000,4.0820949805e+000,3.2018451546e+000,3.7903047896e+000,
1.8375000000e+001,3.8177935081e+000,3.6291060281e+000,3.3646549716e+000,3.6472786166e+000,4.9771972000e+000,5.7976700309e+000,4.3881808939e+000,4.4112222968e+000,3.9774273849e+000,4.4811880893e+000,1.6375638202e+000,4.0931958883e+000,3.1960275760e+000,3.7918440073e+000,
1.8468750000e+001,3.9311700169e+000,3.6556219490e+000,3.4135789329e+000,3.5786445488e+000,5.1530202840e+000,5.8754890650e+000,4.4553145364e+000,4.4890919081e+000,4.0320446275e+000,4.3539654875e+000,1.6118624233e+000,4.1334852507e+000,3.2579985014e+000,3.7854649205e+000,
1.8562500000e+001,3.9988866650e+000,3.5097866504e+000,3.4764085251e+000,3.4686707164e+000,5.1245937176e+000,5.8750614025e+000,4.4752682340e+000,4.4640159669e+000,4.1020803578e+000,4.2676294251e+000,1.6788503178e+000,4.1136831999e+000,3.2466443192e+000,3.7997395582e+000,
1.8656250000e+001,4.0459360585e+000,3.4736413277e+000,3.4951749451e+000,3.4256537508e+000,5.1069611320e+000,6.1066481012e+000,4.3847439362e+000,4.5156857266e+000,4.1288782867e+000,4.2646014130e+000,1.6538503706e+000,4.1218931906e+000,3.2802625747e+000,3.9008014913e+000,
1.8750000000e+001,4.0479063697e+000,3.6211962937e+000,3.5353428706e+000,3.4773114702e+000,5.0995556713e+000,6.1578020635e+000,4.3899406549e+000,4.6362121690e+000,4.0659464205e+000,4.2156590407e+000,1.6622575696e+000,4.1384548201e+000,3.3331657222e+000,3.8869662290e+000,
1.8843750000e+001,4.1500789608e+000,3.6576910185e+000,3.4935192742e+000,3.5440807010e+000,5.1015829737e+000,6.1853172558e+000,4.3595447223e+000,4.6422752420e+000,3.7660728587e+000,4.2006225409e+000,1.4340277917e+000,4.1358208304e+000,3.3690326984e+000,3.8494241969e+000,
1.8937500000e+001,4.1170531541e+000,3.6179876604e+000,3.4335370301e+000,3.5560343286e+000,5.0875382957e+000,6.2003958880e+000,4.3323496467e+000,4.6696002738e+000,3.5025236183e+000,4.3725047641e+000,1.3957987087e+000,4.1000123155e+000,3.3847516672e+000,3.8541536831e+000,
1.9031250000e+001,4.1351634824e+000,3.6785620346e+000,3.4302676731e+000,3.5092149742e+000,5.0917119713e+000,6.1866725376e+000,4.4453858083e+000,4.6707249496e+000,3.5610103849e+000,4.3646589491e+000,1.3171761240e+000,4.0245414899e+000,3.2942516385e+000,3.7695440044e+000,
1.9125000000e+001,4.1445162678e+000,3.6771609596e+000,3.4496280970e+000,3.4828856452e+000,5.1362991553e+000,6.2140047327e+000,4.4807722064e+000,4.6545637783e+000,3.5105625200e+000,4.2824112425e+000,1.3192583869e+000,3.9265035596e+000,3.2690706200e+000,3.6398496419e+000,
1.9218750000e+001,4.1319735738e+000,3.6707401977e+000,3.4191202962e+000,3.4554376019e+000,5.1400363143e+000,6.2277179957e+000,4.4959392767e+000,4.6436404382e+000,3.5293013187e+000,4.3187026134e+000,1.3185251860e+000,3.9403527648e+000,3.3665907093e+000,3.7140731746e+000,
1.9312500000e+001,4.2023628501e+000,3.7925432611e+000,3.4406590496e+000,3.5431544545e+000,5.0874160754e+000,6.2936951492e+000,4.3399474310e+000,4.7704808882e+000,3.5633861563e+000,4.2282509167e+000,1.3090594080e+000,3.7774352950e+000,3.3513170231e+000,3.6006991644e+000,
1.9406250000e+001,4.1206965149e+000,3.7299768817e+000,3.3761145140e+000,3.5255137093e+000,4.7951862790e+000,6.3422274958e+000,4.3084419481e+000,4.8466280279e+000,3.5585379529e+000,4.3136271878e+000,1.3232414626e+000,3.7756722312e+000,3.3236442072e+000,3.6115809888e+000,
1.9500000000e+001,4.0883651063e+000,3.7014765857e+000,3.2937451905e+000,3.4793488426e+000,4.7681315832e+000,6.2874765321e+000,4.2407944865e+000,4.7357165651e+000,3.4371118891e+000,4.2922045693e+000,1.2866833150e+000,3.6322807083e+000,3.2980118482e+000,3.5796517880e+000,
1.9593750000e+001,3.8778480102e+000,3.7213725300e+000,3.0958353501e+000,3.4808125280e+000,4.8025327537e+000,6.1857739341e+000,4.2729750419e+000,4.7052007172e+000,3.3712930820e+000,4.2618819314e+000,1.2847634931e+000,3.6441432786e+000,3.3442025845e+000,3.5015985450e+000,
1.9687500000e+001,3.8956093981e+000,3.7351743774e+000,3.0862572929e+000,3.5440452032e+000,4.8327834550e+000,6.0071604524e+000,4.2712636496e+000,4.6483399259e+000,3.3814529669e+000,4.4360247008e+000,1.2450590918e+000,3.8056496886e+000,3.3381289678e+000,3.5238639738e+000,
1.9781250000e+001,3.9097698129e+000,3.6146225908e+000,2.9788878052e+000,3.4094503262e+000,4.7946485418e+000,5.9338141125e+000,4.3323170806e+000,4.6348496839e+000,3.5008128892e+000,4.3209828577e+000,1.3832489716e+000,3.7071940801e+000,3.3612195106e+000,3.5006548347e+000,
1.9875000000e+001,3.8579566288e+000,3.5798441188e+000,2.8376578097e+000,3.3754541906e+000,4.7117011216e+000,5.8510256795e+000,4.3193254234e+000,4.5618976036e+000,3.4472741222e+000,4.1568140405e+000,1.4074665975e+000,3.6689272663e+000,3.3738025018e+000,3.4601463348e+000,
1.9968750000e+001,3.8467129724e+000,3.5301946546e+000,2.6896640272e+000,3.3673403936e+000,4.7025808897e+000,5.7766529900e+000,4.2946161924e+000,4.5115148081e+000,3.4174451429e+000,4.1444920936e+000,1.4060344552e+000,3.6678373036e+000,3.4382647576e+000,3.5258920254e+000,
2.0062500000e+001,3.7712775091e+000,3.4195391834e+000,2.6212739991e+000,3.3322882822e+000,4.6218702977e+000,5.7808716873e+000,4.1185628784e+000,4.5462294447e+000,3.3451224758e+000,4.1052518286e+000,1.2923091182e+000,3.6385617167e+000,3.3887044690e+000,3.4970112211e+000,
2.0156250000e+001,3.7497759370e+000,3.5265606236e+000,2.6009040758e+000,3.4336682702e+000,4.5677327117e+000,5.7376418657e+000,4.0901606163e+000,4.6302852429e+000,3.3663474799e+000,4.2245876011e+000,1.3117853899e+000,3.4942750050e+000,3.2357357710e+000,3.3708590218e+000,
2.0250000000e+001,3.8060044492e+000,3.5567312076e+000,2.6883277694e+000,3.4919749111e+000,4.6676194261e+000,5.7123030946e+000,4.1565418069e+000,4.6539232385e+000,3.3143005245e+000,4.1938741472e+000,1.4382747240e+000,3.5518264786e+000,3.1398740731e+000,3.3753102785e+000,
2.0343750000e+001,3.7465989252e+000,3.3961636467e+000,2.7848120005e+000,3.4540310014e+000,4.5811275861e+000,5.5818181335e+000,4.0589915978e+000,4.4872888429e+000,3.2341780639e+000,4.1968572459e+000,1.4663537880e+000,3.5478949031e+000,3.0127365376e+000,3.4003417594e+000,
2.0437500000e+001,3.7098667595e+000,3.3413057495e+000,2.8204262357e+000,3.4362614618e+000,4.5750812772e+000,5.4609083089e+000,3.9365962102e+000,4.3609802534e+000,3.3409574767e+000,4.1208461756e+000,1.4971838653e+000,3.4627532111e+000,2.9392795366e+000,3.3114114993e+000,
2.0531250000e+001,3.7290465360e+000,3.3894166266e+000,2.8581078860e+000,3.4917536920e+000,4.5620219823e+000,5.4729785063e+000,3.8803623483e+000,4.4113566044e+000,3.2923651237e+000,4.1261995563e+000,1.4660008666e+000,3.4960723131e+000,2.9514043656e+000,3.3248338416e+000,
2.0625000000e+001,3.7548484833e+000,3.4196006991e+000,2.9410194672e+000,3.4142549840e+000,4.6539437168e+000,5.3441302676e+000,3.8417738364e+000,4.4093143963e+000,3.2820578620e+000,4.2581775158e+000,1.3592486865e+000,3.4718571106e+000,2.9308002839e+000,3.3013982736e+000,
2.0718750000e+001,3.6789535673e+000,3.3697041597e+000,2.8962881834e+000,3.3220663877e+000,4.5432577725e+000,5.2066300061e+000,3.7993144890e+000,4.3266746838e+000,3.2638439279e+000,4.1974142584e+000,1.3379306250e+000,3.2367085180e+000,2.7644309382e+000,3.1143299090e+000,
2.0812500000e+001,3.5818345354e+000,3.3829024068e+000,2.8235892917e+000,3.3116252942e+000,4.5240829045e+000,5.2529437097e+000,3.6980227112e+000,4.3333110527e+000,3.1102300959e+000,4.3054744147e+000,1.2247237167e+000,3.1997301616e+000,2.6761315687e+000,3.1641843253e+000,
2.0906250000e+001,3.5862687708e+000,3.4094069395e+000,2.9102891639e+000,3.3269591540e+000,4.5613040405e+000,5.2578042275e+000,3.6674187160e+000,4.2977445138e+000,3.0956935856e+000,4.2864958027e+000,1.2785576061e+000,3.0804636441e+000,2.4867754093e+000,3.1670380687e+000,
2.1000000000e+001,3.5675033536e+000,3.4348679511e+000,2.9198123613e+000,3.3296887880e+000,4.5542036440e+000,5.1843273348e+000,3.6100955853e+000,4.2404075898e+000,3.1661885720e+000,4.2639403468e+000,1.3267973251e+000,3.1846148240e+000,2.5801084575e+000,3.1958545006e+000,
2.1093750000e+001,3.6176598829e+000,3.5122061591e+000,2.9998575826e+000,3.3702694949e+000,4.6261367386e+000,5.2036171459e+000,3.5570125044e+000,4.2391019264e+000,3.2220936929e+000,4.2514537195e+000,1.3756905546e+000,3.2368244423e+000,2.7137926296e+000,3.1510338225e+000,
2.1187500000e+001,3.5759281071e+000,3.4096416629e+000,2.9402533680e+000,3.2830973420e+000,4.5787727018e+000,5.1438102546e+000,3.5699306382e+000,4.1732302337e+000,3.2325289838e+000,4.2644585105e+000,1.3592742873e+000,3.2793186515e+000,2.9291700747e+000,3.2720441155e+000,
2.1281250000e+001,3.5259870400e+000,3.4009673068e+000,2.9437608281e+000,3.2939814076e+000,4.5673607734e+000,4.9826975967e+000,3.4439967981e+000,4.1021743839e+000,3.2518234921e+000,4.2705524474e+000,1.3910318158e+000,3.1963078361e+000,2.9262685807e+000,3.3128938157e+000,
2.1375000000e+001,3.4558294973e+000,3.4236318363e+000,2.9579021407e+000,3.6692343544e+000,4.4834321543e+000,4.7842140215e+000,3.1315558895e+000,4.0430375161e+000,3.2244020977e+000,4.2638902679e+000,1.3664412806e+000,3.1802803167e+000,2.9017359093e+000,3.3296994264e+000,
2.1468750000e+001,3.4613879609e+000,3.4744496682e+000,3.0822984962e+000,4.0410996733e+000,4.5059495522e+000,4.6819378484e+000,3.1042665568e+000,4.1163796774e+000,3.2323842280e+000,4.2856215988e+000,1.5562561698e+000,3.2427460796e+000,2.9093530943e+000,3.4073912438e+000,
2.1562500000e+001,3.3486826777e+000,3.5197480593e+000,3.0430085202e+000,4.0292190305e+000,4.3347836933e+000,4.7713772972e+000,2.9434213074e+000,4.1345636480e+000,3.2238836209e+000,4.3255030390e+000,1.6399887948e+000,3.3166298039e+000,2.9546631577e+000,3.4683256703e+000,
2.1656250000e+001,3.3499820826e+000,3.5013581052e+000,3.3680909248e+000,4.5437430389e+000,4.2946599212e+000,4.7504937071e+000,2.9127259999e+000,4.1619176381e+000,3.1784373417e+000,4.2710132195e+000,1.9322713883e+000,3.4795641873e+000,3.0159412523e+000,3.4959023815e+000,
2.1750000000e+001,3.3227968707e+000,3.4647409476e+000,3.5883350330e+000,4.9189346528e+000,4.1914424076e+000,4.6821144724e+000,2.8397795822e+000,4.2097768932e+000,3.2617833995e+000,4.1847563026e+000,2.3181532889e+000,3.5351918765e+000,2.9249925075e+000,3.5207717470e+000,
2.1843750000e+001,3.4092601467e+000,3.5100392987e+000,3.7175607919e+000,5.0594215850e+000,4.2200440294e+000,4.6484897038e+000,2.8124372147e+000,4.2640850500e+000,3.2448436528e+000,4.3767063831e+000,2.4032337415e+000,3.6861032758e+000,2.9846260342e+000,3.5395772118e+000,
2.1937500000e+001,3.6143233473e+000,3.6081774131e+000,3.8758074316e+000,5.1683518441e+000,4.5650562274e+000,4.9156153719e+000,3.0187755336e+000,4.3800229623e+000,3.1899787909e+000,4.7004217705e+000,2.4422550366e+000,3.8172252266e+000,3.0629966148e+000,3.6617222339e+000,
2.2031250000e+001,3.6992618769e+000,3.6363932440e+000,3.9134600673e+000,5.1923882716e+000,4.5082835429e+000,5.0365440071e+000,3.2840780333e+000,4.4142655879e+000,3.2571112684e+000,4.7438006434e+000,2.4465917812e+000,3.8834030924e+000,3.0293195204e+000,3.7200636622e+000,
2.2125000000e+001,3.6920723531e+000,3.6144157337e+000,3.8921815993e+000,5.1939646936e+000,4.5392491457e+000,5.0962696924e+000,3.4211554789e+000,4.3724427946e+000,3.1675502517e+000,4.7468091259e+000,2.4354994350e+000,3.8979315233e+000,2.9951376338e+000,3.7015535916e+000,
2.2218750000e+001,3.7874968177e+000,3.6618910672e+000,3.9420757971e+000,5.2120389779e+000,4.5654702327e+000,5.2240176599e+000,3.6709606746e+000,4.3601572392e+000,3.0531826991e+000,4.7437458109e+000,2.4496582253e+000,3.8905753824e+000,2.8846030283e+000,3.6710338566e+000,
2.2312500000e+001,3.7868934132e+000,3.6220152993e+000,3.9360420747e+000,5.2358765146e+000,4.6267004660e+000,5.2662115978e+000,3.7537174478e+000,4.3914407798e+000,3.1576484485e+000,4.7514352218e+000,2.4656049025e+000,3.8897430621e+000,3.0440196046e+000,3.5938150590e+000,
2.2406250000e+001,3.7920811079e+000,3.6154002810e+000,3.9179986368e+000,5.1328021555e+000,4.6638307696e+000,5.3298867967e+000,3.8574195638e+000,4.4013465643e+000,3.1580930181e+000,4.7987113083e+000,2.5054104107e+000,3.8988223431e+000,3.0529969939e+000,3.5986876985e+000,
2.2500000000e+001,3.7395843294e+000,3.5437992955e+000,3.8962028218e+000,5.0846648216e+000,4.6524895946e+000,5.3897726945e+000,3.8949641659e+000,4.3633680820e+000,3.2415574193e+000,4.8173370446e+000,2.4784237032e+000,3.8945478838e+000,3.0246745787e+000,3.5815877567e+000,
2.2593750000e+001,3.7952278706e+000,3.6218526690e+000,3.8905211632e+000,5.0998908987e+000,4.7182272488e+000,5.4258108768e+000,3.9072201401e+000,4.4517708747e+000,3.3058680026e+000,4.8036595087e+000,2.4715345944e+000,3.8325444453e+000,3.0340051227e+000,3.5937999958e+000,
2.2687500000e+001,3.7502281783e+000,3.6549224724e+000,3.7079140826e+000,4.6474460629e+000,4.6837124769e+000,5.4859605641e+000,3.9210999446e+000,4.3687312676e+000,3.3816558582e+000,4.7839434481e+000,2.1331578125e+000,3.7253750310e+000,3.0296569599e+000,3.5324329137e+000,
2.2781250000e+001,3.8185735601e+000,3.6487998458e+000,3.5697441281e+000,4.4247093286e+000,4.7477285262e+000,5.4757787597e+000,3.9469798599e+000,4.4214759813e+000,3.3277740456e+000,4.7521473456e+000,1.9635230260e+000,3.7336762141e+000,3.0923702047e+000,3.5755886453e+000,
2.2875000000e+001,3.6873768988e+000,3.6574484986e+000,3.3373320356e+000,4.1832760052e+000,4.7201351049e+000,5.4647293847e+000,3.8847802774e+000,4.3660138762e+000,3.3564902239e+000,4.5723616549e+000,1.8600781475e+000,3.7255824958e+000,3.1442003086e+000,3.5833104235e+000,
2.2968750000e+001,3.5613782131e+000,3.6119041703e+000,3.1142092473e+000,3.8872736243e+000,4.4734515394e+000,5.3213618253e+000,3.9037533664e+000,4.2744704552e+000,3.2700508855e+000,4.2659337317e+000,1.8918354820e+000,3.4890604220e+000,3.1049967041e+000,3.4768800694e+000,
2.3062500000e+001,3.5061173796e+000,3.5525703724e+000,3.0258976804e+000,3.7950526921e+000,4.4696831219e+000,5.2830806275e+000,3.7296396308e+000,4.2253409517e+000,3.2711887033e+000,4.2675371402e+000,1.9482950574e+000,3.6068821269e+000,3.2315398677e+000,3.6682660606e+000,
2.3156250000e+001,3.4482998571e+000,3.4692549389e+000,2.9949340846e+000,3.7371647761e+000,4.4440341219e+000,5.1909530648e+000,3.6917009524e+000,4.1865291738e+000,3.3618612285e+000,4.2099825040e+000,1.9814123432e+000,3.5262102577e+000,3.1705993330e+000,3.6352581725e+000,
2.3250000000e+001,3.4159990962e+000,3.4412943990e+000,2.9352252589e+000,3.6506976770e+000,4.3511363238e+000,5.1380547206e+000,3.4677687521e+000,4.2714158709e+000,3.2701211684e+000,4.1556358759e+000,1.9558146969e+000,3.5756652105e+000,3.2416992959e+000,3.6770446629e+000,
2.3343750000e+001,3.4004088100e+000,3.4876310212e+000,2.8883750281e+000,3.6115431242e+000,4.2739224291e+000,5.1256448356e+000,3.3280175088e+000,4.3823408839e+000,3.3488048464e+000,4.1328014994e+000,1.8467650877e+000,3.6191818761e+000,3.1853148763e+000,3.6956919300e+000,
2.3437500000e+001,3.5895538606e+000,3.4932053677e+000,2.8766563609e+000,3.6175913654e+000,4.2878553472e+000,5.1265604359e+000,3.3184421127e+000,4.3724597374e+000,3.3113554907e+000,4.1495124528e+000,1.7799666910e+000,3.6789390997e+000,3.3038205071e+000,3.7449148668e+000,
2.3531250000e+001,3.5577733750e+000,3.3804990554e+000,2.9333305812e+000,3.5993562257e+000,4.3133435180e+000,5.0882334292e+000,3.3428754410e+000,4.4053472324e+000,3.3601798204e+000,4.2777457712e+000,1.7398952702e+000,3.8375479983e+000,3.3749126934e+000,3.7963806889e+000,
2.3625000000e+001,3.5718229459e+000,3.3816533746e+000,2.9496291393e+000,3.5127621374e+000,4.3034354536e+000,4.9815075696e+000,3.3647713057e+000,4.3494407427e+000,3.3271561274e+000,4.2455979667e+000,1.7044538601e+000,3.8405025437e+000,3.3901614689e+000,3.8127156124e+000,
2.3718750000e+001,3.6091649685e+000,3.4081908416e+000,2.9299226167e+000,3.4942041204e+000,4.2291737250e+000,4.8990336687e+000,3.2123880017e+000,4.2073247153e+000,3.2600168328e+000,4.2958605673e+000,1.6741810143e+000,3.8842405290e+000,3.3558858763e+000,3.8636593853e+000,
2.3812500000e+001,3.5652482725e+000,3.4033150534e+000,2.9941893977e+000,3.4648648766e+000,4.2195281516e+000,4.8650292863e+000,3.1800193847e+000,4.1931530879e+000,3.2447698215e+000,4.2927861535e+000,1.6055269637e+000,3.7634135093e+000,3.2686619766e+000,3.7200797338e+000,
2.3906250000e+001,3.5819075715e+000,3.3793257088e+000,3.0148516569e+000,3.5377752451e+000,4.2149011741e+000,4.7986975009e+000,3.2329113240e+000,4.1358920707e+000,3.3067216124e+000,4.2433003502e+000,1.4957928114e+000,3.7155004290e+000,3.1727039266e+000,3.6867977590e+000,
2.4000000000e+001,3.5376693316e+000,3.2295670149e+000,2.9937126295e+000,3.5178935140e+000,4.0732706996e+000,4.5814094840e+000,3.0840076894e+000,4.1199411560e+000,3.3216927616e+000,4.2024290805e+000,1.4695061121e+000,3.7085761818e+000,3.2266600091e+000,3.5500180288e+000,
2.4093750000e+001,3.5465935123e+000,3.3060526556e+000,3.0022326772e+000,3.5461039941e+000,4.0680040786e+000,4.4878019283e+000,3.1102024911e+000,4.0958912287e+000,3.3691077444e+000,4.1312474830e+000,1.3978013063e+000,3.6277008034e+000,3.1599618338e+000,3.5492039631e+000,
2.4187500000e+001,3.7836085579e+000,3.4174107526e+000,2.9815036108e+000,3.5914086866e+000,3.9682321732e+000,4.4290593898e+000,3.1876053755e+000,4.0158866345e+000,3.3329455307e+000,4.1708918993e+000,1.3770685678e+000,3.6648735721e+000,3.1429038697e+000,3.6238206270e+000,
2.4281250000e+001,3.8556284461e+000,3.4232667397e+000,3.0121389117e+000,3.6244315972e+000,3.9257641281e+000,4.3474839363e+000,3.2129804931e+000,3.9453887937e+000,3.4350312568e+000,4.2135802826e+000,1.3854308738e+000,3.6678121516e+000,3.0620323948e+000,3.6582773060e+000,
2.4375000000e+001,3.8640476839e+000,3.4799439784e+000,3.0070005322e+000,3.5959996753e+000,3.8917603695e+000,4.1876805065e+000,3.2628315970e+000,3.7861905027e+000,3.3859016608e+000,4.1137257805e+000,1.3674425675e+000,3.7593789036e+000,3.1870524088e+000,3.7556106220e+000,
2.4468750000e+001,3.7508823787e+000,3.4739446582e+000,2.8670555705e+000,3.4472819358e+000,3.6070099321e+000,3.9496848310e+000,3.1710027288e+000,3.6622358231e+000,3.3801106986e+000,3.8520617012e+000,1.2925373399e+000,3.5508443572e+000,3.0322870718e+000,3.6288292472e+000,
2.4562500000e+001,3.6842533314e+000,3.3740547803e+000,2.7429756054e+000,3.4106956332e+000,3.6023318423e+000,3.7987594256e+000,3.1391324433e+000,3.3507175566e+000,3.3199479689e+000,3.7220582235e+000,1.3383677011e+000,3.5975418848e+000,2.9251353159e+000,3.6896431043e+000,
2.4656250000e+001,3.6863291646e+000,3.3364595796e+000,2.7360315561e+000,3.4490823207e+000,3.4100432917e+000,3.7759799709e+000,3.0813303450e+000,3.2949495246e+000,3.2891173896e+000,3.7250184939e+000,1.3858558548e+000,3.5955946580e+000,2.9918662753e+000,3.7408350518e+000,
2.4750000000e+001,3.6759758233e+000,3.2150232295e+000,2.8223261666e+000,3.3878054903e+000,3.3387381327e+000,3.7020986357e+000,3.1663974560e+000,3.3991816488e+000,3.1992991430e+000,3.6742846062e+000,1.3555065049e+000,3.6216065541e+000,3.0554039391e+000,3.7410036909e+000,
2.4843750000e+001,3.7143023851e+000,3.2045843760e+000,2.9858725844e+000,3.3847866035e+000,3.3326857101e+000,3.7343384640e+000,3.0354963969e+000,3.4479210923e+000,3.1886001463e+000,3.6723778292e+000,1.4182602132e+000,3.6128649803e+000,3.1220090194e+000,3.7995058870e+000,
2.4937500000e+001,3.7285976373e+000,3.2408351034e+000,3.0648698120e+000,3.3545716690e+000,3.3298151031e+000,3.7356271153e+000,3.0018205882e+000,3.6180693907e+000,3.1231009741e+000,3.6346540379e+000,1.4402766674e+000,3.6113470465e+000,3.1144458622e+000,3.8045432452e+000,
2.5031250000e+001,3.7049480496e+000,3.2761080010e+000,3.0655964070e+000,3.3568202983e+000,3.2502923852e+000,3.7861655964e+000,2.9412158482e+000,3.5833062421e+000,3.0359133810e+000,3.5387857676e+000,1.4241478997e+000,3.5237892470e+000,2.9173698286e+000,3.7396558951e+000,
2.5125000000e+001,3.6192600165e+000,3.2583008172e+000,3.0132209853e+000,3.2762673091e+000,3.0263456878e+000,3.7303365156e+000,2.8365394156e+000,3.5483111659e+000,3.0139280150e+000,3.4489881250e+000,1.3695682368e+000,3.4580355226e+000,2.8978772152e+000,3.7350140919e+000,
2.5218750000e+001,3.2528297255e+000,3.1462171178e+000,2.9501529027e+000,3.1631936832e+000,3.0910271690e+000,3.7327970323e+000,2.6967228534e+000,3.4932762088e+000,2.9213214919e+000,3.2101998506e+000,1.3269542981e+000,3.3702872827e+000,2.9499825431e+000,3.6754396083e+000,
2.5312500000e+001,3.2935107153e+000,3.1070535311e+000,2.9806888243e+000,3.1082990792e+000,3.0369334641e+000,3.6512444948e+000,2.6266875327e+000,3.3975158021e+000,2.7115195504e+000,3.0658804486e+000,1.3105946797e+000,3.1321205517e+000,2.7239865468e+000,3.4029183874e+000,
2.5406250000e+001,3.1782766909e+000,2.9923145182e+000,2.9906727475e+000,3.1184998437e+000,3.1308275689e+000,3.6222137473e+000,2.4114309602e+000,3.4832235099e+000,2.8544198154e+000,3.1120061806e+000,1.5302389895e+000,3.0970844455e+000,2.8353936489e+000,3.3606364461e+000,
2.5500000000e+001,3.2182177542e+000,2.9216268707e+000,3.0522967066e+000,3.1200778829e+000,3.1623281135e+000,3.5928385733e+000,2.4748204124e+000,3.4900357451e+000,2.7728022180e+000,3.0845369860e+000,1.5754402700e+000,3.0247498252e+000,2.8416401678e+000,3.3514456784e+000,
2.5593750000e+001,3.1630381901e+000,2.9608354952e+000,3.0737794654e+000,3.1179028538e+000,3.0785148600e+000,3.6044281776e+000,2.4655893563e+000,3.4813338577e+000,2.7749706002e+000,3.0893932218e+000,1.5243897615e+000,2.9209729659e+000,2.8616039637e+000,3.2444708885e+000,
2.5687500000e+001,3.2125434905e+000,2.9866284160e+000,3.0197125503e+000,3.0544451953e+000,3.0998006347e+000,3.5470932424e+000,2.4124918427e+000,3.4189895364e+000,2.7264036145e+000,3.0998389462e+000,1.5127703061e+000,2.8718278534e+000,2.7392828446e+000,3.1736397877e+000,
2.5781250000e+001,3.1816015782e+000,2.9573421302e+000,2.7544953113e+000,3.0001664294e+000,3.1309105548e+000,3.3995716766e+000,2.1393352207e+000,3.2085493358e+000,2.7737949924e+000,3.0624299834e+000,1.4753126349e+000,2.8129982919e+000,2.7622908719e+000,3.1737697602e+000,
2.5875000000e+001,3.2022907327e+000,2.9867720230e+000,2.6413685937e+000,3.0444716287e+000,3.1890273356e+000,3.3676821402e+000,2.2290906220e+000,3.0473182972e+000,2.7988537522e+000,3.1447358003e+000,1.5056577326e+000,2.9931288436e+000,2.7354083852e+000,3.2526353478e+000,
2.5968750000e+001,3.2714417493e+000,2.9174698542e+000,2.5164226991e+000,2.9967412968e+000,3.0981987924e+000,3.2617198082e+000,2.4388677195e+000,2.8642363591e+000,2.7893255221e+000,3.2540946607e+000,1.5324159887e+000,3.1348463603e+000,2.7594696610e+000,3.3421807728e+000,
2.6062500000e+001,3.3865835852e+000,3.1556140541e+000,2.5624220774e+000,2.9755104362e+000,3.1664369934e+000,3.2102760523e+000,2.5764862498e+000,2.7357848526e+000,2.8798431721e+000,3.2654464458e+000,1.5606764604e+000,3.2889827040e+000,2.9173927407e+000,3.3627044839e+000,
2.6156250000e+001,3.3665131497e+000,3.1597400247e+000,2.5434020046e+000,2.9548869959e+000,3.1795924107e+000,3.0691746254e+000,2.5644471847e+000,2.6951333358e+000,2.8453513566e+000,3.1819882321e+000,1.5452716926e+000,3.3013154771e+000,2.9330318688e+000,3.1791132218e+000,
2.6250000000e+001,3.4171295632e+000,3.1340282451e+000,2.5915753960e+000,2.8793993577e+000,3.1879293672e+000,3.0912111334e+000,2.6815387021e+000,2.7194080359e+000,2.8484014554e+000,3.2933338129e+000,1.6044237905e+000,3.3476891886e+000,2.9205762949e+000,3.2392688595e+000,
2.6343750000e+001,3.3768453140e+000,3.1843477179e+000,2.5266699388e+000,2.6992867209e+000,3.1041983767e+000,3.0891977682e+000,2.7203700687e+000,2.6683113813e+000,2.8518264161e+000,3.2892019384e+000,1.6348239981e+000,3.3703931194e+000,2.9076005447e+000,3.2795378352e+000,
2.6437500000e+001,3.3832642445e+000,3.2723902363e+000,2.5304796327e+000,2.8295297196e+000,3.1203690760e+000,3.0892804609e+000,2.6717535877e+000,2.6128864897e+000,2.7703631093e+000,3.2671882943e+000,1.5132925462e+000,3.4301912931e+000,2.9431675113e+000,3.3697301839e+000,
2.6531250000e+001,3.3719761787e+000,3.2842858761e+000,2.4180228025e+000,2.8385537435e+000,3.1298551691e+000,3.1458176294e+000,2.7649017288e+000,2.7292491947e+000,2.7405878798e+000,3.3971796876e+000,1.4986942560e+000,3.4136027033e+000,2.9791193166e+000,3.3668660037e+000,
2.6625000000e+001,3.3923026264e+000,3.3203404560e+000,2.4632016935e+000,2.9046988669e+000,3.1256640006e+000,3.2339089085e+000,2.7856924969e+000,2.8176712739e+000,2.7282758785e+000,3.4621165874e+000,1.5262125210e+000,3.3955393534e+000,2.9908876468e+000,3.3704149395e+000,
2.6718750000e+001,3.3790617225e+000,3.3671304953e+000,2.4983333304e+000,2.8679736445e+000,3.1764181050e+000,3.2283189547e+000,2.7968035428e+000,2.9227039191e+000,2.7497418685e+000,3.4391309007e+000,1.5359601308e+000,3.4424731534e+000,3.1354315520e+000,3.3883201569e+000,
2.6812500000e+001,3.3144514182e+000,3.3934308377e+000,2.4780780866e+000,2.9107234617e+000,3.1474767715e+000,3.2854225070e+000,2.8560043879e+000,2.9737394865e+000,2.7030508704e+000,3.6209169106e+000,1.5530946408e+000,3.6155616491e+000,3.1696639798e+000,3.4476761017e+000,
2.6906250000e+001,3.3864949962e+000,3.3800844707e+000,2.5505130748e+000,2.8523910286e+000,3.2826712920e+000,3.2898281548e+000,2.8551008018e+000,2.9827953349e+000,2.7380499876e+000,3.6006054507e+000,1.4906801943e+000,3.6685638920e+000,3.1817626670e+000,3.4575165597e+000,
2.7000000000e+001,3.2245173133e+000,3.3086146764e+000,2.6164898714e+000,2.8653554164e+000,3.2235600908e+000,3.1805205958e+000,2.7444714916e+000,2.9251453783e+000,2.6885795434e+000,3.5830516187e+000,1.4388185426e+000,3.5858823278e+000,3.1273654770e+000,3.3804130173e+000,
2.7093750000e+001,3.1244522744e+000,3.0954275458e+000,2.6154232385e+000,2.8514511360e+000,3.1876097715e+000,3.1424943190e+000,2.7267918365e+000,2.9565400213e+000,2.7589913829e+000,3.5649093350e+000,1.4342100223e+000,3.5288887872e+000,3.0866091761e+000,3.4067338636e+000,
2.7187500000e+001,3.3302265764e+000,3.1601814720e+000,2.7464266708e+000,3.0257014657e+000,3.3320195995e+000,3.2603793905e+000,2.7676884196e+000,3.0423014809e+000,2.9333590827e+000,3.6961831683e+000,1.5179014389e+000,3.5785359526e+000,3.1856427843e+000,3.5134075239e+000,
2.7281250000e+001,3.4390146119e+000,3.3486395802e+000,2.7879156742e+000,3.1804173478e+000,3.2898623114e+000,3.3974515464e+000,2.7513689746e+000,3.2013902521e+000,2.9747757329e+000,3.7225946979e+000,1.4673561658e+000,3.6020463787e+000,3.1123863705e+000,3.6190965449e+000,
2.7375000000e+001,3.4203162056e+000,3.2759226981e+000,2.7854472325e+000,3.1665703629e+000,3.3017404481e+000,3.4330610001e+000,2.6727278509e+000,3.2193951173e+000,2.9711525614e+000,3.7804116925e+000,1.3875365006e+000,3.6177849474e+000,3.0719047308e+000,3.6223967830e+000,
2.7468750000e+001,3.4819676007e+000,3.2313445302e+000,2.8016058099e+000,3.1113105865e+000,3.2834703596e+000,3.4487684704e+000,2.6922799666e+000,3.3163641990e+000,3.0009714193e+000,3.7715355103e+000,1.4182989928e+000,3.6631898769e+000,3.2175674785e+000,3.8085218738e+000,
2.7562500000e+001,3.4512429224e+000,3.3110766376e+000,2.8462653249e+000,3.1157038412e+000,3.3283737763e+000,3.4528058335e+000,2.6389726846e+000,3.3616259395e+000,3.0270472715e+000,3.8602362843e+000,1.4218231765e+000,3.6968442427e+000,3.2074727565e+000,3.9351005331e+000,
2.7656250000e+001,3.4245526702e+000,3.3553109381e+000,2.7671947242e+000,3.1223140660e+000,3.3313561884e+000,3.5205011992e+000,2.5876893540e+000,3.4072933292e+000,3.0437927350e+000,3.8885582543e+000,1.4239979590e+000,3.7063012536e+000,3.1134747811e+000,3.9120564051e+000,
2.7750000000e+001,3.4171493772e+000,3.3335971260e+000,2.7833906672e+000,3.1886629132e+000,3.2424489496e+000,3.5444451919e+000,2.5112361999e+000,3.3887070687e+000,3.1463303316e+000,3.8100127353e+000,1.4184828080e+000,3.6927482442e+000,2.9813229127e+000,3.8952572088e+000,
2.7843750000e+001,3.4030492515e+000,3.3459859434e+000,2.7634737027e+000,3.1707500318e+000,3.2252510789e+000,3.5874154289e+000,2.5481124313e+000,3.4018828614e+000,3.1050481499e+000,3.8514394926e+000,1.4129968443e+000,3.5919995677e+000,2.9043574692e+000,4.0011577562e+000,
2.7937500000e+001,3.7040815503e+000,3.8953760014e+000,3.0863523286e+000,3.4764735552e+000,3.3594825416e+000,3.9877115236e+000,2.6676075839e+000,3.5640879643e+000,3.0622721307e+000,4.0860676341e+000,1.4821057491e+000,3.6216504710e+000,2.8909211309e+000,3.9536120191e+000,
2.8031250000e+001,3.7228163547e+000,3.9759072762e+000,3.1047135006e+000,3.6802377910e+000,3.3735162893e+000,4.0997688706e+000,2.6246741098e+000,3.6245020628e+000,3.1565939253e+000,4.2037077744e+000,1.4982338318e+000,3.6750602074e+000,2.9652489905e+000,3.9973396565e+000,
2.8125000000e+001,3.7031289372e+000,4.0288161373e+000,3.0591941472e+000,3.6760621992e+000,3.3524281104e+000,4.1440880597e+000,2.6298689931e+000,3.6238183314e+000,3.0499024677e+000,4.2101849610e+000,1.3468520513e+000,3.6865825440e+000,2.9465777195e+000,3.9682779102e+000,
2.8218750000e+001,3.5073173592e+000,3.9372087070e+000,3.0412542791e+000,3.5572266423e+000,3.2923446621e+000,4.1058801457e+000,2.5556807854e+000,3.5443265489e+000,2.9915177202e+000,4.2064722814e+000,1.4646413953e+000,3.6468210237e+000,2.8434296915e+000,3.9150238676e+000,
2.8312500000e+001,3.4725396358e+000,3.8754557453e+000,3.0123466163e+000,3.4920393247e+000,3.3059846770e+000,4.0759368594e+000,2.5009455880e+000,3.4628859455e+000,2.9746621170e+000,4.1720426169e+000,1.5425406861e+000,3.6211902219e+000,2.8510246149e+000,3.8984699250e+000,
2.8406250000e+001,3.5818339987e+000,3.9508893606e+000,3.1008042408e+000,3.6565621499e+000,3.4110033640e+000,4.1679322368e+000,2.5330049995e+000,3.5679636084e+000,3.0809448436e+000,4.2163285244e+000,1.5554041717e+000,3.6042930377e+000,2.7431092792e+000,3.8610567269e+000,
2.8500000000e+001,3.5357638765e+000,3.9929373797e+000,3.0632650564e+000,3.6422170603e+000,3.3952914320e+000,4.1633962995e+000,2.3564754972e+000,3.5193711618e+000,3.0983095594e+000,4.1746952436e+000,1.5301028359e+000,3.5996591087e+000,2.5541336252e+000,3.8379840988e+000,
2.8593750000e+001,3.5367892339e+000,3.9388275486e+000,3.0368745979e+000,3.6064410166e+000,3.3643668871e+000,4.1309175325e+000,2.3466553987e+000,5.9752487515e+000,3.2915218632e+000,4.1160453611e+000,1.5432673876e+000,3.5344330957e+000,2.5117001071e+000,3.7872210700e+000,
2.8687500000e+001,3.4883301918e+000,3.9048245428e+000,3.1218014578e+000,3.6132799953e+000,3.4139600474e+000,4.0967640351e+000,2.4143815447e+000,6.2154055995e+000,3.3346457558e+000,4.1563040886e+000,1.5135685849e+000,3.5513350226e+000,2.5080923610e+000,3.7676787110e+000,
2.8781250000e+001,3.5048557200e+000,3.8755099838e+000,3.1032269057e+000,4.4934499190e+000,3.3798143175e+000,4.2005473303e+000,2.3515363636e+000,1.0522440038e+001,3.3224527583e+000,4.2394717328e+000,1.5144020169e+000,4.6472942141e+000,2.4318050444e+000,3.6412629568e+000,
2.8875000000e+001,3.5308467760e+000,3.9019072192e+000,3.0096117711e+000,4.6440355750e+000,3.4401231017e+000,4.1915497390e+000,1.9987516331e+000,1.0801270199e+001,3.4745484203e+000,4.1078484390e+000,1.5936598874e+000,4.7883109833e+000,2.4231763028e+000,3.5858772011e+000,
2.8968750000e+001,3.2819724677e+000,3.5211645184e+000,2.7649806783e+000,4.5770581285e+000,3.4015640197e+000,4.0606289571e+000,2.1655957752e+000,1.0823171262e+001,3.4475539027e+000,3.8959766434e+000,1.6734437267e+000,4.8165463492e+000,2.5448960420e+000,3.6659170595e+000,
2.9062500000e+001,3.2729974684e+000,3.4608567948e+000,2.7005847110e+000,4.5292930587e+000,3.4646625518e+000,3.9940143963e+000,2.2373853795e+000,1.0823395388e+001,3.4602882013e+000,3.7617371776e+000,1.7094374928e+000,4.8064260111e+000,2.4762009043e+000,3.6409002165e+000,
2.9156250000e+001,3.3116763555e+000,3.3894648420e+000,2.7114986219e+000,4.5236134521e+000,3.4942347032e+000,3.9698940487e+000,2.2617053192e+000,1.0823386277e+001,3.4965589100e+000,3.7059647108e+000,1.7668214060e+000,4.8281593915e+000,2.4508306430e+000,3.7023579792e+000,
2.9250000000e+001,3.3537719335e+000,3.4252629852e+000,2.7128752554e+000,4.5511950522e+000,3.4340360019e+000,3.9576486999e+000,2.3306245006e+000,1.0823365283e+001,3.4542963998e+000,3.6166891116e+000,1.7120185387e+000,4.8658144825e+000,2.4787104071e+000,3.7643111119e+000,
2.9343750000e+001,3.3917578687e+000,3.5014301721e+000,2.6876224121e+000,4.5405162707e+000,3.4841862212e+000,3.9706723327e+000,2.4177740701e+000,1.0823314241e+001,3.4657780634e+000,3.6520079361e+000,1.6934053694e+000,4.8758513275e+000,2.5041778497e+000,3.7522358342e+000,
2.9437500000e+001,3.3118185541e+000,3.3828358958e+000,2.6525000651e+000,4.4895917710e+000,3.4146577723e+000,3.8293621712e+000,2.5379183734e+000,1.0823217316e+001,3.4207649954e+000,3.5015678425e+000,1.6739873569e+000,4.8700614305e+000,2.5876153973e+000,3.5771792975e+000,
2.9531250000e+001,3.3283759712e+000,3.3833879284e+000,2.7668381048e+000,4.5000241462e+000,3.4254560498e+000,3.8261379291e+000,2.6187567407e+000,1.0823168915e+001,3.3598272351e+000,3.4770385354e+000,1.6745448615e+000,4.8711085114e+000,2.5970622918e+000,3.4894826722e+000,
2.9625000000e+001,3.3391680460e+000,3.3823297066e+000,2.7270845415e+000,4.5006664325e+000,3.4063389233e+000,3.8555200070e+000,2.7243327653e+000,1.0815136127e+001,3.3483954906e+000,3.3163092687e+000,1.7201739976e+000,4.8712362793e+000,2.6328354335e+000,3.4766130749e+000,
2.9718750000e+001,3.3008805788e+000,3.4247513951e+000,2.7050440917e+000,4.8630238664e+000,3.3830447054e+000,3.7210618590e+000,2.7912949860e+000,1.1114165048e+001,3.3906740188e+000,3.1694597744e+000,1.7787501229e+000,5.1278503287e+000,2.7688557391e+000,3.4035081379e+000,
2.9812500000e+001,3.4268251383e+000,3.4177919065e+000,2.7498419597e+000,4.3374907676e+000,3.3728246530e+000,3.7115955457e+000,2.8659497127e+000,1.0177874003e+001,3.3507965921e+000,3.1027415553e+000,1.7489736016e+000,4.5468182326e+000,2.9248894785e+000,3.4098635029e+000,
2.9906250000e+001,3.2367478973e+000,3.2436111136e+000,2.7167949806e+000,4.2059884189e+000,3.2159285075e+000,3.5024046124e+000,3.0008675479e+000,9.9271468940e+000,3.3127571155e+000,3.1101096055e+000,1.6575481844e+000,4.4778208205e+000,2.8745649813e+000,3.3915004739e+000,
3.0000000000e+001,3.2868617399e+000,3.2785214417e+000,2.6601626156e+000,4.2350300650e+000,3.1591036618e+000,3.5202819189e+000,2.8354196778e+000,9.9277219893e+000,3.3379757869e+000,3.2124504630e+000,1.6779871783e+000,4.5224954788e+000,2.7846868824e+000,3.2857344457e+000,
3.0093750000e+001,3.2972668546e+000,3.3136440836e+000,2.7432553205e+000,4.2372905620e+000,3.1550443171e+000,3.4706442468e+000,2.8745942831e+000,9.9274964816e+000,3.2616828977e+000,3.2047193501e+000,1.6508462424e+000,4.5053672568e+000,2.8004010230e+000,3.3034457097e+000,
3.0187500000e+001,3.4017147862e+000,3.3484147809e+000,2.7602811619e+000,4.2396788895e+000,3.1870502445e+000,3.5520800718e+000,2.8636381718e+000,9.9275401308e+000,3.2558492424e+000,3.3204922411e+000,1.6156566212e+000,4.4677561149e+000,2.9248823310e+000,3.2230026559e+000,
3.0281250000e+001,3.3236814284e+000,3.3052454561e+000,2.7671521399e+000,4.6434027281e+000,3.2263180134e+000,3.5611015645e+000,2.8887203123e+000,1.1343253527e+001,3.3187650163e+000,3.3813471964e+000,1.5633102067e+000,4.9490617480e+000,2.8690022773e+000,3.0263918913e+000,
3.0375000000e+001,3.2647284897e+000,3.2203926170e+000,2.7757693635e+000,5.3139907549e+000,3.3374531046e+000,3.5912531690e+000,2.8596380854e+000,1.1843802232e+001,3.2859694844e+000,3.3092053685e+000,1.5090031430e+000,5.1698948813e+000,2.8615707138e+000,2.9912010334e+000,
3.0468750000e+001,3.3045054000e+000,3.2631699798e+000,2.8143660481e+000,5.3931102126e+000,3.3264602373e+000,3.6089742238e+000,2.6877686337e+000,1.1880715670e+001,3.2375227828e+000,3.4311714863e+000,1.4801905155e+000,5.1980764673e+000,2.8158516705e+000,3.1904420866e+000,
3.0562500000e+001,3.3805967919e+000,3.3506074396e+000,2.9240816645e+000,5.4001983928e+000,3.4395007147e+000,3.6204907865e+000,2.7110156099e+000,1.1881850066e+001,3.2195021438e+000,3.5292102355e+000,1.4721092259e+000,5.2077950510e+000,2.9829107614e+000,3.1909095409e+000,
3.0656250000e+001,3.4047031838e+000,3.3739490563e+000,2.9228045044e+000,5.3633111074e+000,3.4179110721e+000,3.6148052146e+000,2.7019290956e+000,1.1848606432e+001,3.0160235074e+000,3.4921923010e+000,1.4464840670e+000,5.1664954289e+000,2.9083116046e+000,3.1661202334e+000,
3.0750000000e+001,3.4556419423e+000,3.4314554375e+000,2.9335143426e+000,5.1867451751e+000,3.5029743528e+000,3.6657560188e+000,2.6678825516e+000,1.1751398142e+001,2.9690290665e+000,3.4956570828e+000,1.3728649167e+000,4.9504544352e+000,2.8131536625e+000,3.2574579112e+000,
3.0843750000e+001,3.4778416109e+000,3.5049928858e+000,2.9609270866e+000,5.1782680717e+000,3.5157221418e+000,3.6740484535e+000,2.5944979563e+000,1.1738623672e+001,2.8653347729e+000,3.4889478103e+000,1.3475703933e+000,4.9223138459e+000,2.7125323112e+000,3.2891190266e+000,
3.0937500000e+001,3.5418112114e+000,3.5022851573e+000,2.9532197436e+000,5.1534014673e+000,3.4808438348e+000,3.6572345691e+000,2.4237669864e+000,1.1729611475e+001,2.7606543338e+000,3.4182364487e+000,1.3028338651e+000,4.8355748318e+000,2.7892722035e+000,3.4374969673e+000,
3.1031250000e+001,3.4690403760e+000,3.4184231506e+000,2.9080718233e+000,5.1365527156e+000,3.4548134089e+000,3.6540402685e+000,2.4637332604e+000,1.1729149721e+001,2.7609298329e+000,3.3828271622e+000,1.2390358143e+000,4.8427919148e+000,2.7551590140e+000,3.4337781461e+000,
3.1125000000e+001,3.6003114601e+000,3.3620931867e+000,2.9856910586e+000,5.1470140040e+000,3.4958796175e+000,3.7431017627e+000,2.3769376355e+000,1.1729204627e+001,2.8506934975e+000,3.3395588648e+000,1.3498157763e+000,4.8417313857e+000,2.6459004924e+000,3.4444575961e+000,
3.1218750000e+001,3.5278905268e+000,3.2733394782e+000,2.9594682869e+000,5.1519340310e+000,3.4363058159e+000,3.7829888902e+000,2.2665166285e+000,1.1728834188e+001,2.8994731673e+000,3.3886449935e+000,1.3827496115e+000,4.8533290796e+000,2.5843483257e+000,3.4483146891e+000,
3.1312500000e+001,3.5605676106e+000,3.3295891663e+000,2.9309004649e+000,4.4981831129e+000,3.4071419851e+000,3.8189347577e+000,2.2717275978e+000,1.0501122359e+001,2.8385518899e+000,3.4126995240e+000,1.3969831831e+000,3.9303732944e+000,2.6032333246e+000,3.4262450071e+000,
3.1406250000e+001,3.6232339850e+000,3.3382581846e+000,2.9055501315e+000,3.4522462684e+000,3.4783436975e+000,3.8957578624e+000,2.5211766823e+000,7.4192239555e+000,2.8271483154e+000,3.5324326341e+000,1.4941204449e+000,3.4653434813e+000,2.5895732007e+000,3.5109741015e+000,
3.1500000000e+001,3.5681400443e+000,3.2929662569e+000,2.8425731696e+000,3.1127173270e+000,3.4909022540e+000,3.8946183743e+000,2.5914697919e+000,4.8320541319e+000,2.8750934061e+000,3.4603391747e+000,1.4831173816e+000,3.2730165296e+000,2.4717314510e+000,3.4466882188e+000,
3.1593750000e+001,3.5556600951e+000,3.1429031904e+000,2.6446416029e+000,3.0193704067e+000,3.4228911774e+000,3.8315353705e+000,2.6085859477e+000,5.0498506820e+000,2.7915514598e+000,3.5173461918e+000,1.4709064380e+000,3.3728941957e+000,2.3271461475e+000,3.5228200860e+000,
3.1687500000e+001,3.5177193336e+000,3.0788817452e+000,2.7184815003e+000,3.1756582642e+000,3.4013399484e+000,3.9219706979e+000,2.6729304751e+000,5.7584739123e+000,2.8504901988e+000,3.7077187115e+000,1.4929409076e+000,3.5034269387e+000,2.4404546361e+000,3.6370071454e+000,
3.1781250000e+001,3.4674382023e+000,2.8397479990e+000,2.7444319098e+000,3.1080441661e+000,3.3469871079e+000,3.8596653813e+000,2.6162950725e+000,5.9024302715e+000,2.8502173947e+000,3.6414167193e+000,1.5371400510e+000,3.4928390852e+000,2.4663488264e+000,3.5328693844e+000,
3.1875000000e+001,3.3114975572e+000,2.6298148777e+000,2.7228903576e+000,3.0806677686e+000,3.3351428527e+000,3.8739027984e+000,2.6579501805e+000,5.9246043648e+000,2.8941174316e+000,3.6252173995e+000,1.4687281746e+000,3.5417704689e+000,2.4070716274e+000,3.4844135344e+000,
3.1968750000e+001,3.2090969843e+000,2.5037823281e+000,2.7256617586e+000,3.0483113654e+000,3.3065458034e+000,3.8280632414e+000,2.6585017333e+000,5.9446727476e+000,2.8739066298e+000,3.6177606901e+000,1.4165378132e+000,3.4479275872e+000,2.3616783993e+000,3.3777053579e+000,
3.2062500000e+001,3.3634907959e+000,2.6520800422e+000,2.7828768088e+000,3.1137525848e+000,3.3739731353e+000,3.9361502033e+000,2.7182921234e+000,5.9595633006e+000,2.8233206684e+000,3.6663929934e+000,1.4197994241e+000,3.4781625042e+000,2.4377820871e+000,3.3509215787e+000,
3.2156250000e+001,3.2470502373e+000,2.7762012003e+000,2.7267258982e+000,3.0973346162e+000,3.3345066142e+000,3.8769591358e+000,2.7984143852e+000,5.9673244479e+000,2.9382025825e+000,3.7111006601e+000,1.3691016365e+000,3.5146073855e+000,2.4178573178e+000,3.3237898505e+000,
3.2250000000e+001,3.3733134793e+000,2.8417966466e+000,2.8369478160e+000,3.1903805852e+000,3.3256248201e+000,3.8729288643e+000,2.8310860206e+000,5.9537721535e+000,2.9226451972e+000,3.6987785547e+000,1.3809803668e+000,3.5214035605e+000,2.4392623797e+000,3.3379790318e+000,
3.2343750000e+001,3.3428129351e+000,2.8046247177e+000,2.8240151705e+000,3.1702620981e+000,3.2895675190e+000,3.7925393401e+000,2.8854864701e+000,5.9193930717e+000,2.9944817307e+000,3.6398805219e+000,1.3652960149e+000,3.5613823371e+000,2.5399964441e+000,3.3173786269e+000,
3.2437500000e+001,3.3123007553e+000,2.7869795504e+000,2.8364408271e+000,3.2545169121e+000,3.0900767646e+000,3.8118396057e+000,2.7381085900e+000,5.9236336030e+000,2.9485968839e+000,3.5234826781e+000,1.2976043837e+000,3.4607874535e+000,2.5930683189e+000,3.1742061410e+000,
3.2531250000e+001,3.3494233398e+000,2.8088690906e+000,2.8911423992e+000,3.3803581607e+000,3.0757191531e+000,3.8506735200e+000,2.7345208061e+000,5.8980562356e+000,3.0460109724e+000,3.6382570296e+000,1.2979746733e+000,3.6322178234e+000,2.7322789162e+000,3.3121307937e+000,
3.2625000000e+001,3.5128298089e+000,3.1315645997e+000,2.8767696805e+000,3.3945013244e+000,3.1243163355e+000,3.9271870836e+000,2.6884737863e+000,5.6166560132e+000,3.0768756409e+000,3.5286509564e+000,1.3569639209e+000,3.5205783133e+000,2.7540917116e+000,3.2654714718e+000,
3.2718750000e+001,3.6697930490e+000,3.4686284600e+000,2.9060199204e+000,3.4836109346e+000,3.2451621280e+000,4.0313789059e+000,2.8032954899e+000,4.7603953583e+000,3.1162677677e+000,3.5467105932e+000,1.4333686576e+000,3.4658886794e+000,2.7659184241e+000,3.1976444406e+000,
3.2812500000e+001,3.6518050980e+000,3.5219895057e+000,2.8263402954e+000,3.4431922266e+000,3.1261697423e+000,3.9814952774e+000,2.7353976062e+000,4.6402714954e+000,3.1123731721e+000,3.5665045789e+000,1.5366771644e+000,3.4712800157e+000,2.7484118036e+000,3.2866901255e+000,
3.2906250000e+001,3.6573150412e+000,3.6700476779e+000,2.7892019539e+000,3.4325735984e+000,3.1450266602e+000,3.9273550536e+000,2.7125876054e+000,4.6295863698e+000,3.1572519522e+000,3.5055946074e+000,1.5839155460e+000,3.4836038743e+000,2.7238739220e+000,3.2981684416e+000,
3.3000000000e+001,3.7855178918e+000,3.7128131967e+000,2.8458782801e+000,3.5550914313e+000,3.2752155561e+000,3.9379244798e+000,2.7536941765e+000,4.6214488837e+000,3.1514122045e+000,3.5110911284e+000,1.6297903387e+000,3.4907730789e+000,2.8692712335e+000,3.5262967310e+000,
3.3093750000e+001,3.7489954467e+000,3.6970024536e+000,2.8754895409e+000,3.5671475485e+000,3.2184196580e+000,3.8579626058e+000,3.1397682832e+000,5.1222067332e+000,3.1144179782e+000,3.3853775180e+000,1.6254428072e+000,3.4307902480e+000,2.9307327105e+000,3.5383751449e+000,
3.3187500000e+001,3.8138970521e+000,3.6468773644e+000,2.8487083742e+000,3.5033263404e+000,3.2319775517e+000,3.7829436207e+000,3.1489480676e+000,5.0696707389e+000,2.9568807676e+000,3.2858897223e+000,1.5778767309e+000,3.3691734456e+000,3.0714099441e+000,3.5805840380e+000,
3.3281250000e+001,3.8390516776e+000,3.6562325465e+000,2.8452412319e+000,3.4269700321e+000,3.3902653030e+000,3.8267615978e+000,3.1399259162e+000,5.0338234276e+000,2.8793104975e+000,3.3208872296e+000,1.5999743032e+000,3.3365225147e+000,3.0283427134e+000,3.5505803127e+000,
3.3375000000e+001,3.8545397944e+000,3.6425489966e+000,2.8831708771e+000,3.4390709352e+000,3.3606173154e+000,3.8325313591e+000,3.1581144260e+000,4.8905497585e+000,2.8726514773e+000,3.3574988589e+000,1.6217488888e+000,3.3585728502e+000,2.9113770181e+000,3.5945920474e+000,
3.3468750000e+001,3.8492433094e+000,3.6310117633e+000,2.9663421139e+000,3.3487602078e+000,3.4183274957e+000,3.8498845093e+000,3.1471947229e+000,4.8844374259e+000,3.0759330079e+000,3.4903116898e+000,1.5944515496e+000,3.4393189702e+000,2.8130867361e+000,3.6400715089e+000,
3.3562500000e+001,3.8450889838e+000,3.6399886646e+000,2.9253514773e+000,3.3341985072e+000,3.4798357114e+000,3.8060774009e+000,3.1649506709e+000,4.8845303132e+000,3.0613483466e+000,3.4598869194e+000,1.6368289247e+000,3.4284349981e+000,2.7986884274e+000,3.7296560125e+000,
3.3656250000e+001,3.6073617026e+000,3.3000732927e+000,2.8088640696e+000,3.0685603404e+000,3.3709256407e+000,3.5266428423e+000,3.0638763503e+000,4.8679791884e+000,3.0187296418e+000,3.3362786643e+000,1.5484185083e+000,3.4369804271e+000,2.7717205350e+000,3.6610178920e+000,
3.3750000000e+001,3.6869971169e+000,3.3053452624e+000,2.8639960740e+000,3.1814170290e+000,3.3555972658e+000,3.5961714406e+000,3.0733016517e+000,4.8643756645e+000,3.0374306569e+000,3.3979976395e+000,1.6512417068e+000,3.4403781089e+000,2.8660576901e+000,3.6403195297e+000,
3.3843750000e+001,3.7872377799e+000,3.2936401326e+000,2.9674469170e+000,3.3757821869e+000,3.4236614689e+000,3.8418812939e+000,3.1268470511e+000,4.8657764126e+000,3.1082735246e+000,3.5523106886e+000,1.7395707054e+000,3.5768215560e+000,3.0422239801e+000,3.7353092127e+000,
3.3937500000e+001,3.7954492539e+000,3.2119394151e+000,2.9777852871e+000,3.3660160353e+000,3.4328544895e+000,3.8648586243e+000,3.1417877229e+000,4.8289658285e+000,3.1431762623e+000,3.5868512700e+000,1.7921512560e+000,3.5360850728e+000,3.0266771765e+000,3.6786022094e+000,
3.4031250000e+001,3.7261597729e+000,3.3304923599e+000,2.8853823040e+000,3.3012248755e+000,3.3339070788e+000,3.8687358114e+000,3.0727749235e+000,4.7197169638e+000,3.3266343693e+000,3.6273646169e+000,1.7878364812e+000,3.6296896063e+000,2.9395172871e+000,3.6233980295e+000,
3.4125000000e+001,3.7901954293e+000,3.3736565566e+000,2.9551396438e+000,3.4685603423e+000,3.3283206417e+000,3.8900604584e+000,2.6422475771e+000,3.8656829170e+000,3.3458107516e+000,3.6774354178e+000,1.8003167452e+000,3.6401051819e+000,2.9918977607e+000,3.6757728892e+000,
3.4218750000e+001,3.8522173973e+000,3.4971894164e+000,2.9922737271e+000,3.6276590832e+000,3.4130678373e+000,4.0553358336e+000,2.6228975643e+000,3.7861113120e+000,3.4147502559e+000,3.8296245803e+000,1.8769458594e+000,3.7136059385e+000,3.1091761923e+000,3.7792319220e+000,
3.4312500000e+001,3.9356636056e+000,3.5838338486e+000,3.1837032340e+000,3.7351127961e+000,3.5022391970e+000,4.0617235387e+000,2.6706495229e+000,3.7067643528e+000,3.4420048699e+000,3.8517548708e+000,1.8983762304e+000,3.7407060527e+000,3.1139982247e+000,3.8840165867e+000,
3.4406250000e+001,3.9068899411e+000,3.6426953162e+000,3.1235287322e+000,3.6902376633e+000,3.5004135846e+000,3.9689971472e+000,2.6587900173e+000,3.6632669063e+000,3.4053619634e+000,3.8103004763e+000,1.8625810245e+000,3.6814889752e+000,3.2481326448e+000,4.0311488527e+000,
3.4500000000e+001,3.9091057199e+000,3.6459650928e+000,3.1268535580e+000,3.6838480360e+000,3.4919196038e+000,3.9729970445e+000,2.6370681965e+000,3.6681027109e+000,3.3117532822e+000,3.7739522090e+000,1.8966375505e+000,3.7892322215e+000,3.3577990560e+000,4.1509135159e+000,
3.4593750000e+001,3.9345557393e+000,3.5963463781e+000,3.1664137818e+000,3.7398905921e+000,3.4407556978e+000,4.0333518618e+000,2.6107838062e+000,3.7571153506e+000,3.3031028752e+000,3.9425481189e+000,1.9143500012e+000,3.9517756269e+000,3.4488918426e+000,4.1990710405e+000,
3.4687500000e+001,3.9121699057e+000,3.6407224757e+000,3.1538091856e+000,3.7501826961e+000,3.4460505425e+000,4.0960396440e+000,2.6626186217e+000,3.8168272766e+000,3.3029138037e+000,3.9544514171e+000,1.9884997248e+000,3.9830164457e+000,3.5293699335e+000,4.2069393953e+000,
3.4781250000e+001,3.8106900942e+000,3.6274237729e+000,3.1143661072e+000,3.6663377549e+000,3.4891022310e+000,4.0522213339e+000,2.7753904428e+000,3.7768879892e+000,3.3081460096e+000,3.9214780164e+000,1.9005208882e+000,3.9091543981e+000,3.4541276648e+000,4.2492301952e+000,
3.4875000000e+001,3.7527299579e+000,3.5929153172e+000,3.1050976984e+000,3.5878375734e+000,3.4325744304e+000,3.9718742421e+000,2.7852360442e+000,3.7485314225e+000,3.3025322631e+000,3.8893390800e+000,1.8011508465e+000,3.9643616418e+000,3.4588208342e+000,4.2230992943e+000,
3.4968750000e+001,3.7554941511e+000,3.5901060559e+000,3.1126619049e+000,3.6246928421e+000,3.3834401548e+000,4.0390023508e+000,2.7522127665e+000,3.7544315619e+000,3.1748000509e+000,3.9468366571e+000,1.8327063598e+000,3.9932856537e+000,3.4587856496e+000,4.2509084576e+000,
3.5062500000e+001,3.6199748283e+000,3.4935817061e+000,3.0409309052e+000,3.4533956572e+000,3.3412242678e+000,3.9687369248e+000,2.7308478812e+000,3.6084024401e+000,3.0478078545e+000,3.8740648948e+000,1.8726540099e+000,3.9447187958e+000,3.4578403998e+000,4.2300605373e+000,
3.5156250000e+001,3.5745013044e+000,3.5336355898e+000,3.0298751667e+000,3.3875841493e+000,3.3226205741e+000,3.9553600913e+000,2.8324242080e+000,3.6581596990e+000,3.0356754463e+000,3.8714024280e+000,1.8622988726e+000,3.9742400834e+000,3.3879184208e+000,4.1693902408e+000,
3.5250000000e+001,3.2636024177e+000,3.3542576093e+000,2.8255587878e+000,3.2555865487e+000,2.9597471276e+000,3.7007259165e+000,2.7318490594e+000,3.5982557608e+000,2.8653195973e+000,3.7504904926e+000,1.8200240717e+000,3.9869818174e+000,3.2832758730e+000,4.1381849001e+000,
3.5343750000e+001,3.2069046741e+000,3.2819222494e+000,2.7222001652e+000,3.2346126779e+000,2.8476297234e+000,3.6750545311e+000,2.6852130811e+000,3.6046853985e+000,2.9367434556e+000,3.7831698603e+000,1.8428365572e+000,3.9946173197e+000,3.2610075525e+000,4.0423464289e+000,
3.5437500000e+001,3.3539463736e+000,3.1986517835e+000,2.7458240331e+000,3.2540750392e+000,2.7901314915e+000,3.6933120260e+000,2.7505977283e+000,3.7023317257e+000,2.8817238136e+000,3.7466638175e+000,1.8787294296e+000,3.9445963386e+000,3.1182877710e+000,3.8110296241e+000,
3.5531250000e+001,3.2752023255e+000,3.2735660879e+000,2.6915462212e+000,3.2183395532e+000,2.6975041350e+000,3.6752528241e+000,2.7479778237e+000,3.6361781147e+000,2.9237275158e+000,3.5233235919e+000,1.9010632117e+000,3.6429844685e+000,2.9088081820e+000,3.3633595208e+000,
3.5625000000e+001,3.2294608102e+000,3.2559624388e+000,2.6547548136e+000,3.1213382322e+000,2.6167613895e+000,3.5149816715e+000,2.7291080084e+000,3.5722153020e+000,2.8139925192e+000,3.3737668338e+000,1.8774966728e+000,3.5653286401e+000,2.8269395773e+000,3.4246943700e+000,
3.5718750000e+001,3.2294820999e+000,3.1512770643e+000,2.6449454403e+000,3.1181285636e+000,2.5810970250e+000,3.4390249400e+000,2.6069109595e+000,3.5544403427e+000,2.7635707351e+000,3.3486765417e+000,1.8038026008e+000,3.5624766555e+000,2.7030714651e+000,3.4078360419e+000,
3.5812500000e+001,3.3792999672e+000,3.1919542058e+000,2.7953312312e+000,3.1830770990e+000,2.6415626509e+000,3.4179219717e+000,2.7310354318e+000,3.5588544089e+000,2.9017197641e+000,3.4336621331e+000,1.7890649344e+000,3.5969132749e+000,2.8331377378e+000,3.4096465438e+000,
3.5906250000e+001,3.4148763674e+000,3.0750266027e+000,2.8986328194e+000,3.1602386841e+000,2.6529807566e+000,3.2677419211e+000,2.7697453152e+000,3.5063291872e+000,2.8934140060e+000,3.3475016743e+000,1.7268833159e+000,3.5278299855e+000,2.8148321684e+000,3.3716904087e+000,
3.6000000000e+001,3.4446209012e+000,3.0780293458e+000,2.9081637879e+000,3.2035751530e+000,2.7066815758e+000,3.1019885569e+000,2.7286275102e+000,3.5387542890e+000,2.8657435431e+000,3.3216511481e+000,1.6451097400e+000,3.3774841285e+000,2.8076341730e+000,3.3146014342e+000,
3.6093750000e+001,3.3951599811e+000,3.0617331683e+000,2.9674653088e+000,3.2953392196e+000,2.8852777586e+000,3.0353467729e+000,2.7554307194e+000,3.5888065288e+000,2.8836789142e+000,3.4333356679e+000,1.6178286939e+000,3.4381049538e+000,2.7468709124e+000,3.3712331315e+000,
3.6187500000e+001,3.3933740815e+000,3.0081733207e+000,3.0582178487e+000,3.3122911783e+000,2.9201950620e+000,3.0499997229e+000,2.6960265196e+000,3.5649389786e+000,2.8959521662e+000,3.6003808063e+000,1.7390332329e+000,3.4681384022e+000,2.7558727784e+000,3.4922891677e+000,
3.6281250000e+001,3.3716023676e+000,3.0043490160e+000,3.1060782975e+000,3.2990870682e+000,2.9613162352e+000,3.1228076076e+000,2.6645159165e+000,3.4912546683e+000,3.0084947455e+000,3.5813975526e+000,1.7705311929e+000,3.3541470477e+000,2.8303656918e+000,3.4772099569e+000,
3.6375000000e+001,3.2784228472e+000,3.0834145538e+000,3.0942161791e+000,3.3177168378e+000,3.0004608063e+000,3.1525153408e+000,2.5164837633e+000,3.4347982438e+000,3.0807003047e+000,3.6131194053e+000,1.7523813475e+000,3.5040726498e+000,2.9278899082e+000,3.5546924360e+000,
3.6468750000e+001,3.2166884110e+000,3.1245851099e+000,3.0705613291e+000,3.2777958447e+000,3.0235427161e+000,3.1417430675e+000,2.5714858976e+000,3.3474265612e+000,3.0944138802e+000,3.6619446486e+000,1.7951703963e+000,3.4984653665e+000,2.9420800819e+000,3.6498853888e+000,
3.6562500000e+001,3.2173918669e+000,3.2430846357e+000,3.1182736982e+000,3.3951589066e+000,2.9983582287e+000,3.3493422289e+000,2.6488701675e+000,4.0179857735e+000,3.1533986466e+000,3.7408676934e+000,1.8039207903e+000,3.5468640298e+000,2.9082378518e+000,3.7457912960e+000,
3.6656250000e+001,3.3049423861e+000,3.3281605344e+000,3.1407678829e+000,3.4174131853e+000,3.0475306619e+000,3.3601871226e+000,2.5979020790e+000,4.0834712502e+000,3.5274515124e+000,3.7740081758e+000,1.8056674131e+000,3.5133683849e+000,2.8347726201e+000,3.6700629641e+000,
3.6750000000e+001,3.2935054299e+000,3.4101473616e+000,3.0757271223e+000,3.4951814290e+000,2.9834294820e+000,3.4082190024e+000,2.4558571560e+000,4.0803408761e+000,3.5956798407e+000,3.6767137966e+000,1.7792326180e+000,3.4420158411e+000,2.8018903719e+000,3.6323944112e+000,
3.6843750000e+001,3.2670552326e+000,3.4825137387e+000,3.0180227804e+000,3.5748304916e+000,2.9963255544e+000,3.4261176999e+000,2.2605693104e+000,4.0877367965e+000,3.5315151187e+000,3.6807697349e+000,1.8099478713e+000,3.4937824018e+000,2.7605259693e+000,3.6549788101e+000,
3.6937500000e+001,3.4714481208e+000,3.6818563034e+000,3.0840029610e+000,3.6911173400e+000,3.1347812546e+000,3.6867056497e+000,2.2701433045e+000,4.1966605902e+000,3.5592567894e+000,3.9419275095e+000,1.8211711250e+000,3.7593047342e+000,2.7269778421e+000,3.8529426748e+000,
3.7031250000e+001,3.3885717518e+000,3.7072191894e+000,3.0356498181e+000,3.6727244658e+000,3.0097351797e+000,3.7180155605e+000,2.2188175999e+000,4.1570282801e+000,3.5642152976e+000,3.9137574662e+000,1.8409486783e+000,3.8673055935e+000,2.6812678060e+000,3.9396968186e+000,
3.7125000000e+001,3.5591300967e+000,3.8200683333e+000,3.0700245990e+000,3.6362838658e+000,3.1585085330e+000,3.7666752471e+000,2.1489157674e+000,4.1481721679e+000,3.6261134434e+000,3.8379568450e+000,1.8276708391e+000,3.8165277587e+000,2.5495015877e+000,3.9510100532e+000,
3.7218750000e+001,3.6328423337e+000,3.8526237210e+000,2.9282244621e+000,3.6491139001e+000,3.1700143440e+000,3.7803189792e+000,2.2613906781e+000,4.1089075706e+000,3.7217103727e+000,3.7060346522e+000,1.7440946386e+000,3.8366614992e+000,2.6991422032e+000,3.9196893500e+000,
3.7312500000e+001,3.8578008121e+000,4.0883816402e+000,3.0249257146e+000,3.6932808872e+000,3.2409842027e+000,3.8810579596e+000,2.4895197900e+000,4.0879001116e+000,3.7368404683e+000,3.6913550139e+000,1.6496398404e+000,3.8014099723e+000,2.5382992783e+000,3.8740522586e+000,
3.7406250000e+001,3.8972690729e+000,4.0849636305e+000,3.0783511075e+000,3.7265222142e+000,3.4109248977e+000,3.9315737741e+000,2.5442265752e+000,4.0956807268e+000,3.7258823288e+000,3.6702101358e+000,1.6212652176e+000,3.7813791678e+000,2.8125044509e+000,3.8368773980e+000,
3.7500000000e+001,3.9253629585e+000,4.1257022006e+000,3.1932760000e+000,3.8132454499e+000,3.4746679351e+000,3.9762698221e+000,2.7057175483e+000,4.0209346482e+000,3.7133097353e+000,3.7737759295e+000,1.5452325757e+000,3.8723820461e+000,2.8639776617e+000,3.8825295503e+000,
3.7593750000e+001,3.9825156679e+000,4.1770201802e+000,3.3589872998e+000,3.9387460187e+000,3.6989505814e+000,4.0402978709e+000,2.7378722863e+000,3.5496143135e+000,3.7177021902e+000,3.9333920952e+000,1.5306697275e+000,3.9569501996e+000,2.9472911602e+000,3.9687569629e+000,
3.7687500000e+001,3.9817958836e+000,4.1293599062e+000,3.3404969970e+000,3.9497330966e+000,3.7005979141e+000,4.0497186027e+000,2.7557698498e+000,3.5313148562e+000,3.4724784067e+000,3.9315647571e+000,1.4857541807e+000,4.1257826955e+000,3.0888697634e+000,4.2038039735e+000,
3.7781250000e+001,4.0012341263e+000,4.1344802235e+000,3.4025946614e+000,3.9760012264e+000,3.7301798272e+000,4.0698710205e+000,2.6988418189e+000,3.5595963537e+000,3.4760021210e+000,3.9667406792e+000,1.5869992451e+000,4.1664726397e+000,3.1457453408e+000,4.2549957415e+000,
3.7875000000e+001,3.9417537422e+000,4.0902885970e+000,3.4457354788e+000,4.0846730243e+000,3.7291384275e+000,4.0938094744e+000,2.7693478353e+000,3.6242834150e+000,3.5217806070e+000,3.9094545007e+000,1.6820804856e+000,4.1376456155e+000,3.0911874933e+000,4.2430453596e+000,
3.7968750000e+001,3.8917366568e+000,3.9740164924e+000,3.3895229116e+000,4.0625745773e+000,3.7506040426e+000,3.9762389548e+000,2.9154356838e+000,3.3882929852e+000,3.5274874846e+000,3.6668830904e+000,1.7074146247e+000,3.9071554730e+000,3.1341320526e+000,4.0514441564e+000,
3.8062500000e+001,3.8924160240e+000,3.9625616813e+000,3.3971323474e+000,4.0597556487e+000,3.7678435760e+000,3.9951370600e+000,2.9917075755e+000,3.3734141077e+000,3.6215696425e+000,3.7203271793e+000,1.6620620015e+000,3.9304969520e+000,3.1494915441e+000,3.9794419259e+000,
3.8156250000e+001,3.8067253703e+000,3.8667322866e+000,3.3422322171e+000,4.0255015195e+000,3.6837858649e+000,3.9531768208e+000,3.0905883359e+000,3.3690225980e+000,3.5433709279e+000,3.7824783886e+000,1.6969895155e+000,3.9670695497e+000,3.1451333006e+000,3.9160223137e+000,
3.8250000000e+001,3.6886771749e+000,3.7088797149e+000,3.2536101919e+000,3.9767360328e+000,3.6503803678e+000,3.8846485690e+000,3.0936528135e+000,3.3239620118e+000,3.4029557593e+000,3.7967103675e+000,1.6757551458e+000,3.9057685114e+000,3.1259110683e+000,3.9290810030e+000,
3.8343750000e+001,3.5400615800e+000,3.4122783517e+000,3.1902609337e+000,3.8999922191e+000,3.5894943112e+000,3.7914181942e+000,2.9765342627e+000,3.3378250277e+000,3.2490073157e+000,3.8046096861e+000,1.6531230891e+000,3.8899383634e+000,3.1814951926e+000,4.0281070054e+000,
3.8437500000e+001,3.5438318755e+000,3.2868705882e+000,3.1072706979e+000,3.8169417510e+000,3.4795551934e+000,3.7701686952e+000,2.8665375923e+000,3.3259816122e+000,3.2811461816e+000,3.7738004754e+000,1.6456244627e+000,3.9606544993e+000,3.1604582388e+000,3.9633148529e+000,
3.8531250000e+001,3.4405904085e+000,3.1071584131e+000,2.8366041406e+000,3.6062484133e+000,3.2622874986e+000,3.5539018592e+000,2.8417446762e+000,3.1798229744e+000,3.2546137204e+000,3.5549812624e+000,1.6695108621e+000,3.7936422279e+000,3.0501186076e+000,3.8876719179e+000,
3.8625000000e+001,3.4229852928e+000,3.2395926520e+000,2.7952538203e+000,3.6049425776e+000,3.1849922659e+000,3.6071239179e+000,2.9591176489e+000,3.3454761670e+000,3.1227970184e+000,3.5224336671e+000,1.6738417925e+000,3.7205692310e+000,3.0139119123e+000,3.8237910350e+000,
3.8718750000e+001,3.3870548339e+000,3.2196378640e+000,2.7774760724e+000,3.5715954237e+000,3.1121983343e+000,3.5532589171e+000,3.0065089154e+000,3.2889239342e+000,3.1590223458e+000,3.4189697225e+000,1.6504175450e+000,3.3888526009e+000,2.8641479882e+000,3.4063132904e+000,
3.8812500000e+001,3.4570822153e+000,3.0670351653e+000,2.5527143262e+000,3.2398569214e+000,3.1500395126e+000,3.5035266178e+000,2.9829118184e+000,3.3958512672e+000,3.0235839928e+000,3.4210286263e+000,1.4521088608e+000,3.3344679885e+000,2.8533130218e+000,3.3292731209e+000,
3.8906250000e+001,3.5265168611e+000,3.1297215858e+000,2.6338127051e+000,3.1180950094e+000,3.1648906201e+000,3.5558296933e+000,2.9985919898e+000,3.3874871812e+000,3.0271251412e+000,3.4862611771e+000,1.4943189296e+000,3.3833480471e+000,2.9174873749e+000,3.4045963410e+000,
3.9000000000e+001,3.5064007907e+000,3.1906927393e+000,2.6449907496e+000,3.0430267560e+000,3.0052786683e+000,3.5064407588e+000,2.8953722796e+000,3.4138055643e+000,2.9634309844e+000,3.5698917941e+000,1.5432899293e+000,3.4912268636e+000,2.9153286711e+000,3.4947557171e+000,
3.9093750000e+001,3.5436358717e+000,3.3304964716e+000,2.6449388651e+000,3.0901340261e+000,3.0358482585e+000,3.5375145339e+000,2.8540746846e+000,3.5118660332e+000,2.8744050908e+000,3.6297629843e+000,1.5437662071e+000,3.4147721034e+000,2.9188026486e+000,3.4914875330e+000,
3.9187500000e+001,3.7019841091e+000,3.4171026724e+000,2.9329542402e+000,3.2707888812e+000,3.2867650798e+000,3.5546255217e+000,2.8207822234e+000,3.5465393576e+000,2.8417537876e+000,3.6507343944e+000,1.5204794197e+000,3.5099646353e+000,2.8564151637e+000,3.6526328645e+000,
3.9281250000e+001,3.6673430852e+000,3.4520086835e+000,3.0150886343e+000,3.2934019180e+000,3.3132663060e+000,3.5616302095e+000,2.8847344327e+000,3.5620240446e+000,2.8765232242e+000,3.6661137370e+000,1.5022354031e+000,3.7723424616e+000,2.8528229823e+000,3.8003447512e+000,
3.9375000000e+001,3.6123099295e+000,3.4537796142e+000,2.9827593192e+000,3.3057907867e+000,3.4062331303e+000,3.5801838641e+000,2.9124595758e+000,3.5962091009e+000,2.9824486242e+000,3.6335092090e+000,1.4559847791e+000,3.7412652879e+000,2.8832592269e+000,3.8419271368e+000,
3.9468750000e+001,3.5441059002e+000,3.3658898044e+000,2.9967789759e+000,3.3503517073e+000,3.4266248114e+000,3.5264467215e+000,2.9106699928e+000,3.7199009865e+000,2.9422752995e+000,3.6645341236e+000,1.4704406415e+000,3.6767935813e+000,2.9649448735e+000,3.9359687281e+000,
3.9562500000e+001,3.5457301843e+000,3.3107736454e+000,2.9878021683e+000,3.4148949735e+000,3.4049990898e+000,3.5485702528e+000,2.7673024791e+000,3.5781618382e+000,2.9348034967e+000,3.7085420065e+000,1.4316692191e+000,3.7361562301e+000,3.0342932943e+000,3.9486215732e+000,
3.9656250000e+001,3.5916635778e+000,3.1864347086e+000,3.0336992868e+000,3.3664813867e+000,3.4445907176e+000,3.4746315758e+000,2.7206872769e+000,3.5073275061e+000,2.9311770525e+000,3.6964809006e+000,1.4668619032e+000,3.7864043270e+000,3.0656373231e+000,3.9005023925e+000,
3.9750000000e+001,3.5595010009e+000,3.2312235917e+000,3.0201006989e+000,3.3738665473e+000,3.4545824335e+000,3.4854137953e+000,2.7274423060e+000,3.4996346170e+000,2.8492575604e+000,3.7262209552e+000,1.5218862128e+000,3.7899880072e+000,3.0706630897e+000,3.8954608693e+000,
3.9843750000e+001,3.4471153939e+000,3.3554149470e+000,3.0553897124e+000,3.4153532173e+000,3.4323377211e+000,3.5310893021e+000,2.8613530544e+000,3.4325032525e+000,2.8419121306e+000,3.7242439184e+000,1.4810069953e+000,3.7813700468e+000,3.1411853104e+000,3.8951674521e+000,
3.9937500000e+001,3.3379123008e+000,3.2352682082e+000,2.9566589632e+000,3.3652814916e+000,3.4231784678e+000,3.4436647294e+000,2.7636309375e+000,3.4136956143e+000,2.8117694519e+000,3.7506216700e+000,1.3826702581e+000,3.7712092407e+000,3.0969746872e+000,3.8868362463e+000,
4.0031250000e+001,3.3476578778e+000,3.2019737714e+000,2.9723720860e+000,3.3375334531e+000,3.4402960194e+000,3.5045186285e+000,2.8651689967e+000,3.3580862359e+000,2.8484968438e+000,3.6706905415e+000,1.3593028198e+000,3.8338287818e+000,3.3231730651e+000,3.9626105171e+000,
4.0125000000e+001,3.1976707749e+000,3.0023472881e+000,2.9080308064e+000,3.2990244738e+000,3.4257052540e+000,3.3981458553e+000,2.9258503290e+000,3.2869505341e+000,2.8100680149e+000,3.6425618138e+000,1.4066878848e+000,3.7901761903e+000,3.3356536162e+000,3.9302071333e+000,
4.0218750000e+001,2.9820742854e+000,2.9261076490e+000,3.1509634583e+000,4.2017718620e+000,3.1960963391e+000,3.4937740942e+000,2.8614866366e+000,3.6020103824e+000,2.9389881456e+000,3.6542029114e+000,2.1055690600e+000,3.7910004147e+000,3.4059068533e+000,3.8680560497e+000,
4.0312500000e+001,2.9686891357e+000,2.9868674145e+000,3.9181683754e+000,5.2858977521e+000,3.1358849480e+000,3.5846871446e+000,3.0529675798e+000,3.9981965412e+000,2.8670873857e+000,3.7046174508e+000,3.1038050404e+000,3.6618336585e+000,3.3875920322e+000,3.7897551200e+000,
4.0406250000e+001,3.0211183737e+000,3.0748399236e+000,4.2946180183e+000,5.7581428525e+000,3.1615743713e+000,3.7923867227e+000,3.1952933434e+000,4.2347322987e+000,2.8687274267e+000,3.8288854501e+000,3.4864568413e+000,3.7833367368e+000,3.3445563454e+000,3.8913116078e+000,
4.0500000000e+001,3.0658823381e+000,3.1671629039e+000,4.4045214089e+000,5.9049503784e+000,3.1481519160e+000,3.7567485577e+000,3.2382000303e+000,4.3575136828e+000,2.9442724233e+000,3.7630347838e+000,3.5573469522e+000,3.8637898346e+000,3.2797159290e+000,3.8764362209e+000,
4.0593750000e+001,3.2142669704e+000,3.3248809413e+000,4.4644233830e+000,6.0000732853e+000,3.3555607657e+000,3.9017625058e+000,3.2843529771e+000,4.4433701059e+000,3.0565241081e+000,3.8362178145e+000,3.6131885136e+000,3.9134286295e+000,3.2584779423e+000,3.9948803633e+000,
4.0687500000e+001,3.4207811627e+000,3.4689582156e+000,4.4953555647e+000,6.0171309505e+000,3.5167012633e+000,4.0317426997e+000,3.2931433912e+000,4.5391964907e+000,3.0216264942e+000,3.8930294240e+000,3.6111368428e+000,4.0766229122e+000,3.3020829458e+000,4.0514643226e+000,
4.0781250000e+001,3.4165970776e+000,3.4890322494e+000,4.4956325672e+000,6.0160120377e+000,3.4489156162e+000,4.0114990260e+000,3.2538757279e+000,4.7071929808e+000,3.0515264960e+000,3.9416617873e+000,3.6206110711e+000,4.1086655353e+000,3.2986916400e+000,4.0913529419e+000,
4.0875000000e+001,3.5181448420e+000,3.5087006328e+000,4.4953716966e+000,6.0174132409e+000,3.5397524787e+000,4.0906888332e+000,3.2879865439e+000,4.7357908370e+000,3.1354770943e+000,3.9988385953e+000,3.6300146567e+000,4.1887188492e+000,3.1985688912e+000,4.1103295830e+000,
4.0968750000e+001,3.6025254928e+000,3.5759197356e+000,4.5096769325e+000,6.0258867387e+000,3.5066873380e+000,4.1686553323e+000,3.3788620621e+000,4.8689848272e+000,3.0955877990e+000,4.0448015793e+000,3.6295095204e+000,4.2680690734e+000,3.2330934716e+000,4.2292564214e+000,
4.1062500000e+001,3.5766425176e+000,3.5534545220e+000,4.5057593485e+000,6.0540219195e+000,3.5262162665e+000,4.1216821136e+000,3.2920054176e+000,9.3842667031e+000,3.0727010486e+000,4.0233640130e+000,3.6381137548e+000,4.4416129600e+000,3.0502007867e+000,4.1424069858e+000,
4.1156250000e+001,3.6098552129e+000,3.5863664798e+000,4.4984420476e+000,6.0918884966e+000,3.5303134384e+000,4.2204578400e+000,3.3134278678e+000,1.0351900190e+001,3.0664104742e+000,4.0370617934e+000,3.6340636982e+000,4.7096371532e+000,2.9592222999e+000,4.1392988920e+000,
