Time (s),AF3,AF4,F3,F4,F7,F8,FC5,FC6,T7,T8,P7,P8,O1,O2,Sampling Rate
0.0000000000e+000,3.5601288803e+000,3.9466033835e+000,3.4153872240e+000,3.8992916157e+000,3.3666324473e+000,3.8151361403e+000,3.0295870894e+000,3.8971466352e+000,2.4318424222e+000,4.0095221768e+000,2.6890253191e+000,4.0083551118e+000,3.5013752599e+000,3.8982947153e+000,1
9.3750000000e-002,3.3695814469e+000,3.6636650606e+000,3.1611685328e+000,3.5529387208e+000,3.1798172855e+000,3.4531209546e+000,2.9149168486e+000,3.5282174118e+000,2.2949236273e+000,3.7397629519e+000,2.1204421355e+000,3.8365922030e+000,3.2722441786e+000,3.7707159852e+000,
1.8750000000e-001,3.3464289229e+000,3.5302401023e+000,3.0751121351e+000,3.3208878401e+000,3.1312696822e+000,3.3834572045e+000,2.8843070789e+000,3.4195621288e+000,2.1890307740e+000,3.6235709915e+000,1.9878582917e+000,3.7672975655e+000,3.2215314353e+000,3.6970670427e+000,
2.8125000000e-001,3.2897718718e+000,3.4555295088e+000,3.0304181971e+000,3.3299474507e+000,3.0054511665e+000,3.3537161559e+000,2.8522193336e+000,3.3759715720e+000,2.2959215206e+000,3.6384558236e+000,1.9650722302e+000,3.7849985824e+000,3.0775232706e+000,3.7375845428e+000,
3.7500000000e-001,3.3012142495e+000,3.3151965152e+000,3.0153165292e+000,3.4824334296e+000,3.0001381313e+000,3.3743642275e+000,2.8833519345e+000,3.3970205235e+000,2.3688442773e+000,3.6682473586e+000,2.0194142110e+000,3.8175552392e+000,3.1178921821e+000,3.7687897097e+000,
4.6875000000e-001,3.3015218602e+000,3.1635225947e+000,3.0016980030e+000,3.3830221102e+000,3.0848144670e+000,3.2558890499e+000,2.8835035435e+000,3.3088764006e+000,2.4972425527e+000,3.6323251086e+000,1.9975292073e+000,3.7384527594e+000,3.0041358438e+000,3.7597301501e+000,
5.6250000000e-001,3.2855526780e+000,3.3351270208e+000,3.0003071096e+000,3.4413356932e+000,3.0982224340e+000,3.3477761118e+000,2.7777385972e+000,3.3677872245e+000,2.3994302769e+000,3.5224253894e+000,2.0540760436e+000,3.6291063585e+000,2.9621019190e+000,3.7267743013e+000,
6.5625000000e-001,3.1245302282e+000,3.2860037037e+000,2.6645881926e+000,3.4137369927e+000,2.9725118694e+000,3.2229157196e+000,2.7309720346e+000,3.2795831738e+000,2.3200524904e+000,3.4897146251e+000,2.0723409730e+000,3.5816720773e+000,2.9949863603e+000,3.6809317077e+000,
7.5000000000e-001,2.9525799037e+000,3.3580833995e+000,2.4576110451e+000,3.4487819840e+000,2.8537652000e+000,3.3157498134e+000,2.4329141991e+000,3.2937475201e+000,2.2773977648e+000,3.4966000853e+000,2.1408293887e+000,3.5400814449e+000,2.8631829642e+000,3.5848529664e+000,
8.4375000000e-001,2.8440220035e+000,3.4630057996e+000,2.4022121165e+000,3.4227728327e+000,2.8529513075e+000,3.4439411093e+000,2.4691529854e+000,3.3582609857e+000,2.3221764445e+000,3.4615584683e+000,2.1138494443e+000,3.4337668117e+000,2.8647117936e+000,3.5403153370e+000,
9.3750000000e-001,2.7353653696e+000,3.5246678073e+000,2.3879563455e+000,3.4786226456e+000,2.6751305849e+000,3.6038314648e+000,2.4811187059e+000,3.4804607653e+000,2.5288608499e+000,3.5432131078e+000,2.1233487638e+000,3.4271452535e+000,2.7559750852e+000,3.4859380209e+000,
1.0312500000e+000,2.6740447403e+000,3.3894372656e+000,2.3358942222e+000,3.3511938857e+000,2.7315370470e+000,3.5909179552e+000,2.4901579233e+000,3.5137663384e+000,2.5860256031e+000,3.3988017319e+000,2.0800557343e+000,3.3445592728e+000,2.7244673713e+000,3.3333592283e+000,
1.1250000000e+000,2.6412842701e+000,3.4393001388e+000,2.3078305233e+000,3.3055665430e+000,2.7928236578e+000,3.6500858454e+000,2.5159153463e+000,3.5524800491e+000,2.5603273709e+000,3.4395007711e+000,2.0474400329e+000,3.4408396663e+000,2.8275036855e+000,3.3430745351e+000,
1.2187500000e+000,2.6707711903e+000,3.5545318535e+000,2.5018153285e+000,3.3758890618e+000,2.8362662165e+000,3.7470607283e+000,2.4946738775e+000,3.6102894615e+000,2.5151262801e+000,3.4701078214e+000,2.0674026672e+000,3.3519803441e+000,2.8307959184e+000,3.2753974226e+000,
1.3125000000e+000,2.6435690105e+000,3.5354742013e+000,2.5093365895e+000,3.3651823762e+000,2.8138538661e+000,3.7375422449e+000,2.4611737007e+000,3.5769720243e+000,2.4406798131e+000,3.3574157786e+000,2.0011782959e+000,3.3104253760e+000,2.7917808085e+000,3.1067635263e+000,
1.4062500000e+000,2.5785865041e+000,3.5270702954e+000,2.4679850820e+000,3.1584857701e+000,2.8196022064e+000,3.6745086622e+000,2.4934234966e+000,3.4614125212e+000,2.2694162535e+000,3.2504547976e+000,1.8960646461e+000,3.2832952956e+000,2.7528509749e+000,3.2350859642e+000,
1.5000000000e+000,2.5826634765e+000,3.5359154168e+000,2.5226200065e+000,3.1600741469e+000,2.7065807529e+000,3.6220638253e+000,2.4778559293e+000,3.4029440529e+000,2.2933862670e+000,3.1507879507e+000,1.8976948379e+000,3.1727179806e+000,2.7524077266e+000,3.1536463275e+000,
1.5937500000e+000,2.6412704782e+000,3.4103082647e+000,2.4282558393e+000,3.0957582972e+000,2.7040696358e+000,3.5753014568e+000,2.3258998771e+000,3.3123352897e+000,2.3823576902e+000,3.2018229225e+000,1.8960295114e+000,3.2488349875e+000,2.7535583903e+000,3.1613463217e+000,
1.6875000000e+000,2.7058112957e+000,3.4401358598e+000,2.4649190359e+000,3.1559077360e+000,2.8823938049e+000,3.5383790796e+000,2.3960090113e+000,3.3540878515e+000,2.3794453711e+000,3.1748995998e+000,1.9865729539e+000,3.2551424537e+000,2.8181348935e+000,3.1926149135e+000,
1.7812500000e+000,2.7176280518e+000,3.3161045182e+000,2.5103129888e+000,3.1763662497e+000,2.8698165384e+000,3.3782281023e+000,2.3542418198e+000,3.2553067649e+000,2.3874593492e+000,3.1724300420e+000,1.7974813870e+000,3.4590291100e+000,2.9390252508e+000,3.2948499314e+000,
1.8750000000e+000,2.8180220706e+000,3.2846219737e+000,2.3283000141e+000,3.2487695430e+000,2.8482220953e+000,3.4217908569e+000,2.2441119924e+000,3.3100336468e+000,2.4303917696e+000,3.1389319932e+000,1.8377489883e+000,3.4751580707e+000,2.9056447874e+000,3.2878690395e+000,
1.9687500000e+000,3.1532845877e+000,3.3180894713e+000,2.3767162781e+000,3.3036012141e+000,3.1845525143e+000,3.3541372236e+000,2.3016802767e+000,3.1961728703e+000,2.1457667349e+000,3.1918722674e+000,1.8574562794e+000,3.5781928900e+000,2.9616891657e+000,3.3499083181e+000,
2.0625000000e+000,3.1755064923e+000,3.4893553313e+000,2.5160199638e+000,3.3475474701e+000,3.1969245817e+000,3.3845404722e+000,2.3809591815e+000,3.1305343970e+000,2.1372075499e+000,3.3811542081e+000,1.9803096768e+000,3.7873627919e+000,3.0331926677e+000,3.4473147606e+000,
2.1562500000e+000,3.2120350683e+000,3.6619767820e+000,2.5317315478e+000,3.4245539615e+000,3.1919511558e+000,3.6645357119e+000,2.4294505647e+000,3.4126005621e+000,2.2031096494e+000,3.4052709046e+000,2.0180040632e+000,3.8259847740e+000,3.1120585812e+000,3.5131572385e+000,
2.2500000000e+000,3.2651312237e+000,3.6293159477e+000,2.5235517951e+000,3.4815532899e+000,3.1724957160e+000,3.5804147728e+000,2.4913974334e+000,3.4224832003e+000,2.3039908171e+000,3.5244207033e+000,2.3019461151e+000,3.9111374991e+000,3.2532380607e+000,3.6874743306e+000,
2.3437500000e+000,3.4803317289e+000,3.7312778641e+000,2.7958344367e+000,3.6208577467e+000,3.2714789236e+000,3.6634118428e+000,2.6406904247e+000,3.5336787831e+000,2.3292508982e+000,3.6441541745e+000,2.4489220261e+000,3.9818352818e+000,3.2884686496e+000,3.7517501788e+000,
2.4375000000e+000,3.6097782966e+000,3.7510930975e+000,2.8999545931e+000,3.7014089348e+000,3.3090037757e+000,3.6811248701e+000,2.7687215710e+000,3.5737669577e+000,2.2985466240e+000,3.6724894879e+000,2.4742204690e+000,4.0063382161e+000,3.2489754334e+000,3.7279422255e+000,
2.5312500000e+000,3.5909979604e+000,3.8147700332e+000,2.8640132606e+000,3.7293996410e+000,3.3598040897e+000,3.7228090755e+000,2.8545814478e+000,3.6188006784e+000,2.2796718171e+000,3.6444957789e+000,2.4300281121e+000,4.0342305721e+000,3.3806040392e+000,3.7353784680e+000,
2.6250000000e+000,3.5966783061e+000,3.8516972162e+000,2.9133667608e+000,3.7580298989e+000,3.4161757003e+000,3.7814021749e+000,2.9134644843e+000,3.6341598000e+000,2.3277478168e+000,3.6867778911e+000,2.4662776959e+000,4.0626170658e+000,3.3446847593e+000,3.7774975943e+000,
2.7187500000e+000,3.6091510407e+000,3.8569325982e+000,2.8401641001e+000,3.6768094685e+000,3.3870644558e+000,3.7859475311e+000,2.9709381089e+000,3.6018935697e+000,2.3509659004e+000,3.6747379545e+000,2.4740985586e+000,3.9739567704e+000,3.2773234303e+000,3.7229028124e+000,
2.8125000000e+000,3.6719135421e+000,3.8734663785e+000,2.8236687664e+000,3.6947967710e+000,3.4908961162e+000,3.8258813818e+000,3.1595569822e+000,3.6458942946e+000,2.3748470788e+000,3.6219215154e+000,2.6090951406e+000,3.9346064891e+000,3.4346528252e+000,3.8858144123e+000,
2.9062500000e+000,3.6125534882e+000,3.8638647455e+000,2.8295080904e+000,3.6165476236e+000,3.4089315261e+000,3.7837924208e+000,3.1278758245e+000,3.5736797914e+000,2.2976055389e+000,3.6231445814e+000,2.5985226363e+000,4.0050067855e+000,3.5454234269e+000,3.9420185665e+000,
3.0000000000e+000,3.4616124459e+000,3.8435272987e+000,2.8005725214e+000,3.6233017089e+000,3.2572982745e+000,3.7121287260e+000,3.1296208642e+000,3.5594265093e+000,2.3191288014e+000,3.4191561848e+000,2.5419805425e+000,3.8189408395e+000,3.5404003168e+000,3.9592092475e+000,
3.0937500000e+000,3.4570047659e+000,3.6700145464e+000,2.8139797429e+000,3.6044246039e+000,3.3397214762e+000,3.7547583623e+000,3.0921181490e+000,3.5550322919e+000,2.3886851538e+000,3.5032020035e+000,2.5755474147e+000,3.8028395237e+000,3.6093543602e+000,4.0051760070e+000,
3.1875000000e+000,3.5689684682e+000,3.6389148787e+000,3.0349496980e+000,3.5548680770e+000,3.5178877914e+000,3.5217452755e+000,3.1421026642e+000,3.3571663300e+000,2.3737142078e+000,3.4958950784e+000,2.5741482592e+000,3.8006493554e+000,3.5747894768e+000,3.9899208770e+000,
3.2812500000e+000,3.5251456176e+000,3.5872104265e+000,3.0983761510e+000,3.5396768564e+000,3.4786201268e+000,3.4716975352e+000,3.0864207373e+000,3.2866658581e+000,2.2828747692e+000,3.4933388716e+000,2.3763569773e+000,3.9123721178e+000,3.5049225727e+000,3.9965516162e+000,
3.3750000000e+000,3.3170329672e+000,3.4318579690e+000,2.9470396824e+000,3.3531302033e+000,3.4772449933e+000,3.5579364862e+000,2.9417524997e+000,3.3743499217e+000,2.2140206706e+000,3.5174125046e+000,2.3366582231e+000,3.8595253211e+000,3.4648128449e+000,3.9206318404e+000,
3.4687500000e+000,3.2958185717e+000,3.4249782035e+000,2.9598786216e+000,3.3197979910e+000,3.4835720695e+000,3.5881648887e+000,2.9434701487e+000,3.2450809199e+000,2.2280089440e+000,3.5601646227e+000,2.2971030966e+000,3.8391459402e+000,3.4667158168e+000,3.9119556033e+000,
3.5625000000e+000,3.3772256409e+000,3.4031256016e+000,2.9538746863e+000,3.2272920451e+000,3.4561244964e+000,3.5617032497e+000,3.0153247827e+000,3.2061904187e+000,2.2816844805e+000,3.6023160395e+000,2.2954772053e+000,3.9075314840e+000,3.4234486562e+000,3.9200874746e+000,
3.6562500000e+000,3.4280226803e+000,3.4126502529e+000,2.9615241738e+000,3.1958059797e+000,3.4165297779e+000,3.5140672484e+000,2.9668500445e+000,3.2044585116e+000,2.2228819334e+000,3.6020584933e+000,2.1940682783e+000,3.8653030406e+000,3.4832113217e+000,3.8899461909e+000,
3.7500000000e+000,3.3827821111e+000,3.3577909716e+000,2.9650124032e+000,3.2560569717e+000,3.3753414148e+000,3.5615511112e+000,2.8201379434e+000,3.2385389491e+000,2.1100513929e+000,3.6607062877e+000,2.0020255642e+000,3.9483009674e+000,3.5137129377e+000,3.9451365547e+000,
3.8437500000e+000,3.3878864367e+000,3.3833007586e+000,3.0368930370e+000,3.2210748779e+000,3.2405672366e+000,3.5548464250e+000,2.7157578221e+000,3.2135722119e+000,2.1059738430e+000,3.6444701377e+000,1.8906291822e+000,3.8713238411e+000,3.3714334998e+000,3.6683938642e+000,
3.9375000000e+000,3.3750816912e+000,3.3254557009e+000,3.0166718431e+000,3.1488581805e+000,3.2479150315e+000,3.5259461981e+000,2.7260982204e+000,3.2917990610e+000,2.1757637910e+000,3.5522719859e+000,1.9881652294e+000,3.8271724861e+000,3.3560483355e+000,3.5794620872e+000,
4.0312500000e+000,3.4410503955e+000,3.3310069582e+000,2.9919409665e+000,3.1518216153e+000,3.3441579724e+000,3.5473011539e+000,2.7092607347e+000,3.3288875708e+000,2.2132865463e+000,3.7364225735e+000,2.0147037255e+000,4.1368761133e+000,3.3680790604e+000,3.8435118200e+000,
4.1250000000e+000,3.4500158650e+000,3.4062872346e+000,2.9438763788e+000,3.2123253476e+000,3.3466525602e+000,3.5725805714e+000,2.6311288739e+000,3.5146598253e+000,2.2407535478e+000,3.6498087171e+000,2.0282712692e+000,4.1056913833e+000,3.4343410920e+000,3.8509716965e+000,
4.2187500000e+000,3.3430047271e+000,3.3682315145e+000,2.6913690637e+000,3.1797185795e+000,3.1969698203e+000,3.5841824079e+000,2.7089615937e+000,3.4970000874e+000,2.2894951559e+000,3.7148113405e+000,2.0546659839e+000,4.0586723218e+000,3.4117017227e+000,3.8355775605e+000,
4.3125000000e+000,3.3119995949e+000,3.3899413918e+000,2.5146607312e+000,3.1193542309e+000,3.1963535714e+000,3.5891342707e+000,2.6537574497e+000,3.4939328327e+000,2.2809566651e+000,3.6657777583e+000,1.9934439300e+000,3.9905744751e+000,3.3982509187e+000,3.7629763080e+000,
4.4062500000e+000,3.2522316020e+000,3.4730380015e+000,2.4324589014e+000,3.0621773371e+000,3.1706213457e+000,3.4447101438e+000,2.6502584476e+000,3.3773443804e+000,2.3138906003e+000,3.6278286457e+000,2.0298589383e+000,3.9438008510e+000,3.3879847916e+000,3.7738810836e+000,
4.5000000000e+000,3.2668859082e+000,3.6985776856e+000,2.4053328789e+000,3.0092541837e+000,3.2645722119e+000,3.3504154099e+000,2.4806613962e+000,3.3589853215e+000,2.3454574940e+000,3.5819729459e+000,2.0286719507e+000,3.9092203502e+000,3.3586922830e+000,3.7893211692e+000,
4.5937500000e+000,3.1960579152e+000,3.7095434302e+000,2.3905153927e+000,2.9195779973e+000,3.4419648594e+000,3.3360820518e+000,2.4167993752e+000,3.3503886707e+000,2.3799641699e+000,3.4958198786e+000,2.1689315674e+000,3.8544204375e+000,3.2600713611e+000,3.7339803487e+000,
4.6875000000e+000,3.1887189125e+000,3.7476576344e+000,2.3734434230e+000,2.7540841273e+000,3.3963750197e+000,3.2695358742e+000,2.3911724532e+000,3.2394746185e+000,2.3569445097e+000,3.4311696160e+000,2.2218736005e+000,3.8290954661e+000,3.0866409871e+000,3.7409381666e+000,
4.7812500000e+000,3.1581498210e+000,3.7856575573e+000,2.3257636846e+000,2.8305407299e+000,3.4023907862e+000,3.2987207944e+000,2.4066259729e+000,3.2696357366e+000,2.3424910372e+000,3.4357483137e+000,2.2146274321e+000,3.8136923236e+000,3.1257235523e+000,3.7257098961e+000,
4.8750000000e+000,3.1244664296e+000,3.9783384745e+000,2.1962174788e+000,3.1208377528e+000,3.5061531696e+000,3.6500714888e+000,2.3336448544e+000,3.4966514427e+000,2.2459849370e+000,3.6239922020e+000,2.3748667786e+000,3.8890866100e+000,3.1319641037e+000,3.8502171686e+000,
4.9687500000e+000,3.1066142312e+000,4.0075374898e+000,2.3438506696e+000,3.1443028390e+000,3.4821056817e+000,3.6638785240e+000,2.3602647220e+000,3.4454212833e+000,2.2889100979e+000,3.6200459366e+000,2.2755395946e+000,3.5589897032e+000,2.9565215093e+000,3.6342217982e+000,
5.0625000000e+000,3.1177422735e+000,4.0029130318e+000,2.3427145806e+000,3.0129945040e+000,3.3588516400e+000,3.5966420348e+000,2.4817883058e+000,3.3620986035e+000,2.2029019411e+000,3.5772330136e+000,2.2801625549e+000,3.3609709218e+000,2.7948728840e+000,3.4085656889e+000,
5.1562500000e+000,3.1393767993e+000,3.9628398465e+000,2.3562669379e+000,3.0273208859e+000,3.3950568065e+000,3.5500184229e+000,2.5483165052e+000,3.1391285247e+000,2.1625332544e+000,3.4685970106e+000,2.1956952348e+000,3.3833680363e+000,2.5950726492e+000,3.3171618963e+000,
5.2500000000e+000,3.0785365659e+000,3.9555456093e+000,2.2853185131e+000,3.0846137230e+000,3.4878624996e+000,3.4886075781e+000,2.3659631290e+000,3.0875971924e+000,2.2192277529e+000,3.3121526152e+000,2.1495074017e+000,3.3242385704e+000,2.6370171870e+000,3.2721005120e+000,
5.3437500000e+000,3.1978026756e+000,3.9808764024e+000,2.4032538717e+000,3.1283717473e+000,3.6045738988e+000,3.5232351564e+000,2.4812026319e+000,3.1692833455e+000,2.4838376632e+000,3.3941902344e+000,2.3168769539e+000,3.4062871036e+000,2.7990522196e+000,3.3503792533e+000,
5.4375000000e+000,3.2588005394e+000,3.9610912852e+000,2.4301985235e+000,3.1817225719e+000,3.6537948381e+000,3.4981428260e+000,2.5749794680e+000,3.1373195228e+000,2.4793365247e+000,3.3629121278e+000,2.2898530901e+000,3.4469529356e+000,2.8759756546e+000,3.4931767084e+000,
5.5312500000e+000,3.2412196385e+000,3.7901150790e+000,2.5191873795e+000,3.2865479000e+000,3.5012259403e+000,3.6213998932e+000,2.6405243165e+000,3.2134937447e+000,2.4370343553e+000,3.5825238741e+000,2.3639436661e+000,3.5930140431e+000,2.9545606725e+000,3.6879481979e+000,
5.6250000000e+000,3.2433495753e+000,3.7420448443e+000,2.5382209596e+000,3.3704074680e+000,3.4184867008e+000,3.6562310655e+000,2.7178651240e+000,3.3453452524e+000,2.4684710038e+000,3.8281564809e+000,2.3457135585e+000,3.9063170538e+000,3.1350999546e+000,3.9155262723e+000,
5.7187500000e+000,3.2368104297e+000,3.8424342203e+000,2.5742583737e+000,3.4804956378e+000,3.3942090958e+000,3.6975741713e+000,2.6681307320e+000,3.3764042598e+000,2.4544599907e+000,3.8836418270e+000,2.3809197173e+000,3.8889491623e+000,3.2297857748e+000,3.9469195095e+000,
5.8125000000e+000,3.2296607580e+000,3.7370246007e+000,2.6433999230e+000,3.4444726305e+000,3.3653426953e+000,3.6331339518e+000,2.7149182427e+000,3.2732320360e+000,2.4448965120e+000,3.8665254408e+000,2.3323572427e+000,3.8997497043e+000,3.1644440123e+000,3.9793866666e+000,
5.9062500000e+000,3.1743725929e+000,3.6433434344e+000,2.6391476803e+000,3.4107304207e+000,3.3750851743e+000,3.4391051471e+000,2.7774029828e+000,3.1728271677e+000,2.4733856388e+000,3.7192651496e+000,2.3348156180e+000,3.8601605177e+000,3.1871416415e+000,3.9005745991e+000,
6.0000000000e+000,3.1780197602e+000,3.7081655795e+000,2.6200791947e+000,3.4439348053e+000,3.3707788765e+000,3.4577366049e+000,2.7707751640e+000,3.2137805978e+000,2.5063018788e+000,3.7099593073e+000,2.4044549855e+000,3.8753849354e+000,3.2710888805e+000,3.8935199180e+000,
6.0937500000e+000,3.2033115169e+000,3.7439327344e+000,2.7212959649e+000,3.5283433720e+000,3.4163442570e+000,3.4692020778e+000,2.7440313751e+000,3.3110028688e+000,2.6319961249e+000,3.6109339015e+000,2.4169301021e+000,3.8709350723e+000,3.2873536668e+000,3.9296011563e+000,
6.1875000000e+000,3.1957732748e+000,3.8406608235e+000,2.7628769521e+000,3.5429024349e+000,3.2987980121e+000,3.5862022848e+000,2.6973956680e+000,3.3769079381e+000,2.5684383028e+000,3.6464766662e+000,2.4455859479e+000,3.8667140951e+000,3.3037538468e+000,3.9605892391e+000,
6.2812500000e+000,3.2073824158e+000,3.8626538448e+000,2.7898451336e+000,3.5645552830e+000,3.2094597067e+000,3.6154926077e+000,2.7773624207e+000,3.3952026511e+000,2.4485358709e+000,3.6406544044e+000,2.4311642274e+000,3.9285302230e+000,3.2568196718e+000,4.0124198121e+000,
6.3750000000e+000,3.2407653836e+000,3.8405009677e+000,2.7843648339e+000,3.6010154817e+000,3.0887987022e+000,3.6874936209e+000,2.8201539243e+000,3.3618051225e+000,2.2173037024e+000,3.7997413660e+000,2.2821886197e+000,4.0235549551e+000,3.1518060967e+000,3.9692261778e+000,
6.4687500000e+000,3.3126105480e+000,3.8784128263e+000,2.8800891214e+000,3.6343045520e+000,3.0353349975e+000,3.7331595525e+000,2.8987037279e+000,3.3933844122e+000,2.2529010435e+000,3.7936989899e+000,2.2476919964e+000,4.0495374815e+000,3.1936558911e+000,3.9010715402e+000,
6.5625000000e+000,3.3137204640e+000,3.9065719276e+000,2.7931834623e+000,3.6190050635e+000,3.1013155746e+000,3.6725264271e+000,2.8021440091e+000,3.4153448643e+000,2.1807962076e+000,3.6155579691e+000,2.2251013762e+000,3.8987795435e+000,3.1143329421e+000,3.7898709626e+000,
6.6562500000e+000,3.5861985728e+000,4.0068521928e+000,2.9766290472e+000,3.6169655362e+000,3.4380128395e+000,3.6843562811e+000,2.9233298994e+000,3.3468013086e+000,2.3086987442e+000,3.2257280593e+000,2.0989482523e+000,3.6343419360e+000,2.9357189954e+000,3.5133222519e+000,
6.7500000000e+000,3.7898130918e+000,4.0076311878e+000,3.0977857909e+000,3.5760052686e+000,3.7453156493e+000,3.6226305227e+000,3.0218237226e+000,3.3579972062e+000,2.5487164241e+000,3.2287600736e+000,2.3156891134e+000,3.6557746396e+000,2.9673039228e+000,3.5303074660e+000,
6.8437500000e+000,3.8182655195e+000,3.9740429340e+000,3.1093476754e+000,3.5828353717e+000,3.7299035190e+000,3.5476990027e+000,2.9461665848e+000,3.3061176723e+000,2.5365413068e+000,3.2097055647e+000,2.3778375382e+000,3.6495725168e+000,3.0506507303e+000,3.5491968475e+000,
6.9375000000e+000,3.8508058782e+000,4.0035595053e+000,3.0680422186e+000,3.4783896171e+000,3.7182225565e+000,3.4722869017e+000,2.9393087081e+000,3.2692824301e+000,2.5119779735e+000,3.2476116525e+000,2.3077898134e+000,3.6373361777e+000,3.0654464610e+000,3.5893409577e+000,
7.0312500000e+000,3.7998851537e+000,3.9771726919e+000,3.0075036642e+000,3.4997457144e+000,3.6888643451e+000,3.5306200972e+000,2.9568442177e+000,3.3338663027e+000,2.3871317206e+000,3.3542550207e+000,2.1777158309e+000,3.6713336609e+000,3.0328771145e+000,3.7280528921e+000,
7.1250000000e+000,3.7752000911e+000,3.9362793577e+000,2.9389065894e+000,3.4038851639e+000,3.7583065794e+000,3.5733990611e+000,2.9626449834e+000,3.2389910534e+000,2.2454212162e+000,3.3835123726e+000,2.2568535477e+000,3.7035268413e+000,3.2239843487e+000,3.8829453343e+000,
7.2187500000e+000,3.7709586095e+000,3.8752793166e+000,2.9593571305e+000,3.3621646579e+000,3.7872778901e+000,3.6378733517e+000,2.9567768047e+000,3.3805749882e+000,2.2978316944e+000,3.4004163347e+000,2.2382978473e+000,3.7121528784e+000,3.2247410493e+000,3.9654942911e+000,
7.3125000000e+000,3.7637230372e+000,3.8838019519e+000,2.9894039006e+000,3.3357972508e+000,3.7759941509e+000,3.5642298775e+000,2.9925685920e+000,3.3742540377e+000,2.3044333661e+000,3.3724985242e+000,2.2749736309e+000,3.6317426012e+000,3.2726518138e+000,3.9054367824e+000,
7.4062500000e+000,3.7485826205e+000,3.8653327923e+000,2.9955932351e+000,3.2720277974e+000,3.7850591022e+000,3.4932403343e+000,2.9677961466e+000,3.3390077156e+000,2.2958185719e+000,3.0852225356e+000,2.3030126466e+000,3.5272588877e+000,3.2655487785e+000,3.8485821026e+000,
7.5000000000e+000,3.7316068533e+000,3.8490347565e+000,3.0100152181e+000,3.2215682849e+000,3.7681651666e+000,3.3796562310e+000,2.8970899374e+000,3.3718669814e+000,2.2627991033e+000,3.1111606887e+000,2.3122498652e+000,3.6729204139e+000,3.2945812950e+000,3.8649397362e+000,
7.5937500000e+000,3.6847386932e+000,3.8403646683e+000,2.9961556331e+000,3.1560544790e+000,3.7436685361e+000,3.3109986482e+000,2.8904363857e+000,3.2818770796e+000,2.1183794502e+000,3.2287991663e+000,2.2613784675e+000,3.6712723030e+000,3.3956749810e+000,3.8289704811e+000,
7.6875000000e+000,3.1225900207e+000,3.6189391926e+000,2.6854782043e+000,2.9730543126e+000,3.2181235526e+000,3.1932603051e+000,2.6376434523e+000,3.1725033911e+000,1.6310499665e+000,3.1773501453e+000,2.2425451006e+000,3.6210650188e+000,3.4250387628e+000,3.8027723791e+000,
7.7812500000e+000,3.0938595457e+000,3.6601664160e+000,2.7093255714e+000,3.0040505865e+000,3.2301565400e+000,3.4185048057e+000,2.6698522763e+000,3.2159207462e+000,1.5078256016e+000,3.3422228981e+000,2.1508745207e+000,3.6895434347e+000,3.4820791094e+000,3.8438964270e+000,
7.8750000000e+000,3.2043327534e+000,3.9330720999e+000,2.7380343987e+000,2.9550374826e+000,3.1857267183e+000,3.4515211000e+000,2.6797861695e+000,3.2084576774e+000,1.7376923478e+000,3.3540417697e+000,2.0905913390e+000,3.6808527191e+000,3.4137437223e+000,3.7946077820e+000,
7.9687500000e+000,3.2430999503e+000,3.9591777853e+000,2.9552127632e+000,2.9951687271e+000,3.1840877078e+000,3.5536556324e+000,2.6544508013e+000,3.3315682927e+000,1.7334174181e+000,3.4293410588e+000,2.0604083103e+000,3.6846172135e+000,3.3900768231e+000,3.7468126792e+000,
8.0625000000e+000,3.2943009873e+000,3.9354231917e+000,2.9879197503e+000,3.0006590698e+000,3.2190382426e+000,3.4221305105e+000,2.6091891339e+000,3.2381520142e+000,1.9757084742e+000,3.4212116989e+000,2.1120971127e+000,3.7059516948e+000,3.2803771174e+000,3.6434222112e+000,
8.1562500000e+000,3.4082548958e+000,4.0163435059e+000,3.0852227573e+000,3.1640677902e+000,3.1296995461e+000,3.4422350668e+000,2.5608134772e+000,3.3005058699e+000,1.9717749118e+000,3.5396741212e+000,2.0501680624e+000,3.7342452681e+000,3.1259955114e+000,3.3495050281e+000,
8.2500000000e+000,3.3719771305e+000,4.0332620689e+000,3.0882147939e+000,3.3783464283e+000,3.1232050550e+000,3.6045978736e+000,2.4719274513e+000,3.5339539466e+000,2.0720195610e+000,3.8936856994e+000,2.1455570384e+000,3.7875543513e+000,3.1540650035e+000,3.3171336294e+000,
8.3437500000e+000,3.3436532972e+000,4.0427479241e+000,3.1346202841e+000,3.4170099175e+000,3.1458291749e+000,3.6340123434e+000,2.4780882658e+000,3.6299557969e+000,2.1825676945e+000,3.9827294058e+000,2.3941898232e+000,3.9339685974e+000,3.3938735387e+000,3.6766464128e+000,
8.4375000000e+000,3.2797663270e+000,3.9934614408e+000,3.1031752651e+000,3.4454955787e+000,3.0701858969e+000,3.6274914516e+000,2.4364201100e+000,3.6316944440e+000,2.2473617825e+000,3.9843204332e+000,2.4297307869e+000,3.8546568613e+000,3.4014913285e+000,3.6697854788e+000,
8.5312500000e+000,3.2719373591e+000,3.9957558134e+000,3.0421048283e+000,3.4799828714e+000,3.0491512931e+000,3.6641616668e+000,2.4367303003e+000,3.5506920988e+000,2.3354357782e+000,3.9315599312e+000,2.4179236201e+000,3.8610038751e+000,3.4454849052e+000,3.8414306855e+000,
8.6250000000e+000,3.2907348979e+000,3.9573521918e+000,3.0009935605e+000,3.5598745222e+000,3.0359208196e+000,3.7151734076e+000,2.4093736453e+000,3.6278521930e+000,2.4216683517e+000,4.0153249271e+000,2.4574614149e+000,4.0170858367e+000,3.4872005906e+000,3.8942412464e+000,
8.7187500000e+000,3.2685343544e+000,3.9137450724e+000,2.9899256002e+000,3.5661898443e+000,3.0332155116e+000,3.7281424169e+000,2.4194965671e+000,3.6590900820e+000,2.4647858387e+000,4.0203379165e+000,2.4654435056e+000,4.0494061478e+000,3.4656764486e+000,3.9414402165e+000,
8.8125000000e+000,3.1675296420e+000,3.8214096057e+000,2.9271935909e+000,3.5143578483e+000,2.9318427447e+000,3.6003213161e+000,2.4094965694e+000,3.6630746862e+000,2.4528170798e+000,3.9074710126e+000,2.4469438574e+000,3.9359832550e+000,3.3684000179e+000,3.8600577420e+000,
8.9062500000e+000,3.0958593143e+000,3.6064883888e+000,2.9497171776e+000,3.5745723702e+000,3.0244128038e+000,3.5732895617e+000,2.4239620378e+000,3.7198628623e+000,2.4350724538e+000,3.9304529992e+000,2.4385677733e+000,3.9414029641e+000,3.3085707289e+000,3.8461751652e+000,
9.0000000000e+000,3.0872968831e+000,3.5082642985e+000,2.8053713947e+000,3.6378594517e+000,3.3949528918e+000,3.5453070996e+000,2.4417994450e+000,3.6623452977e+000,2.4541956314e+000,3.8882225193e+000,2.3997184260e+000,3.9194082312e+000,3.3352465938e+000,3.8643262711e+000,
9.0937500000e+000,3.1433773978e+000,3.5612711489e+000,2.8914892459e+000,3.6150103580e+000,3.4274684129e+000,3.5850226967e+000,2.5544972326e+000,3.6953481206e+000,2.6553518392e+000,3.8570227083e+000,2.3662329855e+000,3.9091263242e+000,3.3548884391e+000,3.8507505270e+000,
9.1875000000e+000,3.0110757145e+000,3.3795228881e+000,2.8312453291e+000,3.4906116961e+000,3.3775545866e+000,3.5843879891e+000,2.6155581851e+000,3.5846485311e+000,2.7311572488e+000,3.8286625298e+000,2.4144574939e+000,3.8951010366e+000,3.4013782967e+000,3.8622386760e+000,
9.2812500000e+000,2.9178852493e+000,3.2909012698e+000,2.7574092030e+000,3.2910710769e+000,3.3765447129e+000,3.2654832387e+000,2.5729003103e+000,3.1987371125e+000,2.6194484723e+000,3.3676616531e+000,2.3630691877e+000,3.7957391239e+000,3.3197649034e+000,3.7522582956e+000,
9.3750000000e+000,2.9067970235e+000,3.3985576017e+000,2.6980305622e+000,3.2821497399e+000,3.3058498326e+000,3.2850328949e+000,2.5080563542e+000,3.1957779607e+000,2.6196846866e+000,3.2707798551e+000,2.1424953402e+000,3.7144695159e+000,3.0901982218e+000,3.6399874704e+000,
9.4687500000e+000,2.9480600517e+000,3.4896026805e+000,2.6517788221e+000,3.2430707486e+000,3.2798987829e+000,3.2588556552e+000,2.4187846783e+000,3.1960691495e+000,2.5692819055e+000,3.2368866672e+000,2.1913579525e+000,3.6471146839e+000,3.0001866678e+000,3.5354059258e+000,
9.5625000000e+000,2.8204869078e+000,3.4417819937e+000,2.6826383778e+000,3.2654913185e+000,3.3257699119e+000,3.1416351842e+000,2.3652531746e+000,3.2755031992e+000,2.5358431436e+000,3.1876447028e+000,2.1991413002e+000,3.4912773559e+000,2.9832072225e+000,3.4840457960e+000,
9.6562500000e+000,2.8338313544e+000,3.4359577299e+000,2.7182584848e+000,3.3562088108e+000,3.3573687999e+000,3.1558743854e+000,2.3624709240e+000,3.2696556219e+000,2.4674701082e+000,3.1871146406e+000,2.0510758104e+000,3.4567982228e+000,2.8197025271e+000,3.4254527622e+000,
9.7500000000e+000,2.8853259360e+000,3.4871722029e+000,2.7318500523e+000,3.3848449413e+000,3.3554644200e+000,3.0453433824e+000,2.3550933328e+000,3.3060987085e+000,2.5030040500e+000,3.1869584086e+000,2.1003551497e+000,3.4274336322e+000,2.8377945999e+000,3.3196622545e+000,
9.8437500000e+000,3.0158339777e+000,3.5322605766e+000,2.8486275064e+000,3.5096503422e+000,3.3801623987e+000,3.0515462303e+000,2.4615057999e+000,3.1678728418e+000,2.5732434458e+000,3.1707833468e+000,2.0573301537e+000,3.4086743824e+000,2.8729160697e+000,3.3623196140e+000,
9.9375000000e+000,2.9590143547e+000,3.5026440514e+000,2.8372955819e+000,3.4127424653e+000,3.1909360025e+000,3.0390446566e+000,2.4222114324e+000,3.2004103845e+000,2.5942877961e+000,3.1076547004e+000,2.0780409478e+000,3.4010586578e+000,2.8670894942e+000,3.4983186551e+000,
1.0031250000e+001,2.9343914346e+000,3.5938337451e+000,2.7750614535e+000,3.4102523040e+000,2.7278068109e+000,2.8983987536e+000,2.2940381092e+000,3.1473824431e+000,2.4748853791e+000,2.9601829216e+000,2.0469323608e+000,3.3314970804e+000,2.7922360548e+000,3.4256460572e+000,
1.0125000000e+001,2.8360262609e+000,3.5752460154e+000,2.6635919927e+000,3.3696182137e+000,2.6258358204e+000,2.9004073807e+000,2.2529533742e+000,3.2696475903e+000,2.4523037908e+000,3.0537994773e+000,2.0134981610e+000,3.4856602928e+000,2.8678150208e+000,3.5957616381e+000,
1.0218750000e+001,2.9949473472e+000,3.6115827536e+000,2.7905539887e+000,3.4561264284e+000,2.9034326712e+000,2.9735761928e+000,2.4709667402e+000,3.3376460976e+000,2.4806281668e+000,3.1901617565e+000,2.1354494385e+000,3.5883420603e+000,2.8742377108e+000,3.6632447706e+000,
1.0312500000e+001,2.9718370244e+000,3.5786654426e+000,2.7843333383e+000,3.4536130205e+000,3.0046023089e+000,3.0486203046e+000,2.4607985523e+000,3.3602225661e+000,2.4283343639e+000,3.1569277266e+000,1.9795766000e+000,3.4455486052e+000,2.8311131542e+000,3.5225016685e+000,
1.0406250000e+001,3.0626055311e+000,3.5268024652e+000,2.8173697151e+000,3.4832791993e+000,3.0990393984e+000,3.0569685012e+000,2.5557418220e+000,3.4128400347e+000,2.4824941518e+000,3.2887949855e+000,1.9903332149e+000,3.4695047612e+000,2.8620940823e+000,3.6774862874e+000,
1.0500000000e+001,3.0545252015e+000,3.5639137387e+000,2.7843781287e+000,3.4764958996e+000,3.0906106099e+000,3.0706227554e+000,2.6025816484e+000,3.4275841951e+000,2.4601665628e+000,3.3208117980e+000,1.9892148063e+000,3.5823536428e+000,2.8721387789e+000,3.7149724427e+000,
1.0593750000e+001,3.0823416523e+000,3.6445969166e+000,2.7668997765e+000,3.4683383182e+000,3.0699999627e+000,3.1764395730e+000,2.6011946516e+000,3.3975307259e+000,2.4588760204e+000,3.4067183195e+000,1.9928106249e+000,3.6557771913e+000,2.7851485709e+000,3.6841767790e+000,
1.0687500000e+001,3.2212100165e+000,3.7252196927e+000,2.8679396381e+000,3.4911246185e+000,3.0307865115e+000,3.4802455113e+000,2.6517583495e+000,3.5922382850e+000,2.5813377925e+000,3.5705689169e+000,1.9780241237e+000,3.6955456529e+000,2.8522689933e+000,3.7435955760e+000,
1.0781250000e+001,3.3184879111e+000,3.7722122820e+000,2.9439530523e+000,3.6596445133e+000,3.2546599154e+000,3.7976970246e+000,2.8789460858e+000,3.7353897145e+000,2.5373605265e+000,3.9181329691e+000,1.9118376519e+000,3.9321944536e+000,2.8290049498e+000,3.8405205643e+000,
1.0875000000e+001,3.2693698053e+000,3.7772910834e+000,2.8937768631e+000,3.6564243125e+000,3.3378082891e+000,3.8320617548e+000,2.8089461733e+000,3.7306325120e+000,2.5360343318e+000,3.8871044256e+000,1.9151204039e+000,3.9584952879e+000,2.8933946976e+000,3.8454178837e+000,
1.0968750000e+001,3.5358300477e+000,3.8564113384e+000,2.9657788889e+000,3.7120897928e+000,3.5880485970e+000,3.9032032042e+000,2.9187301134e+000,3.8241019974e+000,2.3812185932e+000,3.8984233766e+000,1.8796023431e+000,3.9482505612e+000,2.9209881922e+000,3.8215229989e+000,
1.1062500000e+001,3.6664249987e+000,4.1170032977e+000,3.1877035684e+000,3.8920897098e+000,3.6293618662e+000,4.0642876581e+000,2.9741792975e+000,3.9753229537e+000,2.4752376141e+000,3.9391455639e+000,2.0945545345e+000,3.9544169446e+000,3.0109280600e+000,3.8130989892e+000,
1.1156250000e+001,3.7421943210e+000,4.3244686813e+000,3.3003002930e+000,4.0522237518e+000,3.6862226082e+000,4.2096602698e+000,2.9630785074e+000,4.0854715544e+000,2.5316257282e+000,4.1409484262e+000,2.1410771177e+000,4.1834029399e+000,3.0319334693e+000,3.9675544736e+000,
1.1250000000e+001,3.8517852846e+000,4.3836815711e+000,3.4040985585e+000,4.1150596888e+000,3.6562533366e+000,4.2433295100e+000,2.9411702181e+000,4.1022965103e+000,2.5922205544e+000,4.1804817406e+000,2.1261502195e+000,4.2227852365e+000,3.2128912936e+000,4.0041297970e+000,
1.1343750000e+001,3.8928394323e+000,4.4561590508e+000,3.4501220245e+000,4.1620383028e+000,3.6604229315e+000,4.3094545411e+000,3.0107046608e+000,4.1593125260e+000,2.6687969351e+000,4.2790282595e+000,2.2658975283e+000,4.3690119463e+000,3.2507059354e+000,4.0757695729e+000,
1.1437500000e+001,3.9375946587e+000,4.4585406350e+000,3.4863851368e+000,4.1622203794e+000,3.7219664823e+000,4.3636315467e+000,3.0359840404e+000,4.2237579481e+000,2.6468013649e+000,4.4116184955e+000,2.3069663490e+000,4.5020351763e+000,3.2057104626e+000,4.1038354289e+000,
1.1531250000e+001,3.9715591987e+000,4.4295966598e+000,3.5082701116e+000,4.1524663756e+000,3.7403352671e+000,4.4024963281e+000,3.0636792749e+000,4.2580534952e+000,2.7011515683e+000,4.4057096677e+000,2.2644320258e+000,4.4998911004e+000,3.3346402375e+000,4.1194752334e+000,
1.1625000000e+001,3.9138801494e+000,4.4109184778e+000,3.4961170577e+000,4.1242521959e+000,3.7367565117e+000,4.3811094562e+000,3.0601179628e+000,4.2797859009e+000,2.7188006917e+000,4.4070035297e+000,2.4055631351e+000,4.5610457173e+000,3.3617585831e+000,4.1401550256e+000,
1.1718750000e+001,3.9546405591e+000,4.4250894561e+000,3.4881896299e+000,4.1334020446e+000,3.7353587186e+000,4.3515863190e+000,3.0184633372e+000,4.2736048507e+000,2.5128997742e+000,4.3573439947e+000,2.4365650548e+000,4.5172885522e+000,3.3932569185e+000,4.1434767472e+000,
1.1812500000e+001,3.8843714225e+000,4.3596038339e+000,3.4309258272e+000,3.9967947522e+000,3.6699276424e+000,4.2663655334e+000,2.8811668518e+000,4.1647185024e+000,2.4951636653e+000,4.2452014710e+000,2.4753664294e+000,4.4288995603e+000,3.4467514569e+000,4.1383178808e+000,
1.1906250000e+001,3.8046142733e+000,4.2989100680e+000,3.3779701980e+000,3.9378336180e+000,3.4995890332e+000,4.2367580828e+000,2.8386734545e+000,4.0881169599e+000,2.4730715437e+000,4.2996279981e+000,2.4933946842e+000,4.4556349151e+000,3.4943854838e+000,4.1457533524e+000,
1.2000000000e+001,3.6823777712e+000,4.2296526587e+000,3.3498614931e+000,3.8987093303e+000,3.3901666806e+000,4.1950290637e+000,2.7886770964e+000,4.0496237839e+000,2.4334434281e+000,4.3124719610e+000,2.4885732458e+000,4.4904365542e+000,3.5521239911e+000,4.1576883022e+000,
1.2093750000e+001,4.1397768237e+000,5.2086634233e+000,4.1110553735e+000,1.0949444071e+001,3.4735417439e+000,4.9340770806e+000,3.6236777328e+000,5.1030018427e+000,2.6955004261e+000,4.6667807343e+000,3.2386423048e+000,4.4329075562e+000,3.4724264813e+000,4.3439069118e+000,
1.2187500000e+001,4.1926055634e+000,5.4831833214e+000,4.1872131374e+000,1.1277358333e+001,3.2424050970e+000,5.0135123890e+000,3.7278309362e+000,5.2785232348e+000,2.5675115103e+000,4.6548459476e+000,3.3641680792e+000,4.2839136314e+000,3.4374147153e+000,4.3217227442e+000,
1.2281250000e+001,4.0953562597e+000,5.4506926962e+000,4.1029965529e+000,1.1287235207e+001,3.3600751476e+000,4.9844683666e+000,3.7169571722e+000,5.2603976020e+000,2.4940554903e+000,4.5859965469e+000,3.3528570100e+000,4.1794198002e+000,3.3316941392e+000,4.2811352270e+000,
1.2375000000e+001,4.1904857526e+000,5.4719278279e+000,4.1155229875e+000,1.1287561091e+001,3.6537518850e+000,4.9443748708e+000,3.7610598917e+000,5.2334742506e+000,2.3871549222e+000,4.4672761606e+000,3.3045737836e+000,4.0255069921e+000,3.3723936236e+000,4.1890395388e+000,
1.2468750000e+001,4.2476861970e+000,5.4840347929e+000,4.1765382345e+000,1.1287609177e+001,3.7721399825e+000,4.9459731551e+000,3.7935815307e+000,5.2228980822e+000,2.3082365328e+000,4.4284718072e+000,3.2881813707e+000,3.9138237165e+000,3.3817315796e+000,4.1820675667e+000,
1.2562500000e+001,4.2832025860e+000,5.4766422151e+000,4.2087199419e+000,1.1287662746e+001,3.7922578924e+000,4.9799713677e+000,3.8104877371e+000,5.2234734452e+000,2.3216985595e+000,4.4573378880e+000,3.3123868058e+000,3.8620046303e+000,3.2814243791e+000,4.1105589739e+000,
1.2656250000e+001,4.3481102365e+000,5.7091296058e+000,4.2570010514e+000,1.1752683054e+001,3.8348062839e+000,5.0136585048e+000,3.8533819689e+000,5.4568080969e+000,2.3355654584e+000,4.4240271956e+000,3.3077896282e+000,3.8716949695e+000,3.2853355759e+000,4.0646574926e+000,
1.2750000000e+001,4.2908250928e+000,5.7948944140e+000,4.2508605973e+000,1.1848526641e+001,3.7722808714e+000,4.9942074328e+000,3.8278290116e+000,5.5262502743e+000,2.3564194350e+000,4.4076128678e+000,3.2975971249e+000,3.9225048627e+000,3.1825899090e+000,4.0417163812e+000,
1.2843750000e+001,4.3158369989e+000,6.2012428122e+000,4.2514666042e+000,1.2258051391e+001,3.8216629030e+000,6.0009745530e+000,3.8390804738e+000,6.0823375810e+000,2.4550338920e+000,5.0565961708e+000,3.2881535270e+000,4.0911365403e+000,3.1331234612e+000,4.0921043440e+000,
1.2937500000e+001,4.3445838450e+000,6.2739782321e+000,4.2602568463e+000,1.2310917943e+001,3.8516472208e+000,6.2048305003e+000,3.8390229478e+000,6.1794572328e+000,2.4754678690e+000,5.1782940614e+000,3.3014347692e+000,4.0996936741e+000,3.1129818762e+000,4.1376705414e+000,
1.3031250000e+001,4.3735158189e+000,6.2791871641e+000,4.2634665042e+000,1.2310900302e+001,3.9107066134e+000,6.2207063313e+000,3.8432785410e+000,6.1800423737e+000,2.5422984490e+000,5.1926395208e+000,3.3088549484e+000,4.0737721996e+000,3.0603950270e+000,4.1135963213e+000,
1.3125000000e+001,3.8143135385e+000,5.8409976066e+000,3.2919577281e+000,1.1911108979e+001,3.8904220822e+000,5.9945929066e+000,3.0189498820e+000,5.8114053139e+000,1.9738184581e+000,4.9012655544e+000,2.3798185152e+000,4.0623879849e+000,3.1464516908e+000,3.7480255975e+000,
1.3218750000e+001,3.8250806340e+000,5.8145007283e+000,3.2245075970e+000,1.1870915534e+001,3.8915192499e+000,5.9872860642e+000,3.0032492278e+000,5.7878645400e+000,2.0266284691e+000,4.8837600689e+000,2.1734099340e+000,4.0707449523e+000,3.1231971589e+000,3.6887840016e+000,
1.3312500000e+001,3.7975439917e+000,5.8071489289e+000,3.1786523719e+000,1.1867695062e+001,3.7539858347e+000,5.9798933448e+000,2.9178412679e+000,5.7833804079e+000,2.0578961488e+000,4.8879590538e+000,2.1936624780e+000,4.0539178902e+000,3.0863717416e+000,3.6482958083e+000,
1.3406250000e+001,3.5499671318e+000,5.7902202261e+000,3.0225649774e+000,1.1867597544e+001,3.3750038875e+000,5.9808528771e+000,2.6339849586e+000,5.7875024962e+000,2.1538468911e+000,4.8830536870e+000,2.3033162577e+000,4.0291493851e+000,2.9362862943e+000,3.6048423675e+000,
1.3500000000e+001,3.7450722899e+000,5.8191822744e+000,3.1776884117e+000,1.1867577193e+001,3.4642874866e+000,5.9815144803e+000,2.7019667081e+000,5.7923558650e+000,2.2715539271e+000,4.8929203534e+000,2.3817400265e+000,4.2240297853e+000,3.0732435768e+000,3.7937737266e+000,
1.3593750000e+001,3.8642877034e+000,5.8303581560e+000,3.2215177438e+000,1.1855123203e+001,3.5433472956e+000,5.9836261758e+000,2.8733611936e+000,5.7884959752e+000,2.3085649401e+000,4.9350785663e+000,2.2223866379e+000,4.2948362987e+000,3.0741132279e+000,3.9044622759e+000,
1.3687500000e+001,3.8135201294e+000,5.5587778134e+000,3.1029707785e+000,1.1369764930e+001,3.5120431846e+000,5.9586925623e+000,2.7508914064e+000,5.5503538211e+000,2.3245993928e+000,4.9185189556e+000,2.1968048903e+000,4.2258114694e+000,3.0698224339e+000,3.9528882890e+000,
1.3781250000e+001,3.8386005352e+000,5.3856572873e+000,3.0700269471e+000,1.0955454591e+001,3.5339556367e+000,5.9000733151e+000,2.7906356706e+000,5.3993906511e+000,2.3932728365e+000,4.8525480426e+000,2.1896201009e+000,4.2047669064e+000,3.0951186179e+000,3.9174794591e+000,
1.3875000000e+001,3.8275909657e+000,4.0475570808e+000,3.1017049100e+000,8.2342956261e+000,3.5269393211e+000,4.1532570024e+000,2.8894645255e+000,3.4981616610e+000,2.3885598272e+000,3.7411465603e+000,2.2490566832e+000,4.0487018805e+000,3.0834903167e+000,3.7137094976e+000,
1.3968750000e+001,3.9056635452e+000,3.9323706224e+000,3.1774689256e+000,5.1477096374e+000,3.5525988949e+000,3.5350956266e+000,3.1346888391e+000,3.2270540047e+000,2.3446649107e+000,3.6533475203e+000,2.2232487101e+000,4.0067952527e+000,3.0159763831e+000,3.6740332205e+000,
1.4062500000e+001,3.8386657235e+000,3.9374279154e+000,3.1510991011e+000,1.1966738999e+000,3.4734369521e+000,3.5214935492e+000,3.0953711609e+000,3.3253266216e+000,2.3978477929e+000,3.5646574166e+000,2.2179385486e+000,4.0130984710e+000,2.9236349081e+000,3.6381969533e+000,
1.4156250000e+001,3.7754199686e+000,3.9072873995e+000,3.1085677544e+000,1.2016803993e-001,3.4335694017e+000,3.5930783779e+000,3.0976499337e+000,3.3095336678e+000,2.4735190378e+000,3.6034238858e+000,2.2326792380e+000,4.0203897402e+000,2.7641120963e+000,3.6136209559e+000,
1.4250000000e+001,3.8191967563e+000,3.8265273068e+000,3.1996143393e+000,3.1141642780e-003,3.4602885405e+000,3.6715142944e+000,3.1347643692e+000,3.4169300735e+000,2.5432251155e+000,3.7816918934e+000,2.2173103133e+000,4.1511487778e+000,2.8163763140e+000,3.7380766254e+000,
1.4343750000e+001,3.8069234912e+000,3.8621280351e+000,3.2410120044e+000,6.6361908156e-005,3.4689127079e+000,3.7579250755e+000,3.1546316375e+000,3.4552365366e+000,2.6310904830e+000,3.8406016374e+000,2.2412950754e+000,4.2237397273e+000,2.8844048864e+000,3.8099668079e+000,
1.4437500000e+001,3.7008686328e+000,3.7712086625e+000,3.1527936527e+000,3.5283225351e-006,3.4822848809e+000,3.7374328880e+000,3.1500329333e+000,3.4764241668e+000,2.5125052768e+000,3.8586657076e+000,2.1762690375e+000,4.1259216558e+000,2.8286810156e+000,3.7724937254e+000,
1.4531250000e+001,3.5001026449e+000,3.4280502790e+000,3.0066983143e+000,4.8766055337e-008,3.3436909144e+000,3.4878497080e+000,3.0454471501e+000,3.2926671335e+000,2.5590606020e+000,3.6678559340e+000,2.1543520794e+000,3.9566332500e+000,2.7166667978e+000,3.5701987814e+000,
1.4625000000e+001,3.4093478917e+000,3.4371377434e+000,2.9385001517e+000,2.5347275358e-009,3.2859022062e+000,3.4828673870e+000,2.9516597106e+000,3.3426052679e+000,2.6535491322e+000,3.6844220609e+000,2.1783537089e+000,3.9574817295e+000,3.0824297701e+000,3.5626762700e+000,
1.4718750000e+001,3.3511797608e+000,3.4308769164e+000,2.8878513078e+000,6.6999294999e-011,3.2859191120e+000,3.4916354015e+000,2.9900837511e+000,3.3980122620e+000,2.6299436916e+000,3.6633865984e+000,2.2224966912e+000,3.9572036244e+000,3.2664714201e+000,3.7249243917e+000,
1.4812500000e+001,3.3833868242e+000,3.3984465820e+000,2.8495878485e+000,1.3020695633e-012,3.2627195621e+000,3.5490046730e+000,2.9221039282e+000,3.4504367672e+000,2.6678940149e+000,3.7811653843e+000,2.3492871141e+000,4.0449506188e+000,3.4102299229e+000,3.9258525662e+000,
1.4906250000e+001,3.4655884178e+000,3.5002046524e+000,2.8675360178e+000,5.0453206321e+000,3.3568054392e+000,3.5644397014e+000,2.8749530881e+000,3.4525696950e+000,2.8113536422e+000,3.7377807172e+000,2.3275471848e+000,3.9953048926e+000,3.4170883697e+000,3.9178064566e+000,
1.5000000000e+001,3.4014528850e+000,6.4591704943e+000,2.8194555955e+000,1.2275373460e+001,3.4259535735e+000,7.4307932979e+000,2.7773939553e+000,6.3010682155e+000,2.8303570866e+000,6.0250157100e+000,2.2359586480e+000,3.9745256507e+000,3.4425243750e+000,3.9276279159e+000,
1.5093750000e+001,3.4177557320e+000,6.6888551976e+000,2.8211166607e+000,1.2555979376e+001,3.4731066198e+000,7.8277598464e+000,2.8434434734e+000,6.5533217128e+000,2.7333134078e+000,6.3857850722e+000,2.1710431195e+000,3.9687369718e+000,3.5332022410e+000,4.0100404058e+000,
1.5187500000e+001,3.5206207750e+000,6.8800871888e+000,2.8553509887e+000,1.2816109645e+001,3.4681206883e+000,7.9234724006e+000,2.8111437322e+000,6.7317805930e+000,2.7216975702e+000,6.4442607749e+000,2.1735306290e+000,3.9536762472e+000,3.5251980331e+000,4.0466868583e+000,
1.5281250000e+001,3.4338089410e+000,6.9336801991e+000,2.7007335093e+000,1.2860283762e+001,3.3041434638e+000,7.9329668539e+000,2.7399477470e+000,6.7942115151e+000,2.7023639293e+000,6.4500446706e+000,2.0913338983e+000,3.8479029115e+000,3.5304985701e+000,3.9618812420e+000,
1.5375000000e+001,3.3893465349e+000,6.9347131288e+000,2.6496105156e+000,1.2861247445e+001,3.3138488759e+000,7.9323027091e+000,2.6697741877e+000,6.7940690312e+000,2.6463960129e+000,6.4459558652e+000,2.1255397006e+000,3.7586019727e+000,3.5185644913e+000,3.9554387582e+000,
1.5468750000e+001,3.3680922875e+000,6.9341921998e+000,2.5863219702e+000,1.2861307170e+001,3.3354506311e+000,7.9326359084e+000,2.7890281612e+000,6.7948785828e+000,2.6873150700e+000,6.4449899490e+000,1.9901182154e+000,3.8066934599e+000,3.5390629314e+000,3.9733268483e+000,
1.5562500000e+001,3.2975377623e+000,6.9332639469e+000,2.4543081665e+000,1.2861308057e+001,3.3921332599e+000,7.9322550314e+000,2.8235565168e+000,6.7941780521e+000,2.6745967184e+000,6.4447093199e+000,2.1088640403e+000,3.8108669148e+000,3.4340079725e+000,3.9006346504e+000,
1.5656250000e+001,3.3255054224e+000,6.9320912340e+000,2.3715101591e+000,1.2861308095e+001,3.4070856690e+000,7.9323013570e+000,2.7835329472e+000,6.7934577325e+000,2.5672913549e+000,6.4468116983e+000,2.1230201267e+000,3.8217767668e+000,3.1404440786e+000,3.7652353760e+000,
1.5750000000e+001,3.4922306754e+000,6.9355799384e+000,2.6760317949e+000,1.2861308096e+001,3.4122128946e+000,7.9318391236e+000,2.8444434683e+000,6.7901030687e+000,2.4879185566e+000,6.4405647781e+000,2.0792659858e+000,3.7944560581e+000,3.0144287235e+000,3.5303098925e+000,
1.5843750000e+001,3.5507835799e+000,6.9367715567e+000,2.7694530731e+000,1.2861308096e+001,3.4923452303e+000,7.9315015435e+000,2.8959046794e+000,6.7902910310e+000,2.4187286951e+000,6.4380216424e+000,1.9389038191e+000,3.8135615256e+000,2.8609965605e+000,3.5413852855e+000,
1.5937500000e+001,3.5493689953e+000,6.8614188660e+000,2.5882147694e+000,1.2748129601e+001,3.4173448020e+000,7.8891146945e+000,2.6758216644e+000,6.7108244175e+000,2.3039691120e+000,6.3917804064e+000,1.9824410452e+000,3.8459531299e+000,2.8434508236e+000,3.5350921630e+000,
1.6031250000e+001,3.6319613876e+000,5.7122269765e+000,2.7053956299e+000,1.1746645846e+001,3.3763419692e+000,6.5904265162e+000,2.6399074417e+000,5.6088182945e+000,2.2692559003e+000,5.1025113533e+000,2.0019756205e+000,3.8629556163e+000,2.7206965561e+000,3.4792477840e+000,
1.6125000000e+001,3.7132164235e+000,5.4373448287e+000,2.8820188178e+000,1.1294461011e+001,3.3529040171e+000,5.3458681510e+000,2.7050740862e+000,5.2970808547e+000,2.3821755418e+000,4.1262981634e+000,2.1493562586e+000,3.9528475517e+000,2.7484325210e+000,3.5184863354e+000,
1.6218750000e+001,3.8365390750e+000,4.0677890389e+000,3.0193761252e+000,8.5924133463e+000,3.5740308844e+000,3.7270663070e+000,2.7892786376e+000,3.4733335183e+000,2.4240477262e+000,3.7337629219e+000,2.3122546481e+000,3.9460445399e+000,2.8615588923e+000,3.4773842749e+000,
1.6312500000e+001,3.9497121740e+000,3.9021378384e+000,3.1219141553e+000,5.5096774737e+000,3.6276161046e+000,3.6130098520e+000,2.8301298508e+000,3.2664210906e+000,2.4060526797e+000,3.5531720164e+000,2.3452061433e+000,3.9025644975e+000,2.8047652433e+000,3.4380694587e+000,
1.6406250000e+001,3.9891880112e+000,3.9792126143e+000,3.1572288237e+000,1.4643940828e+000,3.5934667075e+000,3.6102692297e+000,2.8593972433e+000,3.2578708632e+000,2.3738779037e+000,3.6079050003e+000,2.2975134963e+000,3.8909842390e+000,2.7227893795e+000,3.3468220880e+000,
1.6500000000e+001,4.0719849096e+000,4.0199557236e+000,3.2550440813e+000,1.6798844863e-001,3.5250492652e+000,3.6094644077e+000,2.8973604769e+000,3.2394535256e+000,2.4318504414e+000,3.6036620867e+000,2.2100927427e+000,3.9191676058e+000,2.8481843802e+000,3.4933024304e+000,
1.6593750000e+001,4.0955943754e+000,4.0124483582e+000,3.2756740491e+000,4.4900985669e-003,3.5337254770e+000,3.6688834969e+000,2.8938039216e+000,3.2465868433e+000,2.3523910716e+000,3.6220819962e+000,2.1731832349e+000,3.8991758906e+000,2.8308943592e+000,3.5141502612e+000,
1.6687500000e+001,4.0572525341e+000,3.9903652420e+000,3.2411795659e+000,1.8073850073e-001,3.5501522240e+000,3.6820964065e+000,2.8907018002e+000,3.2936943840e+000,2.3438777873e+000,3.5894280836e+000,2.1559480940e+000,3.7949526968e+000,2.8701115674e+000,3.4705927825e+000,
1.6781250000e+001,3.9804226935e+000,3.9869699682e+000,3.1815383959e+000,9.4342000243e-001,3.4736674839e+000,3.8045963775e+000,2.7814126258e+000,3.4294283827e+000,2.4203347930e+000,3.7056415938e+000,2.1761536551e+000,3.7318643697e+000,2.8708447107e+000,3.4620184884e+000,
1.6875000000e+001,4.0521804054e+000,3.9519116364e+000,3.2235597912e+000,1.2264166666e+000,3.5969295803e+000,3.7886528012e+000,2.8853508390e+000,3.3754844563e+000,2.3499830024e+000,3.6099538987e+000,2.2281744101e+000,3.6346024164e+000,3.0439147234e+000,3.5860283579e+000,
1.6968750000e+001,3.9856200246e+000,3.9803064583e+000,3.2805411076e+000,2.2837344597e+000,3.6596856756e+000,3.8401806376e+000,2.9612854278e+000,3.5014269034e+000,2.4939998714e+000,3.6438579963e+000,2.3737084928e+000,3.7019572482e+000,3.1573454269e+000,3.6330521544e+000,
1.7062500000e+001,3.9491361721e+000,3.9745015642e+000,3.2377312643e+000,2.5729988416e+000,3.8259824650e+000,3.8267932806e+000,3.0298698404e+000,3.5378386369e+000,2.4609598557e+000,3.6535132724e+000,2.4430327134e+000,3.6706929246e+000,3.1275948318e+000,3.5879573559e+000,
1.7156250000e+001,3.8982472042e+000,3.9270282579e+000,3.1874277879e+000,3.0521528465e+000,3.8287764128e+000,3.8133815436e+000,2.9928157066e+000,3.5882340863e+000,2.4154504964e+000,3.5570849590e+000,2.3901637515e+000,3.5864277599e+000,3.1335597944e+000,3.5280505540e+000,
1.7250000000e+001,3.7318777329e+000,3.8523095858e+000,3.1278068417e+000,3.3357263378e+000,3.6667919140e+000,3.6426296893e+000,2.9060516921e+000,3.5185498166e+000,2.3214079898e+000,3.5369267395e+000,2.3096771186e+000,3.6126516320e+000,3.2103601147e+000,3.5832703099e+000,
1.7343750000e+001,3.6682409883e+000,3.8328285629e+000,3.1037134146e+000,3.5338432426e+000,3.6763722912e+000,3.6360608828e+000,2.8563002156e+000,3.5106765289e+000,2.2768756578e+000,3.6731427907e+000,2.3599242750e+000,3.7387854222e+000,3.2968529255e+000,3.6419227277e+000,
1.7437500000e+001,3.6795309038e+000,3.8973804308e+000,3.1800548699e+000,3.7206137708e+000,3.7908435707e+000,3.7346048538e+000,2.8942721335e+000,3.6186438151e+000,2.4549746731e+000,3.6834604799e+000,2.3460203322e+000,3.7723404310e+000,3.2653101135e+000,3.6447375964e+000,
1.7531250000e+001,3.8297073716e+000,4.1780266878e+000,3.3057051475e+000,3.9635820482e+000,3.8664562799e+000,3.9760650019e+000,2.8537350346e+000,3.8414063899e+000,2.3585332921e+000,3.7633095357e+000,2.3336391884e+000,3.7437276927e+000,3.1801517162e+000,3.4902443720e+000,
1.7625000000e+001,3.9118304529e+000,4.2756079255e+000,3.4145641701e+000,4.0655121651e+000,3.8627096056e+000,4.0178032547e+000,2.8766723968e+000,3.9050754697e+000,2.4237561666e+000,3.8428853402e+000,2.4090654594e+000,3.8627306005e+000,3.2366388132e+000,3.5977825362e+000,
1.7718750000e+001,3.9344567060e+000,4.2877961375e+000,3.4514358919e+000,4.1168699095e+000,3.9018063224e+000,3.9515304609e+000,3.0099669424e+000,3.8150519510e+000,2.4316598296e+000,3.8127189372e+000,2.5547245157e+000,3.9120523924e+000,3.3305166517e+000,3.6450101269e+000,
1.7812500000e+001,3.8059970812e+000,4.3192097929e+000,3.4322611858e+000,4.2120685377e+000,3.8282628959e+000,3.9293616380e+000,2.9664835254e+000,3.8484685266e+000,2.4663946996e+000,3.8119712949e+000,2.7032071839e+000,3.9620057721e+000,3.2692365242e+000,3.5836240255e+000,
1.7906250000e+001,3.7493886496e+000,4.2745359673e+000,3.4328898589e+000,4.2877268159e+000,3.7149018386e+000,3.9908804095e+000,2.8660126172e+000,3.9171833844e+000,2.4976272327e+000,3.9268713591e+000,2.6760544754e+000,4.0723387249e+000,3.1416670026e+000,3.4502696078e+000,
1.8000000000e+001,3.8200903179e+000,4.4033858518e+000,3.4523462682e+000,4.3436151980e+000,3.7773627257e+000,4.0145071485e+000,2.8885545818e+000,3.9619925061e+000,2.4249797124e+000,3.8757029884e+000,2.5550029881e+000,4.0752434581e+000,3.1236413877e+000,3.4878657476e+000,
1.8093750000e+001,3.8146378134e+000,4.4017330474e+000,3.4281646278e+000,4.3331883242e+000,3.5233405519e+000,4.0324103428e+000,2.7917248127e+000,3.9497298627e+000,2.3846768775e+000,3.9423442417e+000,2.4832947776e+000,4.1262830479e+000,3.1337831667e+000,3.5720019852e+000,
1.8187500000e+001,3.8253911460e+000,4.4025331626e+000,3.4180493102e+000,4.2830106348e+000,3.5797007400e+000,4.0804591173e+000,2.8360341468e+000,3.9853400884e+000,2.5879854601e+000,3.9963362903e+000,2.5987792596e+000,4.1086889834e+000,3.1314347941e+000,3.6081418553e+000,
1.8281250000e+001,3.7374754891e+000,4.3418958988e+000,3.3756256855e+000,4.1826256009e+000,3.5735307617e+000,4.0931230271e+000,2.7813033873e+000,3.9724660361e+000,2.5955062737e+000,3.9488177156e+000,2.6015986632e+000,4.0216586335e+000,2.9645822534e+000,3.5215091282e+000,
1.8375000000e+001,3.7450591696e+000,4.3469488601e+000,3.3847935065e+000,4.1709742927e+000,3.5515590420e+000,4.0289062235e+000,2.8187356033e+000,4.0005302754e+000,2.5567698133e+000,3.8708929312e+000,2.5757508136e+000,3.9494334926e+000,2.9720114652e+000,3.5134368430e+000,
1.8468750000e+001,3.4970170011e+000,4.1173343951e+000,3.1468701113e+000,4.0736130950e+000,3.3752030629e+000,3.9406521676e+000,2.6548066828e+000,3.8850090118e+000,2.4090490768e+000,3.7940616129e+000,2.6227508399e+000,3.9041005412e+000,2.9969812187e+000,3.4580482099e+000,
1.8562500000e+001,3.2891006068e+000,3.9048802903e+000,3.0198741289e+000,3.9282671292e+000,3.3257301281e+000,3.6764139919e+000,2.6773938136e+000,3.6893875475e+000,2.3891293658e+000,3.6688456745e+000,2.6146654746e+000,3.8062595954e+000,3.0507074805e+000,3.4924177236e+000,
1.8656250000e+001,3.1484410978e+000,3.8129140132e+000,2.7909813682e+000,3.9109556993e+000,3.3107329073e+000,3.5336280508e+000,2.6885721220e+000,3.6231413883e+000,2.3506441435e+000,3.4833896921e+000,2.5219021018e+000,3.6643448441e+000,2.9030770776e+000,3.4536730687e+000,
1.8750000000e+001,3.0468160380e+000,3.7409451136e+000,2.6459931112e+000,3.8411201014e+000,3.2043920359e+000,3.5106488825e+000,2.5090196429e+000,3.6352766016e+000,2.3185599909e+000,3.4702991351e+000,2.4058977013e+000,3.6868721822e+000,2.8716198603e+000,3.4304086636e+000,
1.8843750000e+001,3.1882056149e+000,3.7025101647e+000,2.6090727208e+000,3.7320527754e+000,3.2460883088e+000,3.6058040659e+000,2.5565707263e+000,3.6228074310e+000,2.4303543431e+000,3.4714702938e+000,2.2123318072e+000,3.4812277656e+000,2.8629108823e+000,3.4126418512e+000,
1.8937500000e+001,3.2378567679e+000,3.7953383401e+000,2.8093300296e+000,3.8410459403e+000,3.1502427372e+000,3.6448393598e+000,2.7163092246e+000,3.7019735416e+000,2.3255204510e+000,3.4527313847e+000,2.2510782718e+000,3.4609202123e+000,2.8616162587e+000,3.5755808740e+000,
1.9031250000e+001,3.3428682630e+000,3.8707500700e+000,2.7969015255e+000,4.1095936925e+000,3.1093038928e+000,3.9697007085e+000,2.5430707923e+000,3.9968405093e+000,2.4003403633e+000,3.9225294814e+000,2.3321526116e+000,3.8234585053e+000,3.0632974685e+000,3.8510646560e+000,
1.9125000000e+001,3.3687751956e+000,4.0210031653e+000,2.8547034623e+000,4.2320914599e+000,3.1209883758e+000,4.1058349197e+000,2.5281862531e+000,4.1576261232e+000,2.2406674962e+000,3.9576277904e+000,2.1858273220e+000,3.8589567993e+000,3.0454181974e+000,3.8592876838e+000,
1.9218750000e+001,3.4419469257e+000,4.0694952662e+000,2.8569576371e+000,4.3433216735e+000,3.2029762188e+000,4.1398957722e+000,2.5299105830e+000,4.2216217369e+000,2.2586817488e+000,4.0227582920e+000,2.3155607415e+000,3.9399787100e+000,3.1436334442e+000,3.9678452247e+000,
1.9312500000e+001,3.7823103442e+000,4.3605585426e+000,3.1171913654e+000,4.5714967986e+000,3.3342699294e+000,4.3073268970e+000,2.6550423674e+000,4.4453910150e+000,2.2618190279e+000,4.1557824338e+000,2.2580883527e+000,4.0491407528e+000,3.1626861571e+000,4.1565861541e+000,
1.9406250000e+001,3.9122868998e+000,4.4789893223e+000,3.3031134668e+000,4.6401962541e+000,3.4090784364e+000,4.4510375137e+000,2.7477078683e+000,4.6101086301e+000,2.4610941457e+000,4.2467782069e+000,2.2968619000e+000,4.1526053401e+000,3.2147621853e+000,4.1997656753e+000,
1.9500000000e+001,3.9166746950e+000,4.5211799292e+000,3.3306320086e+000,4.6702814292e+000,3.3888569538e+000,4.5076958915e+000,2.7765937067e+000,4.6550243818e+000,2.5132941929e+000,4.3499042060e+000,2.3665863456e+000,4.2640225482e+000,3.3051786657e+000,4.2982137584e+000,
1.9593750000e+001,3.9199665164e+000,4.4979291549e+000,3.3218832774e+000,4.6493271896e+000,3.3445690793e+000,4.5120665208e+000,2.7000040094e+000,4.6408081473e+000,2.5188829979e+000,4.3555746646e+000,2.4110469178e+000,4.3064626077e+000,3.3883050747e+000,4.3027429305e+000,
1.9687500000e+001,3.9562211501e+000,4.7748674335e+000,3.3813228968e+000,4.6941186879e+000,3.3719881522e+000,4.5329696012e+000,2.7850117383e+000,4.6719749059e+000,2.5449074642e+000,4.3363252541e+000,2.4203970652e+000,4.2722280016e+000,3.3317934044e+000,4.2790974124e+000,
1.9781250000e+001,3.9559680653e+000,4.7926829997e+000,3.3679259854e+000,4.6818046718e+000,3.3871714807e+000,4.5611553798e+000,2.8350793616e+000,4.6785363479e+000,2.4935116464e+000,4.3445300262e+000,2.4790743803e+000,4.3405264589e+000,3.3617793341e+000,4.2945081808e+000,
1.9875000000e+001,3.9100326420e+000,4.7712674004e+000,3.3104440381e+000,4.6726598383e+000,3.3772629926e+000,4.5331767994e+000,2.6974355965e+000,4.6787871822e+000,2.3838210265e+000,4.3355341735e+000,2.4589057843e+000,4.3982383940e+000,3.3782042346e+000,4.3529032784e+000,
1.9968750000e+001,3.8936084634e+000,4.7314658683e+000,3.2129471184e+000,4.5558201987e+000,3.4112377793e+000,4.4959163209e+000,2.6298563651e+000,4.6204109171e+000,2.3315084895e+000,4.3830037794e+000,2.5005644865e+000,4.4178607265e+000,3.5144468394e+000,4.3779735904e+000,
2.0062500000e+001,3.7686367197e+000,4.5884340775e+000,3.1541116790e+000,4.3272130310e+000,3.3948301191e+000,4.2531960089e+000,2.7178888604e+000,4.3746262276e+000,2.2222115162e+000,4.0739317516e+000,2.3927925828e+000,4.2891150184e+000,3.3634668103e+000,4.1614877742e+000,
2.0156250000e+001,3.7580593811e+000,4.5573603620e+000,3.0683349977e+000,4.2268715749e+000,3.3601065150e+000,4.0766679529e+000,2.6970949724e+000,4.2381703474e+000,2.1522160772e+000,3.9357264934e+000,2.3793996297e+000,4.1917329799e+000,3.4045656805e+000,4.0943197347e+000,
2.0250000000e+001,3.6395156473e+000,4.5153571514e+000,3.0513412737e+000,4.0843099562e+000,3.2995123616e+000,4.0685912786e+000,2.7668414471e+000,4.1196782193e+000,2.1430450909e+000,4.0172087776e+000,2.3154043773e+000,4.3036289383e+000,3.3966977545e+000,4.0546993480e+000,
2.0343750000e+001,3.4694724689e+000,4.4146624892e+000,2.8652453037e+000,3.8384585231e+000,3.3658213595e+000,3.9106970173e+000,2.8036210529e+000,3.8912870837e+000,2.0661188830e+000,3.9510690809e+000,2.3480414769e+000,4.3014128973e+000,3.4401070363e+000,4.0835739944e+000,
2.0437500000e+001,3.3827049228e+000,4.4183531989e+000,2.7240435237e+000,3.7509926345e+000,3.2985641301e+000,3.7250063240e+000,2.6918114125e+000,3.6396412923e+000,1.9302688051e+000,3.7894481845e+000,2.3097417958e+000,4.2320283548e+000,3.3923226613e+000,4.0091523964e+000,
2.0531250000e+001,3.3605665973e+000,4.3995347751e+000,2.6921814429e+000,3.7293600854e+000,3.3519773665e+000,3.7005488916e+000,2.6609398683e+000,3.6053645583e+000,1.9697697137e+000,3.7478019976e+000,2.1913511532e+000,4.2240150120e+000,3.2979311019e+000,3.9370160675e+000,
2.0625000000e+001,3.3051668623e+000,4.2678152022e+000,2.6756562908e+000,3.6982253427e+000,3.3537236106e+000,3.6680812954e+000,2.6725753523e+000,3.6164104994e+000,1.9578748349e+000,3.7121476936e+000,2.0803707263e+000,4.1873628885e+000,3.2223626884e+000,3.9298990620e+000,
2.0718750000e+001,3.2082551571e+000,3.9467299030e+000,2.5093498898e+000,3.5664742955e+000,3.3382555846e+000,3.5627356346e+000,2.5702700561e+000,3.4419607480e+000,1.9951736087e+000,3.6875340124e+000,1.9649203143e+000,4.1754422404e+000,3.1935839924e+000,3.9205616815e+000,
2.0812500000e+001,3.2221561799e+000,3.9263396936e+000,2.4710853412e+000,3.5890760330e+000,3.3277286072e+000,3.4904661091e+000,2.5020763677e+000,3.4519729696e+000,1.9703256611e+000,3.6725346003e+000,1.8684028935e+000,4.0941001114e+000,3.1915085275e+000,3.9104954659e+000,
2.0906250000e+001,3.1758268826e+000,3.9594716417e+000,2.4220650558e+000,3.6321600292e+000,3.3053492761e+000,3.4149500653e+000,2.4864629949e+000,3.3810414839e+000,1.9686804672e+000,3.6142887696e+000,2.0298553851e+000,4.0551167756e+000,3.1277076497e+000,3.8497875959e+000,
2.1000000000e+001,3.0983669931e+000,3.9022955466e+000,2.4668240078e+000,3.5635674915e+000,3.2632204153e+000,3.3002985181e+000,2.4572181757e+000,3.3439018102e+000,2.0736327741e+000,3.3388945133e+000,1.9351484707e+000,3.9182208161e+000,2.9673189901e+000,3.6875637579e+000,
2.1093750000e+001,3.1342832742e+000,3.8653661231e+000,2.5184916653e+000,3.5067299921e+000,3.3270948119e+000,3.1850446970e+000,2.4979408817e+000,3.3442011616e+000,2.1052864826e+000,3.2773400811e+000,1.8682970472e+000,3.8996352010e+000,3.0110721930e+000,3.7061481770e+000,
2.1187500000e+001,3.1147543680e+000,3.7978651059e+000,2.6048604615e+000,3.4026804085e+000,3.3757431456e+000,3.1360774960e+000,2.6304382327e+000,3.2489283311e+000,2.1337999151e+000,3.0094300077e+000,1.8996032002e+000,3.8331059604e+000,3.0776021023e+000,3.6301168093e+000,
2.1281250000e+001,3.0987732576e+000,3.7258708943e+000,2.4589042932e+000,3.2806318506e+000,3.3572421866e+000,2.9362497992e+000,2.6166058482e+000,3.1340866186e+000,2.2791221295e+000,2.7318455277e+000,2.1775906036e+000,3.7684006039e+000,3.2005476966e+000,3.5897813967e+000,
2.1375000000e+001,2.9430743382e+000,3.4716768435e+000,2.2913712114e+000,3.1386112431e+000,3.2515086718e+000,2.7570010905e+000,2.5464565530e+000,3.0224161937e+000,2.2535766735e+000,2.6355472768e+000,2.1976512494e+000,3.7482950471e+000,3.1163054565e+000,3.4736445800e+000,
2.1468750000e+001,3.0680223190e+000,3.5528436747e+000,2.3405506472e+000,3.2412009805e+000,3.2712905374e+000,2.8442729865e+000,2.6023922412e+000,3.0989365004e+000,2.3685566095e+000,2.5031966111e+000,2.2531518496e+000,3.6220038395e+000,3.0450103745e+000,3.4870884583e+000,
2.1562500000e+001,3.0440990107e+000,3.4915611067e+000,2.3463651874e+000,3.2616436731e+000,3.1695467567e+000,2.8936735445e+000,2.6322593285e+000,3.0184562600e+000,2.3844297458e+000,2.6425619269e+000,2.3528323900e+000,3.6505375985e+000,3.0582010347e+000,3.6136082588e+000,
2.1656250000e+001,3.0401325626e+000,3.4751942464e+000,2.3169428130e+000,3.2770967203e+000,3.2135255920e+000,2.9821678291e+000,2.6498535713e+000,3.0745760479e+000,2.4500914425e+000,2.6795406211e+000,2.4538490082e+000,3.6515351231e+000,3.1020268805e+000,3.6892282210e+000,
2.1750000000e+001,3.0811475405e+000,3.4001901790e+000,2.4067048687e+000,3.2740220711e+000,3.2208935753e+000,2.9755848739e+000,2.6296783993e+000,3.0994035045e+000,2.4381324048e+000,2.6770761597e+000,2.5696416700e+000,3.6847836113e+000,3.2204611043e+000,3.7996473737e+000,
2.1843750000e+001,3.0884799993e+000,3.4450923268e+000,2.4958466892e+000,3.1644881647e+000,3.2130606981e+000,3.0307686137e+000,2.6665426912e+000,3.1206814846e+000,2.4975708544e+000,2.8136668964e+000,2.5992204565e+000,3.6957222582e+000,3.1934675058e+000,3.7559197052e+000,
2.1937500000e+001,3.1173172365e+000,3.4629045610e+000,2.6609158896e+000,3.0416682863e+000,3.2352650029e+000,3.0837642235e+000,2.7321740992e+000,3.1084019121e+000,2.5311725942e+000,2.9386012381e+000,2.5588665536e+000,3.7999536049e+000,3.2055132461e+000,3.8003467783e+000,
2.2031250000e+001,3.1750348678e+000,3.5804058950e+000,2.6359294240e+000,3.0394881517e+000,3.2785626808e+000,3.1263166258e+000,2.7104887264e+000,3.1626014881e+000,2.5516464090e+000,3.0973941367e+000,2.5297567863e+000,3.7453760142e+000,3.0856519516e+000,3.7729809553e+000,
2.2125000000e+001,3.1304438742e+000,3.6940897324e+000,2.5660212641e+000,3.1444100348e+000,3.1622347311e+000,3.1053095726e+000,2.6165951520e+000,3.1251559394e+000,2.5797920073e+000,3.1541196198e+000,2.5354303329e+000,3.7423806150e+000,3.0162120946e+000,3.7619537392e+000,
2.2218750000e+001,3.1456591833e+000,3.7309474925e+000,2.5072876427e+000,3.2517969367e+000,2.9947484247e+000,3.1277085616e+000,2.3964457972e+000,3.1396766962e+000,2.6103073345e+000,3.1193839884e+000,2.4453987933e+000,3.6768178537e+000,2.8347662283e+000,3.7358551985e+000,
2.2312500000e+001,3.1972057619e+000,3.6767168170e+000,2.6626355256e+000,3.2217526765e+000,3.1188241161e+000,3.2397365866e+000,2.5893916898e+000,3.2859997144e+000,2.6732450195e+000,3.2216568920e+000,2.3295904113e+000,3.6061860083e+000,2.8471199431e+000,3.7040240093e+000,
2.2406250000e+001,3.1930942281e+000,3.5821318243e+000,2.5994819816e+000,3.0067520021e+000,3.1504360932e+000,3.2387463720e+000,2.6118698051e+000,3.1547483887e+000,2.6846976040e+000,3.3068890873e+000,2.3157037060e+000,3.7335672204e+000,2.9236127620e+000,3.7483497692e+000,
2.2500000000e+001,3.1859894659e+000,3.6556518423e+000,2.6659397134e+000,3.0415083289e+000,3.1038378394e+000,3.2261564794e+000,2.5660416166e+000,3.2477772420e+000,2.6279329213e+000,3.3480489413e+000,2.3867000899e+000,3.7149055262e+000,3.0771818850e+000,3.7038983960e+000,
2.2593750000e+001,3.1860508860e+000,3.6607025261e+000,2.6797803532e+000,2.9969898380e+000,3.0710557872e+000,3.1367912972e+000,2.6263922635e+000,3.2200855549e+000,2.6529310608e+000,3.3537802701e+000,2.2813461781e+000,3.6935006259e+000,3.0095386777e+000,3.4677817055e+000,
2.2687500000e+001,3.2754451028e+000,3.7804216384e+000,2.7443987452e+000,3.0432122880e+000,3.1382352036e+000,3.1798919959e+000,2.6698646744e+000,3.2386252499e+000,2.6649985729e+000,3.4264595244e+000,2.2202187870e+000,3.7492079803e+000,3.0078039683e+000,3.4032685075e+000,
2.2781250000e+001,3.3348670896e+000,3.9195621023e+000,2.7903417532e+000,3.1387877210e+000,3.1991531976e+000,3.3217320277e+000,2.7610909291e+000,3.3415380178e+000,2.9456610623e+000,3.5643375891e+000,2.1426216302e+000,3.7899028723e+000,2.9597421963e+000,3.4565473017e+000,
2.2875000000e+001,3.2784704428e+000,3.9261658509e+000,2.8117655926e+000,3.2105525749e+000,3.2157212311e+000,3.3538446202e+000,2.8315910469e+000,3.4185947154e+000,3.0362937699e+000,3.5410559936e+000,2.4112265409e+000,3.6841911798e+000,3.1494081135e+000,3.4710559420e+000,
2.2968750000e+001,3.3196331707e+000,3.9452702777e+000,2.7226505062e+000,3.2895602366e+000,3.2963195658e+000,3.4307103400e+000,2.8856719195e+000,3.4308298215e+000,3.0145102665e+000,3.5437815226e+000,2.4253507382e+000,3.6399506596e+000,3.1265456290e+000,3.4385309915e+000,
2.3062500000e+001,3.3489692430e+000,4.0016600506e+000,2.8023379158e+000,3.4236207134e+000,3.3355561333e+000,3.5398398824e+000,2.9765620281e+000,3.4934921764e+000,2.9657051047e+000,3.5526645227e+000,2.4775747711e+000,3.6807624249e+000,3.1197216970e+000,3.5109009003e+000,
2.3156250000e+001,3.3346247683e+000,3.9021716818e+000,2.7764790684e+000,3.2024495497e+000,3.4159306203e+000,3.5604716998e+000,2.9878365184e+000,3.4393982916e+000,3.0128664485e+000,3.5440008955e+000,2.4940620180e+000,3.6398692970e+000,3.0551544931e+000,3.4561638654e+000,
2.3250000000e+001,3.3750338286e+000,3.9961775204e+000,3.0375075724e+000,3.4320818544e+000,4.0897598478e+000,3.8115185662e+000,3.6214166713e+000,3.5685205197e+000,3.4889658783e+000,3.6862871886e+000,2.6244538515e+000,3.7627352112e+000,3.2714394545e+000,3.5842595115e+000,
2.3343750000e+001,3.4610438797e+000,4.0589288665e+000,3.1861425094e+000,3.5618334913e+000,4.8575366787e+000,3.8979562985e+000,5.1549880361e+000,3.6708848010e+000,3.9747037473e+000,3.7483923574e+000,2.7836522326e+000,3.8769313944e+000,3.4976564855e+000,3.7128527105e+000,
2.3437500000e+001,3.4736427258e+000,4.0827219876e+000,3.3294355431e+000,3.6557137335e+000,4.9503100730e+000,4.0728526863e+000,5.2522327115e+000,3.7447051251e+000,4.2190343088e+000,3.9427707581e+000,2.9604180593e+000,4.1643145739e+000,3.7279714802e+000,3.8982269008e+000,
2.3531250000e+001,3.5835913985e+000,4.1371944696e+000,3.4110355283e+000,3.7565041048e+000,5.0496360200e+000,4.1982273867e+000,5.3209335233e+000,3.9262069676e+000,4.3415600761e+000,4.0144740955e+000,3.0864787004e+000,4.1944889453e+000,3.7613548873e+000,3.9336435932e+000,
2.3625000000e+001,3.6390641064e+000,4.1526275305e+000,3.4748949541e+000,3.7739364046e+000,5.0583161095e+000,4.2320565587e+000,5.3928585910e+000,4.0064041607e+000,4.4158909610e+000,4.0557514798e+000,3.2267307225e+000,4.2208040176e+000,3.7996756035e+000,3.9759037965e+000,
2.3718750000e+001,3.5284981408e+000,4.0662211082e+000,3.4508781203e+000,3.8638740174e+000,5.2150910531e+000,4.2256344217e+000,5.3887112458e+000,4.0119438304e+000,4.3972903371e+000,4.0587391234e+000,3.2628777571e+000,4.1690702722e+000,3.7964941150e+000,3.9369663778e+000,
2.3812500000e+001,3.5842027569e+000,3.9781547333e+000,3.4261154872e+000,3.9531709710e+000,5.3420285659e+000,4.2247071389e+000,5.3857318931e+000,4.0062283138e+000,4.3561256744e+000,4.0632927986e+000,3.2534363103e+000,4.2054738209e+000,3.8028395533e+000,3.9349250106e+000,
2.3906250000e+001,3.6503365709e+000,3.9900677608e+000,3.4631200511e+000,4.0611650111e+000,5.3563387115e+000,4.2775560288e+000,5.3904238845e+000,4.0797061542e+000,4.3460263995e+000,4.1092784927e+000,3.1862619714e+000,4.2439218460e+000,3.7441955493e+000,3.9568788380e+000,
2.4000000000e+001,3.6491291489e+000,3.9803835346e+000,3.4442794327e+000,4.0210456172e+000,5.3621373886e+000,4.2693398143e+000,5.3878480173e+000,4.0775510414e+000,4.3754505437e+000,4.1196071500e+000,3.2311372795e+000,4.2382962784e+000,3.7642062177e+000,3.9179338801e+000,
2.4093750000e+001,3.6872176636e+000,3.9983616601e+000,3.4769445977e+000,4.0977525584e+000,5.3866351546e+000,4.3437662543e+000,5.3939588290e+000,4.1775429477e+000,4.3998931634e+000,4.0858994829e+000,3.2147344255e+000,4.2195721982e+000,3.7593147136e+000,3.8925983953e+000,
2.4187500000e+001,3.6887464776e+000,4.0276803207e+000,3.4950293124e+000,4.1985156470e+000,5.3701399427e+000,4.3655797103e+000,5.3943631723e+000,4.2247104394e+000,4.4095263584e+000,4.1256006629e+000,3.2147189714e+000,4.3095342610e+000,3.7778868717e+000,4.0037109805e+000,
2.4281250000e+001,3.5871244315e+000,3.9366173536e+000,3.2423494695e+000,4.1788978340e+000,4.9785824910e+000,4.2482832232e+000,4.9787368928e+000,4.1665736498e+000,4.1339926501e+000,4.0164017574e+000,3.1464943202e+000,4.2281852037e+000,3.7794116321e+000,3.9067231174e+000,
2.4375000000e+001,3.7889187816e+000,4.3617208638e+000,3.2726599503e+000,4.7025266257e+000,4.6994856385e+000,4.3396693081e+000,3.9603029662e+000,4.3762365885e+000,3.7947414550e+000,3.9833891809e+000,3.0679793484e+000,4.0668864906e+000,3.6806713381e+000,3.8367492444e+000,
2.4468750000e+001,3.7983282450e+000,4.4909043317e+000,3.1933208544e+000,4.8732915367e+000,4.5913439094e+000,4.2380289627e+000,3.6568996863e+000,4.4058734929e+000,3.3993243319e+000,3.8393110497e+000,2.7784492080e+000,3.8654330843e+000,3.4726166926e+000,3.7510853927e+000,
2.4562500000e+001,3.7942195046e+000,4.4984275305e+000,3.0988248305e+000,4.8746843757e+000,4.5082788370e+000,4.1631558074e+000,3.1116038778e+000,4.3698544000e+000,3.1859961104e+000,3.7513353967e+000,2.6541627905e+000,3.8276810018e+000,3.4082618533e+000,3.7856902645e+000,
2.4656250000e+001,3.7532182014e+000,4.5205285612e+000,3.0985080543e+000,4.8897640830e+000,4.4584758690e+000,4.2105925175e+000,2.9936031699e+000,4.3389954433e+000,2.9983301957e+000,3.6937648540e+000,2.4431518721e+000,3.8472084504e+000,3.3545938475e+000,3.7881622005e+000,
2.4750000000e+001,3.8108553860e+000,4.5183213696e+000,3.2053021086e+000,4.8108597361e+000,3.9937033119e+000,4.1686907123e+000,3.0772784918e+000,4.2953038939e+000,3.1182987378e+000,3.5978552949e+000,2.4664594940e+000,3.8236074618e+000,3.3533983591e+000,3.8485809191e+000,
2.4843750000e+001,3.9056541906e+000,4.6143008765e+000,3.3046102353e+000,4.8914968316e+000,3.6698356900e+000,4.2357706164e+000,3.1028178887e+000,4.3851882792e+000,3.1273550524e+000,3.6049665163e+000,2.4446230950e+000,3.8192301472e+000,3.2626359296e+000,3.8426217742e+000,
2.4937500000e+001,3.9317508991e+000,4.6714390535e+000,3.3033359863e+000,4.9216173646e+000,3.6659925039e+000,4.1943237577e+000,3.0195402319e+000,4.3718323568e+000,3.0741248976e+000,3.5253386336e+000,2.4188136990e+000,3.7495784892e+000,3.2350900325e+000,3.7889966798e+000,
2.5031250000e+001,4.0939583106e+000,4.7206348189e+000,3.5067384588e+000,4.9574585854e+000,3.6854277283e+000,4.2344397351e+000,3.0879655188e+000,4.3553931983e+000,3.0633169325e+000,3.5128918783e+000,2.4090405977e+000,3.7133773166e+000,3.2363708382e+000,3.7810752634e+000,
2.5125000000e+001,4.1732660188e+000,4.8158780343e+000,3.5942365912e+000,5.0327480461e+000,3.6095911776e+000,4.2233946814e+000,3.0690969346e+000,4.4122584773e+000,2.9369938886e+000,3.6943646093e+000,2.3847717120e+000,3.8076084406e+000,3.2524453410e+000,3.8285143808e+000,
2.5218750000e+001,4.2129638042e+000,4.8731947436e+000,3.6052219330e+000,5.0657069357e+000,3.7460828682e+000,4.3673228081e+000,3.1284693815e+000,4.4952259906e+000,3.0075262313e+000,3.7720179046e+000,2.4479148642e+000,3.8022458609e+000,3.2666058502e+000,3.7756568580e+000,
2.5312500000e+001,4.2974184956e+000,4.9455718154e+000,3.6576677626e+000,5.0362314017e+000,3.8994256350e+000,4.4331080382e+000,3.1842999545e+000,4.5945284619e+000,2.9760742837e+000,3.8999735727e+000,2.3758532183e+000,3.8149137614e+000,3.0582799917e+000,3.6678410551e+000,
2.5406250000e+001,4.1414635356e+000,4.7492644330e+000,3.5218475227e+000,4.7413233119e+000,3.9092536108e+000,4.2850103689e+000,3.1912796225e+000,4.4266735402e+000,2.9471885144e+000,3.8226596730e+000,2.3269847356e+000,3.7659113263e+000,2.8983995040e+000,3.5125219333e+000,
2.5500000000e+001,4.0986614678e+000,4.6521103815e+000,3.4907959403e+000,4.5424075783e+000,3.8970023521e+000,4.2896609033e+000,3.1510253605e+000,4.3408316521e+000,2.9070283860e+000,3.8401275854e+000,2.2908057333e+000,3.7351001548e+000,2.8580735362e+000,3.4449855259e+000,
2.5593750000e+001,4.1346063166e+000,4.6754882283e+000,3.5418636819e+000,4.5795300973e+000,3.9203683829e+000,4.2704266300e+000,3.2207764923e+000,4.3459354331e+000,2.9438255349e+000,3.9203496180e+000,2.2847636937e+000,3.8142615298e+000,2.8648730465e+000,3.3945185128e+000,
2.5687500000e+001,4.1826590941e+000,4.7049944723e+000,3.5417260603e+000,4.6506514695e+000,3.9766935820e+000,4.2639925819e+000,3.2840357907e+000,4.4173633770e+000,2.9316160756e+000,3.9325545932e+000,2.3438332599e+000,3.8243473391e+000,2.9052095470e+000,3.3967191697e+000,
2.5781250000e+001,4.2223789264e+000,4.7474053691e+000,3.5431861211e+000,4.6741260055e+000,3.9632076285e+000,4.2927419542e+000,3.3372092440e+000,4.4333344655e+000,2.8426241632e+000,3.9944128799e+000,2.4246448762e+000,3.9645537550e+000,2.9931512754e+000,3.2727006222e+000,
2.5875000000e+001,4.1085138112e+000,4.6344631532e+000,3.4165486115e+000,4.5970241897e+000,3.9061370281e+000,4.2340286300e+000,3.2903695319e+000,4.3358487847e+000,2.7166375436e+000,3.9583345379e+000,2.3720829595e+000,3.9554232624e+000,3.0118222770e+000,3.2893329564e+000,
2.5968750000e+001,4.0637291248e+000,4.6396996323e+000,3.3576096823e+000,4.6276274157e+000,3.9003699638e+000,4.2180691414e+000,3.3071129227e+000,4.3565644075e+000,2.7456575804e+000,4.0347375505e+000,2.3358680025e+000,3.9875055906e+000,3.0454733875e+000,3.4181209643e+000,
2.6062500000e+001,3.8303173072e+000,4.5488107862e+000,3.1041588591e+000,4.5686496365e+000,3.7825875033e+000,4.0929898822e+000,3.1548912052e+000,4.3088161341e+000,2.7717789614e+000,3.9827055786e+000,2.3619678859e+000,3.9603392543e+000,3.0714806115e+000,3.3982091738e+000,
2.6156250000e+001,3.6765941683e+000,4.4218100096e+000,2.9708622350e+000,4.4898688407e+000,3.7002583058e+000,4.0684822395e+000,3.1052046060e+000,4.2375433900e+000,2.6818034143e+000,3.9394578919e+000,2.4449789302e+000,3.9143246174e+000,3.0350830880e+000,3.2959061526e+000,
2.6250000000e+001,3.5953827603e+000,4.2980768854e+000,2.9919501080e+000,4.3928939561e+000,3.5428958345e+000,3.9527519053e+000,2.9701358550e+000,4.0687936935e+000,2.4942658394e+000,3.8498325811e+000,2.3258013120e+000,3.8630007007e+000,2.8535279985e+000,3.1752575961e+000,
2.6343750000e+001,3.5128768118e+000,4.1126464717e+000,3.0328966229e+000,4.3380612290e+000,3.3698451203e+000,3.7799763992e+000,2.9311817740e+000,3.8560812731e+000,2.5086324256e+000,3.6232375673e+000,2.4267512173e+000,3.7481074893e+000,2.8860668070e+000,3.1441430245e+000,
2.6437500000e+001,3.5585087349e+000,4.1182380646e+000,3.0216060036e+000,4.3116698573e+000,3.3857960447e+000,3.7941849435e+000,2.9379343620e+000,3.8294259331e+000,2.5385542864e+000,3.6193044981e+000,2.4265161734e+000,3.7574833461e+000,2.8735592520e+000,3.1121591997e+000,
2.6531250000e+001,3.5826133717e+000,4.0815460470e+000,2.9412248102e+000,4.2688575416e+000,3.3801790600e+000,3.8186451259e+000,3.0128348013e+000,3.8198612899e+000,2.5174802015e+000,3.6491533538e+000,2.4233760597e+000,3.7803603395e+000,2.9586163963e+000,3.2569388145e+000,
2.6625000000e+001,3.4607349225e+000,4.1085595459e+000,2.9125846342e+000,4.2389485421e+000,3.2579292151e+000,3.7835826817e+000,2.9096800788e+000,3.7425081485e+000,2.5064793992e+000,3.4895498933e+000,2.4366350139e+000,3.7286615909e+000,2.9690771482e+000,3.2368225481e+000,
2.6718750000e+001,3.3408258204e+000,4.0600049465e+000,2.8102574820e+000,4.2563191942e+000,3.1406407946e+000,3.8415662808e+000,2.7335283746e+000,3.8233881490e+000,2.5064603014e+000,3.5729848476e+000,2.2939502161e+000,3.7659113261e+000,3.0322846971e+000,3.3659824154e+000,
2.6812500000e+001,3.3074429310e+000,4.0708731080e+000,2.7770971048e+000,4.2998847786e+000,3.1426886853e+000,3.9270945297e+000,2.6188997044e+000,4.0287287648e+000,2.4004947516e+000,3.7668423636e+000,2.2187140766e+000,3.8021244846e+000,3.0215941854e+000,3.3607492812e+000,
2.6906250000e+001,3.4069875253e+000,4.1757795312e+000,2.9008597718e+000,4.2472209554e+000,3.2611818948e+000,3.9305686428e+000,2.6324987853e+000,4.0631265055e+000,2.3468114511e+000,3.7800578831e+000,2.2130998368e+000,3.8070337122e+000,3.0601327394e+000,3.3734020055e+000,
2.7000000000e+001,3.5407100944e+000,4.2072106935e+000,3.0298776156e+000,4.2022857884e+000,3.3455759090e+000,4.0499609356e+000,2.7517222898e+000,4.1455068910e+000,2.3947008096e+000,3.9545194604e+000,2.2157628445e+000,4.0243984328e+000,3.0452922130e+000,3.5494692190e+000,
2.7093750000e+001,3.5873070367e+000,4.1657782871e+000,3.1211360344e+000,4.1055395152e+000,3.3890961950e+000,3.9746134777e+000,2.9136564056e+000,4.0723569143e+000,2.4391178224e+000,3.9005385591e+000,2.1042926984e+000,4.0602419611e+000,3.1084582003e+000,3.5888929829e+000,
2.7187500000e+001,3.6933283138e+000,4.1744718848e+000,3.1812835993e+000,4.1536623362e+000,3.5024594470e+000,3.9102597384e+000,3.0098716821e+000,4.0556507447e+000,2.5763568890e+000,3.9146348791e+000,2.0664881659e+000,3.9951713304e+000,3.0702278173e+000,3.6051168267e+000,
2.7281250000e+001,3.6392023980e+000,4.1701799349e+000,3.0771931751e+000,4.1663926247e+000,3.4732842668e+000,3.8480296466e+000,3.0649109261e+000,4.0749965033e+000,2.5367112896e+000,3.9278199948e+000,2.0309723191e+000,4.0047993154e+000,3.0502705697e+000,3.7084442835e+000,
2.7375000000e+001,3.6083018348e+000,4.2052238920e+000,3.0632706884e+000,4.2227374047e+000,3.5277368726e+000,3.8637384389e+000,3.0484333750e+000,4.1418144160e+000,2.4995519036e+000,3.9134644831e+000,1.9791052119e+000,4.0637431434e+000,3.1018087491e+000,3.7863882615e+000,
2.7468750000e+001,3.5698666522e+000,4.2728404218e+000,3.1304094649e+000,4.3494798337e+000,3.5448720666e+000,3.8933164486e+000,3.0248224820e+000,4.2819302386e+000,2.4971276433e+000,3.9335746715e+000,2.0259913699e+000,4.1085681206e+000,3.1285427551e+000,3.8392027564e+000,
2.7562500000e+001,3.5337831976e+000,4.2686190587e+000,3.1071063322e+000,4.4369129131e+000,3.5865441348e+000,3.9147200821e+000,3.0069165333e+000,4.3206697657e+000,2.4584477906e+000,3.9416613306e+000,2.0381582773e+000,4.1409808512e+000,3.1212146152e+000,3.7673316993e+000,
2.7656250000e+001,3.5302909133e+000,4.2261429084e+000,3.0626596119e+000,4.3520244786e+000,3.6294858350e+000,3.8792176597e+000,3.0254142601e+000,4.2872645556e+000,2.3578479991e+000,3.9912693816e+000,2.0265414772e+000,4.1962278184e+000,3.1045691033e+000,3.8171967581e+000,
2.7750000000e+001,3.5945209177e+000,4.2023723865e+000,3.1029420513e+000,4.2732088982e+000,3.5904578828e+000,3.7755582624e+000,3.0690233649e+000,4.0859047616e+000,2.3040324746e+000,3.8411637011e+000,2.0118280205e+000,4.0749249663e+000,3.0264752060e+000,3.7297875977e+000,
2.7843750000e+001,3.5137851430e+000,4.0909132026e+000,3.0148627053e+000,4.2452384764e+000,3.5864090819e+000,3.6960891638e+000,3.0246701773e+000,4.0350326307e+000,2.3403704090e+000,3.7065934671e+000,2.0751367389e+000,3.9723108017e+000,2.8704691105e+000,3.6666152834e+000,
2.7937500000e+001,3.3542376136e+000,4.0115968779e+000,2.9389335495e+000,4.1984821144e+000,3.4359556799e+000,3.6618896625e+000,2.9755369470e+000,3.9178439803e+000,2.2591191549e+000,3.5179799263e+000,2.1424446102e+000,3.9182529587e+000,2.8083114331e+000,3.6323712712e+000,
2.8031250000e+001,3.2894324922e+000,3.9705057692e+000,2.8640468698e+000,4.1633033948e+000,3.5080567860e+000,3.6740017614e+000,2.9095933523e+000,3.8689645156e+000,2.3929022104e+000,3.4917773537e+000,2.2223930490e+000,3.7778701228e+000,2.8832106825e+000,3.5821131041e+000,
2.8125000000e+001,3.3118390818e+000,4.0320602525e+000,2.7767062200e+000,4.1864118927e+000,3.4519751832e+000,3.8497200506e+000,2.8350914742e+000,3.9269439510e+000,2.4278273534e+000,3.6553408081e+000,2.3541022014e+000,3.8551647778e+000,2.8143751835e+000,3.5964243168e+000,
2.8218750000e+001,3.4232530733e+000,4.0053155320e+000,2.7232745117e+000,4.1111128380e+000,3.4568359645e+000,3.8117672896e+000,2.7437428953e+000,3.8228370042e+000,2.5539736501e+000,3.6040764133e+000,2.2989023283e+000,3.8789609886e+000,2.8298893017e+000,3.5792723464e+000,
2.8312500000e+001,3.4099806999e+000,3.9577335560e+000,2.7461478668e+000,4.0723494064e+000,3.5189944851e+000,3.8083420154e+000,2.6778984134e+000,3.7588420381e+000,2.6232636104e+000,3.6618521121e+000,2.3084811757e+000,3.8478496733e+000,2.8485021898e+000,3.5240106422e+000,
2.8406250000e+001,3.3430282322e+000,3.8489995275e+000,2.6550156404e+000,4.0415911151e+000,3.3587913122e+000,3.8003740992e+000,2.5902454825e+000,3.6629025410e+000,2.6132117803e+000,3.6382359293e+000,2.2905163085e+000,3.8372112013e+000,2.8544398957e+000,3.5556997557e+000,
2.8500000000e+001,3.4301020810e+000,3.7106594170e+000,2.8418491486e+000,3.8453969985e+000,3.4377739788e+000,3.6987335637e+000,2.7071505517e+000,3.3140779605e+000,2.7490190411e+000,3.6388773335e+000,2.2744631398e+000,3.8621291250e+000,2.8503768389e+000,3.5166168130e+000,
2.8593750000e+001,3.4884757316e+000,3.6702908363e+000,2.9080943252e+000,3.6618127635e+000,3.4319035583e+000,3.6222748585e+000,2.7812599579e+000,3.2376649515e+000,2.8259062623e+000,3.5320200371e+000,2.2089905627e+000,3.6826905293e+000,2.9963711466e+000,3.4632225938e+000,
2.8687500000e+001,3.3799420874e+000,3.6620085893e+000,2.8894150543e+000,3.6573185330e+000,3.3592470592e+000,3.6308747115e+000,2.7624454303e+000,3.2143741835e+000,2.8509500100e+000,3.4584162481e+000,2.2322198815e+000,3.6013329709e+000,2.9596222211e+000,3.4321768979e+000,
2.8781250000e+001,3.3684674253e+000,3.6640826112e+000,2.8906499183e+000,3.6229713225e+000,3.3368551608e+000,3.6887002144e+000,2.7065857839e+000,3.3119077766e+000,2.8566797956e+000,3.5581788121e+000,2.1766459678e+000,3.6863085852e+000,2.9181161881e+000,3.4593503150e+000,
2.8875000000e+001,3.3325979446e+000,3.7966452356e+000,2.8710760578e+000,3.6077049890e+000,3.3035040897e+000,3.6784422370e+000,2.6933908780e+000,3.3354592133e+000,2.8239921318e+000,3.5712485038e+000,2.0958900570e+000,3.6977268268e+000,2.8980425931e+000,3.4301678085e+000,
2.8968750000e+001,3.3061079437e+000,3.6710405686e+000,2.8267819086e+000,3.5688679469e+000,3.2074246199e+000,3.5785877549e+000,2.6442818312e+000,3.2628499568e+000,2.8234991778e+000,3.4596087160e+000,2.0233892118e+000,3.5774069735e+000,2.8948938279e+000,3.2764059245e+000,
2.9062500000e+001,3.2106627841e+000,3.5852315856e+000,2.7645050735e+000,3.5492999974e+000,3.0552728987e+000,3.3724745610e+000,2.5767951419e+000,3.1964595714e+000,2.7174544284e+000,3.2989103337e+000,1.9989079681e+000,3.5182093181e+000,2.9350261313e+000,3.2468798972e+000,
2.9156250000e+001,3.0069075433e+000,3.5633592690e+000,2.7379024692e+000,3.4065359038e+000,2.9682262886e+000,3.2502634585e+000,2.5584142367e+000,3.1575733856e+000,2.4356832197e+000,3.1788469069e+000,1.8146985938e+000,3.4119834513e+000,2.9261666350e+000,3.2639772151e+000,
2.9250000000e+001,2.9601267995e+000,3.5638545375e+000,2.7617908343e+000,3.4993557667e+000,2.9836800801e+000,3.3384577739e+000,2.5743419618e+000,3.3627735298e+000,2.3683408957e+000,3.2760410670e+000,1.8333030206e+000,3.5540185704e+000,2.9895322989e+000,3.3172349395e+000,
2.9343750000e+001,3.0564026895e+000,3.6609535274e+000,2.8642625638e+000,3.4836265821e+000,2.9640197358e+000,3.4128806913e+000,2.5834948601e+000,3.4889634284e+000,2.2858807928e+000,3.3445558275e+000,1.7896282634e+000,3.6679875938e+000,3.0104213583e+000,3.3749187413e+000,
2.9437500000e+001,2.9813769782e+000,3.5935119063e+000,2.7783815226e+000,3.3860312959e+000,2.8636516776e+000,3.3605770981e+000,2.5576772862e+000,3.4472303691e+000,2.2895578192e+000,3.3412284953e+000,1.8786315874e+000,3.7083839578e+000,3.0872242513e+000,3.3300396787e+000,
2.9531250000e+001,2.9092073988e+000,3.6177783331e+000,2.6566154052e+000,3.3681385723e+000,2.8236992522e+000,3.6234933718e+000,2.2607006232e+000,3.6195290885e+000,2.0803740634e+000,3.3730676963e+000,1.9392771316e+000,3.5327880453e+000,2.9935839709e+000,3.2244203437e+000,
2.9625000000e+001,2.9217916401e+000,3.6231359924e+000,2.6035778885e+000,3.3954517077e+000,2.7941974281e+000,3.7437641312e+000,2.1212816005e+000,3.6568866468e+000,1.8546470777e+000,3.4465244869e+000,2.0604784443e+000,3.5140654765e+000,2.8185322329e+000,3.2403019620e+000,
2.9718750000e+001,2.9407595540e+000,3.5992372404e+000,2.5326980415e+000,3.3927999576e+000,2.9411540031e+000,3.7939140830e+000,2.1283030507e+000,3.7210739950e+000,1.7333774053e+000,3.4690091140e+000,2.2008664657e+000,3.5915671203e+000,3.1180711795e+000,3.3239502790e+000,
2.9812500000e+001,2.9881891223e+000,3.4821184517e+000,2.5583058194e+000,3.4406978683e+000,3.0255951948e+000,3.7844924826e+000,2.2868111797e+000,3.7278674856e+000,1.7911310816e+000,3.4163704703e+000,2.3261675852e+000,3.5870182069e+000,3.4388665400e+000,3.5058489013e+000,
2.9906250000e+001,2.9908520650e+000,3.4119761205e+000,2.5748663306e+000,3.5157912546e+000,3.0522884712e+000,3.8847375586e+000,2.3343461883e+000,3.7651211650e+000,2.0765224068e+000,3.5060733260e+000,2.3684060859e+000,3.6181584264e+000,3.4301885192e+000,3.5710158677e+000,
3.0000000000e+001,3.0821020974e+000,3.5558013785e+000,2.6013232906e+000,3.5042144089e+000,3.0602502363e+000,3.9531766028e+000,2.3638175025e+000,3.8015457549e+000,2.0087751964e+000,3.4755618311e+000,2.3183173382e+000,3.6749633573e+000,3.4255994201e+000,3.5779909516e+000,
3.0093750000e+001,3.1715231662e+000,3.5916351348e+000,2.6831809684e+000,3.5915193945e+000,3.1070355311e+000,3.9498758343e+000,2.3729623114e+000,3.8312107443e+000,2.0685123130e+000,3.4438889074e+000,2.3567552408e+000,3.6702908711e+000,3.4292796477e+000,3.5365951915e+000,
3.0187500000e+001,3.2929379982e+000,3.5948359442e+000,2.7798620490e+000,3.5674975793e+000,3.1210640442e+000,3.9295013355e+000,2.4455587778e+000,3.8026348324e+000,2.1102528154e+000,3.4602866264e+000,2.3773935090e+000,3.6837724158e+000,3.4466539614e+000,3.5071354339e+000,
3.0281250000e+001,3.5640749568e+000,3.6440202251e+000,2.8791147930e+000,3.5413938151e+000,3.5631206019e+000,3.8572138405e+000,2.6882932730e+000,3.6916494738e+000,2.3085393117e+000,3.3437497234e+000,2.5064515997e+000,3.6186799464e+000,3.3933598699e+000,3.4932720237e+000,
3.0375000000e+001,3.5216289005e+000,3.6228938712e+000,2.7285196491e+000,3.4973247244e+000,3.4935665931e+000,3.8966178342e+000,2.7217846401e+000,3.7158871353e+000,2.4928897487e+000,3.4343728992e+000,2.5492505607e+000,3.6378067473e+000,3.3704544706e+000,3.6086159731e+000,
3.0468750000e+001,3.6644025374e+000,3.8512994772e+000,2.8573725474e+000,3.6838148511e+000,3.6236979507e+000,3.8826693990e+000,2.8793021323e+000,3.6771505224e+000,2.5594282081e+000,3.4936332643e+000,2.5685843722e+000,3.6845264091e+000,3.3701996893e+000,3.6981298553e+000,
3.0562500000e+001,3.8857836120e+000,4.1794665677e+000,3.0822210871e+000,3.8685443470e+000,3.7957542807e+000,3.8281104738e+000,3.0373505164e+000,3.6991965974e+000,2.7986120348e+000,3.3735850810e+000,2.5379464426e+000,3.6859307830e+000,3.4284348368e+000,3.7298814883e+000,
3.0656250000e+001,3.8932942538e+000,4.2289632770e+000,3.0832956972e+000,3.9355586459e+000,3.7679357128e+000,3.7767174640e+000,3.0033890835e+000,3.7082225999e+000,2.8985608176e+000,3.4573192149e+000,2.5335268082e+000,3.7490549563e+000,3.4310843022e+000,3.6603287321e+000,
3.0750000000e+001,3.9123748229e+000,4.2353068459e+000,3.0581471724e+000,3.8689685447e+000,3.7270846145e+000,3.6631156277e+000,2.9760804316e+000,3.5663408886e+000,2.9366264355e+000,3.4734212683e+000,2.3979788719e+000,3.6959025156e+000,3.0102888888e+000,3.4304168741e+000,
3.0843750000e+001,3.9335005084e+000,4.2490993090e+000,3.0691658961e+000,3.8668871288e+000,3.6697594216e+000,3.6617870361e+000,2.9386483810e+000,3.5642322972e+000,2.9754356756e+000,3.5017195917e+000,2.3331466254e+000,3.7213221865e+000,2.8838499692e+000,3.4926931905e+000,
3.0937500000e+001,3.9717734505e+000,4.2268445931e+000,3.1226215714e+000,3.7960836139e+000,3.7423170233e+000,3.5673733973e+000,3.0845016980e+000,3.4883101206e+000,2.9132422449e+000,3.4879107722e+000,2.3286818584e+000,3.7143896941e+000,2.9745249668e+000,3.4433593247e+000,
3.1031250000e+001,3.9701825126e+000,4.2370930074e+000,3.1855531095e+000,3.7790271236e+000,3.8233796253e+000,3.4703851071e+000,3.0519068646e+000,3.4316537913e+000,2.9426054336e+000,3.5211611328e+000,2.4721680222e+000,3.7205616358e+000,3.0045421923e+000,3.4684851301e+000,
3.1125000000e+001,3.9550447366e+000,4.2361437518e+000,3.1361921628e+000,3.7998625674e+000,3.7975629875e+000,3.5639928485e+000,3.0108195033e+000,3.4821532454e+000,2.8648826594e+000,3.5394108875e+000,2.4167554136e+000,3.7554111493e+000,3.0433554196e+000,3.4443009864e+000,
3.1218750000e+001,3.8370772959e+000,4.1922396024e+000,3.0662726857e+000,3.7196896513e+000,3.7090177086e+000,3.5232877744e+000,2.9456188394e+000,3.4564869885e+000,2.9620371594e+000,3.5070010467e+000,2.3808116501e+000,3.7408822871e+000,3.0091978011e+000,3.3513369591e+000,
3.1312500000e+001,3.6872772556e+000,4.1922665923e+000,2.9923692765e+000,3.7088718127e+000,3.4077005675e+000,3.5422499612e+000,2.7643225530e+000,3.4633872559e+000,2.9022606003e+000,3.5194794937e+000,2.2755770599e+000,3.7194010577e+000,3.0060645431e+000,3.2852275359e+000,
3.1406250000e+001,3.6982220893e+000,4.2145407356e+000,3.0394439948e+000,3.7295649270e+000,3.4582035615e+000,3.5911869878e+000,2.7867585059e+000,3.4607725146e+000,2.8933930440e+000,3.3871810797e+000,2.1843932084e+000,3.6092716716e+000,2.9104459760e+000,2.9628530223e+000,
3.1500000000e+001,3.4014014907e+000,3.9508384602e+000,2.8720662272e+000,3.5754906968e+000,3.1532090423e+000,3.4179246411e+000,2.5339334553e+000,3.4371849983e+000,2.8593223364e+000,3.3476050731e+000,2.1880245090e+000,3.5425400303e+000,2.8318916856e+000,2.8517713750e+000,
3.1593750000e+001,3.2427739379e+000,3.6228728218e+000,2.8639598379e+000,3.4329902542e+000,3.0287417176e+000,3.3191338597e+000,2.5630014208e+000,3.2501476693e+000,2.6875938097e+000,3.4050075758e+000,2.2823869535e+000,3.5938122878e+000,2.8287961293e+000,2.9397160907e+000,
3.1687500000e+001,3.3131242506e+000,3.6633937347e+000,2.9894590072e+000,3.3967965488e+000,3.0694611506e+000,3.2799532095e+000,2.6671413733e+000,3.2051805210e+000,2.7059339076e+000,3.3843069897e+000,2.1818610549e+000,3.5387233098e+000,2.9443369910e+000,3.1237499953e+000,
3.1781250000e+001,3.2432457572e+000,3.6335106698e+000,3.0003171906e+000,3.3850945588e+000,3.0234046580e+000,3.2633544610e+000,2.6874439028e+000,3.0971458980e+000,2.7091796768e+000,3.3348893189e+000,2.1868738318e+000,3.6080439588e+000,2.9148580361e+000,3.1470686640e+000,
3.1875000000e+001,3.1951552374e+000,3.6526208549e+000,2.9491160336e+000,3.4140567520e+000,3.1312274187e+000,3.3697249199e+000,2.6023187738e+000,3.2614471644e+000,2.6223887624e+000,3.5391886482e+000,2.2369986306e+000,3.7882595648e+000,2.9355221903e+000,3.1970038121e+000,
3.1968750000e+001,3.0798071104e+000,3.5778069994e+000,2.8088515735e+000,3.4546681419e+000,3.0094834221e+000,3.3798500950e+000,2.4641924386e+000,3.4081100526e+000,2.6544948739e+000,3.5658915209e+000,2.2316718700e+000,3.8290154577e+000,2.8696899883e+000,3.2376721283e+000,
3.2062500000e+001,3.0598070766e+000,3.4209700201e+000,2.8422281878e+000,3.2948724947e+000,2.9770731729e+000,3.4192304559e+000,2.4853479180e+000,3.3042298153e+000,2.6713922775e+000,3.5293416895e+000,2.1503695595e+000,3.7909115606e+000,2.8824092512e+000,3.2992400469e+000,
3.2156250000e+001,3.0462667845e+000,3.4757120989e+000,2.8236203266e+000,3.3305202736e+000,2.9909574569e+000,3.3461925498e+000,2.5012667052e+000,3.2381234228e+000,2.6619564156e+000,3.5094075804e+000,2.0971128171e+000,3.7323989333e+000,2.8977249336e+000,3.3015924341e+000,
3.2250000000e+001,3.1070846422e+000,3.4068970970e+000,2.8035971722e+000,3.2941606818e+000,3.0582638115e+000,3.3439092925e+000,2.5201234611e+000,3.2038412766e+000,2.5448497981e+000,3.4941613630e+000,2.0824178319e+000,3.6558474696e+000,3.0297557325e+000,3.2787900204e+000,
3.2343750000e+001,3.0344960376e+000,3.2886280344e+000,2.7405730824e+000,3.1307387719e+000,2.9655434816e+000,3.2219862032e+000,2.4769532923e+000,3.0860170515e+000,2.4157739481e+000,3.5025171416e+000,2.0566412441e+000,3.6676726817e+000,3.0514197679e+000,3.3414573687e+000,
3.2437500000e+001,2.9556210513e+000,3.3436872542e+000,2.7730709731e+000,3.0613496838e+000,2.9468774435e+000,3.2114113130e+000,2.4494077645e+000,3.0436614144e+000,2.2551665250e+000,3.5030551912e+000,2.1369890274e+000,3.6364244115e+000,3.0804377619e+000,3.3735098258e+000,
3.2531250000e+001,3.1676373334e+000,3.5335327293e+000,2.7791039726e+000,3.1286851086e+000,3.0997822804e+000,3.3327307602e+000,2.4435171155e+000,3.1312369381e+000,2.3146708020e+000,3.4452281970e+000,2.0461572413e+000,3.6334202319e+000,3.2002115235e+000,3.4254534943e+000,
3.2625000000e+001,3.2216533431e+000,3.5721183239e+000,2.7033806533e+000,3.0790838500e+000,3.1351336965e+000,3.3324940932e+000,2.4197406381e+000,3.2050385341e+000,2.3333612264e+000,3.4150727066e+000,2.0505943524e+000,3.5899608461e+000,3.2678860379e+000,3.5032827557e+000,
3.2718750000e+001,3.1628178242e+000,3.5635911150e+000,2.5649269639e+000,3.1150614385e+000,3.1743022864e+000,3.4524034001e+000,2.4466055064e+000,3.4221318234e+000,2.3259698186e+000,3.5072118363e+000,2.2034085858e+000,3.5498425054e+000,3.2352067271e+000,3.4917954634e+000,
3.2812500000e+001,3.1920378752e+000,3.5710648986e+000,2.6045780508e+000,3.0832070925e+000,3.1596779363e+000,3.3874985755e+000,2.5049422319e+000,3.4021860162e+000,2.4745350458e+000,3.4270743024e+000,2.2324491047e+000,3.3808677803e+000,3.2498736226e+000,3.3918669157e+000,
3.2906250000e+001,3.2609023999e+000,3.5328524334e+000,2.7067671341e+000,3.0869073304e+000,3.0971600323e+000,3.3570504300e+000,2.6549772541e+000,3.3920376641e+000,2.4436947942e+000,3.1372332756e+000,2.3385417195e+000,3.2069984975e+000,3.3967003900e+000,3.4767990101e+000,
3.3000000000e+001,3.3682317425e+000,3.6825548720e+000,2.7048517791e+000,3.1991155573e+000,3.1252544415e+000,3.3215467066e+000,2.7322622998e+000,3.3544437375e+000,2.3415077977e+000,3.0654010102e+000,2.3504412015e+000,3.2323590806e+000,3.5509839628e+000,3.5464307416e+000,
3.3093750000e+001,3.4428290122e+000,3.7243428766e+000,2.7520162848e+000,3.2978116869e+000,3.2067746299e+000,3.3600139635e+000,2.8119291520e+000,3.4168563876e+000,2.2962502799e+000,3.1193539609e+000,2.4110977840e+000,3.1446850902e+000,3.5121903879e+000,3.5210480620e+000,
3.3187500000e+001,3.5471661019e+000,3.7367280102e+000,2.8114660329e+000,3.2809598436e+000,3.2852639263e+000,3.4201350026e+000,2.8981226483e+000,3.5063293841e+000,2.2188813403e+000,3.1822639305e+000,2.4052838335e+000,3.2112023877e+000,3.5132274042e+000,3.5602133979e+000,
3.3281250000e+001,3.5731623655e+000,3.8226344055e+000,2.8920295629e+000,3.4652087092e+000,3.3158982333e+000,3.5168972673e+000,2.9584715681e+000,3.6296701070e+000,2.3623683335e+000,3.3386760735e+000,2.4965229749e+000,3.3772174867e+000,3.5212232671e+000,3.6288536403e+000,
3.3375000000e+001,3.5740629653e+000,3.7931725349e+000,2.8437082659e+000,3.4794915881e+000,3.3973082201e+000,3.4363719129e+000,2.9849541998e+000,3.6547400637e+000,2.4367729097e+000,3.2774349799e+000,2.4708014948e+000,3.4667990686e+000,3.5489759273e+000,3.6586494282e+000,
3.3468750000e+001,3.5349908712e+000,3.7848936096e+000,2.7454767931e+000,3.4801955731e+000,3.3670055842e+000,3.4287066604e+000,2.9763024528e+000,3.6725422845e+000,2.4741640532e+000,3.3713311241e+000,2.4417815658e+000,3.5560350378e+000,3.5429205662e+000,3.7499616063e+000,
3.3562500000e+001,3.3527241552e+000,3.6849544914e+000,2.6469494199e+000,3.3989287747e+000,3.1824744818e+000,3.3552952305e+000,2.9352522173e+000,3.7215671955e+000,2.3612286279e+000,3.4061345728e+000,2.4975606300e+000,3.6798834712e+000,3.4799631378e+000,3.8543991836e+000,
3.3656250000e+001,3.3423249271e+000,3.6621798437e+000,2.6556991894e+000,3.3740874551e+000,3.1716126399e+000,3.3129868910e+000,2.9041976055e+000,3.6200212962e+000,2.3800560257e+000,3.2700371303e+000,2.4879557819e+000,3.7217215800e+000,3.5555741340e+000,3.7971465240e+000,
3.3750000000e+001,3.4444355368e+000,3.7071858017e+000,2.7344648476e+000,3.4513805140e+000,3.2063184062e+000,3.3601407989e+000,2.9355572726e+000,3.6546436599e+000,2.2034209917e+000,3.3001637797e+000,2.4428697914e+000,3.7510648217e+000,3.5645180483e+000,3.8362027155e+000,
3.3843750000e+001,3.4146687201e+000,3.7433681740e+000,2.7304292747e+000,3.5086682706e+000,3.2489458901e+000,3.3535951707e+000,2.9841409064e+000,3.6367018042e+000,2.1534917599e+000,3.3236244534e+000,2.4690600309e+000,3.8450276416e+000,3.5758220297e+000,3.8550000111e+000,
3.3937500000e+001,3.3298851033e+000,3.7199155958e+000,2.6462157519e+000,3.4492912839e+000,3.1587688972e+000,3.2892376090e+000,2.8687834362e+000,3.5646393471e+000,2.1623562134e+000,3.3116889023e+000,2.4276084457e+000,3.7723549030e+000,3.4036908620e+000,3.7722949044e+000,
3.4031250000e+001,3.1739372017e+000,3.5915379582e+000,2.5998764681e+000,3.3806610271e+000,3.1599749705e+000,3.1655232004e+000,2.7909677251e+000,3.5076685819e+000,2.1947704822e+000,3.3046503976e+000,2.2800272134e+000,3.7914586702e+000,3.2796961071e+000,3.7617497921e+000,
3.4125000000e+001,3.1191641561e+000,3.6815586632e+000,2.6544734540e+000,3.4242785291e+000,3.3506882847e+000,3.1596812831e+000,2.8646616261e+000,3.4816946415e+000,2.2316285687e+000,3.3239194689e+000,2.2073985431e+000,3.7991277283e+000,3.2711150984e+000,3.7751879541e+000,
3.4218750000e+001,3.0167504826e+000,3.7078293001e+000,2.5570931693e+000,3.5050487106e+000,3.2404865098e+000,3.0891718706e+000,2.7765437448e+000,3.4297310203e+000,2.2606694370e+000,3.3011330023e+000,2.1992048742e+000,3.8562526245e+000,3.2233378529e+000,3.8089929986e+000,
3.4312500000e+001,3.1059008203e+000,3.6612541757e+000,2.6592468045e+000,3.3998405960e+000,3.2193087289e+000,3.0850061922e+000,2.7505983655e+000,3.3520802475e+000,2.1609793648e+000,3.1939526029e+000,2.0817860498e+000,3.8579452472e+000,3.3686551087e+000,3.8317334023e+000,
3.4406250000e+001,3.0858388725e+000,3.7042077402e+000,2.6801856159e+000,3.4972667908e+000,3.1276661117e+000,3.1848875081e+000,2.6987812715e+000,3.3407582120e+000,2.1134170700e+000,3.1878415719e+000,2.0834841149e+000,3.8055225413e+000,3.4067256216e+000,3.8483358809e+000,
3.4500000000e+001,3.0951259031e+000,3.6165426037e+000,2.7503625200e+000,3.5756270728e+000,3.1298386763e+000,3.1747189507e+000,2.6291184828e+000,3.1625288586e+000,2.0570463572e+000,3.1946170871e+000,2.0280585288e+000,3.7337198353e+000,3.4222624209e+000,3.6253727185e+000,
3.4593750000e+001,3.1720099071e+000,3.6000863483e+000,2.7649993897e+000,3.6192680119e+000,3.2428229356e+000,3.2161909829e+000,2.7968832364e+000,3.0592976963e+000,2.1199966487e+000,3.2284740039e+000,2.0540254281e+000,3.7842843224e+000,3.3832798461e+000,3.7058050103e+000,
3.4687500000e+001,3.1860076949e+000,3.5431611388e+000,2.7244144924e+000,3.6172929942e+000,3.2817880643e+000,3.2673539122e+000,2.8280226732e+000,3.0550546766e+000,2.1092056090e+000,3.2141744773e+000,2.1033037386e+000,3.7402792366e+000,3.3389162665e+000,3.6458427014e+000,
3.4781250000e+001,3.2202741528e+000,3.5312084818e+000,2.7011414575e+000,3.6020866757e+000,3.3332087230e+000,3.1718810525e+000,2.7722170950e+000,2.8752069292e+000,2.0658042913e+000,3.3028288145e+000,2.0044109742e+000,3.7153305109e+000,3.3883040803e+000,3.5920847544e+000,
3.4875000000e+001,3.1938984535e+000,3.4852869134e+000,2.6548713879e+000,3.5480950101e+000,3.3162685273e+000,3.1605484084e+000,2.7860559672e+000,2.8831525234e+000,2.1642925147e+000,3.3192935228e+000,1.9656745839e+000,3.7319748248e+000,3.3464262977e+000,3.5812534962e+000,
3.4968750000e+001,3.2611750337e+000,3.4857600105e+000,2.6713379539e+000,3.6728908288e+000,3.3454354246e+000,3.2529822033e+000,2.8755542635e+000,3.0644487997e+000,2.2215019321e+000,3.3949353431e+000,1.9723275999e+000,3.8055388110e+000,3.3142058297e+000,3.6129736238e+000,
3.5062500000e+001,3.2619975277e+000,3.4078439822e+000,2.6147123541e+000,3.6149392481e+000,3.3113318575e+000,3.3136532295e+000,2.8837330115e+000,3.1210200114e+000,2.2474709797e+000,3.4067963188e+000,2.0508509388e+000,3.7962554676e+000,3.3224375072e+000,3.5746872878e+000,
3.5156250000e+001,3.2548261106e+000,3.4169731054e+000,2.6859811817e+000,3.5981663720e+000,3.1306218108e+000,3.4237967889e+000,2.8291169012e+000,3.2148348364e+000,2.3986275542e+000,3.4855289270e+000,2.1684677279e+000,3.8801521356e+000,3.3099984972e+000,3.5418249243e+000,
3.5250000000e+001,3.2269541210e+000,3.3664039957e+000,2.7074018941e+000,3.5505383220e+000,3.1061683846e+000,3.4395291957e+000,2.8513923238e+000,3.1657816534e+000,2.3611542437e+000,3.4892581251e+000,2.1605179329e+000,3.7418960360e+000,3.1957856654e+000,3.4800319653e+000,
3.5343750000e+001,3.1216593667e+000,3.3317264016e+000,2.5740848057e+000,3.5607503642e+000,3.2699357169e+000,3.4962609193e+000,2.8793932246e+000,3.2441940891e+000,2.4717921003e+000,3.5047564052e+000,2.2174045552e+000,3.6809269553e+000,2.9829596139e+000,3.3144433896e+000,
3.5437500000e+001,3.1527263722e+000,3.2695072126e+000,2.6801941288e+000,3.5089514937e+000,3.3661426405e+000,3.4132382081e+000,2.9364266702e+000,3.2471056628e+000,2.4923903095e+000,3.4677958477e+000,2.3003478154e+000,3.6982046821e+000,3.0033708847e+000,3.3015872204e+000,
3.5531250000e+001,3.1109083537e+000,3.2695035573e+000,2.6425496001e+000,3.3767426518e+000,3.4765861703e+000,3.4427044340e+000,2.9696809364e+000,3.2847216371e+000,2.5204252563e+000,3.3970409134e+000,2.4407829318e+000,3.6501023212e+000,2.8459725717e+000,3.2179120572e+000,
3.5625000000e+001,3.0570793807e+000,3.2950592146e+000,2.7403719655e+000,3.3948340033e+000,3.4109187921e+000,3.5424540903e+000,2.9071501183e+000,3.4285149781e+000,2.4890336444e+000,3.4352519444e+000,2.4548483986e+000,3.6596191106e+000,2.8809760362e+000,3.3057886340e+000,
3.5718750000e+001,2.9408817316e+000,3.2283756349e+000,2.7522606742e+000,3.3444186812e+000,3.3900548264e+000,3.5352640333e+000,2.7895739321e+000,3.4672135648e+000,2.4963371397e+000,3.5380470088e+000,2.4225966550e+000,3.8689251192e+000,2.9165334044e+000,3.4752752035e+000,
3.5812500000e+001,2.8495083822e+000,3.1407912699e+000,2.7073064571e+000,3.3255426842e+000,3.3775204930e+000,3.4759351495e+000,2.7670096703e+000,3.4421521882e+000,2.4710706118e+000,3.4855353025e+000,2.4207509570e+000,3.8275243996e+000,2.8115300744e+000,3.5674815267e+000,
3.5906250000e+001,2.9669257681e+000,3.2665539793e+000,2.7309469723e+000,3.2900390673e+000,3.3663269598e+000,3.4998396544e+000,2.6966642819e+000,3.3829094355e+000,2.3791949713e+000,3.5206324277e+000,2.4916397840e+000,3.7950474870e+000,2.9914206759e+000,3.5919121477e+000,
3.6000000000e+001,3.0931312394e+000,3.4780760290e+000,2.7247545047e+000,3.3138452138e+000,3.3106241588e+000,3.6800908437e+000,2.6622365123e+000,3.4242673429e+000,2.4667304216e+000,3.6683712374e+000,2.5548910113e+000,3.8738151274e+000,2.9532106072e+000,3.6650997501e+000,
3.6093750000e+001,3.1087131933e+000,3.4191852233e+000,2.6969918751e+000,3.2227116650e+000,3.3146221130e+000,3.6122907699e+000,2.6372711857e+000,3.3232352025e+000,2.4270134990e+000,3.6452663298e+000,2.5441752068e+000,3.7794677081e+000,2.9621312490e+000,3.6637884781e+000,
3.6187500000e+001,3.1968703906e+000,3.4136055244e+000,2.6346673292e+000,3.2539254787e+000,3.2825800825e+000,3.5615628120e+000,2.5973635305e+000,3.2772729908e+000,2.4599163550e+000,3.6048580825e+000,2.7182221686e+000,3.7269392724e+000,3.0857672966e+000,3.7234062464e+000,
3.6281250000e+001,3.2785800373e+000,3.3832167151e+000,2.7038024008e+000,3.2511503216e+000,3.2926991326e+000,3.4759255887e+000,2.5808498031e+000,3.2688486765e+000,2.4447712728e+000,3.5652374223e+000,2.6842773413e+000,3.7146225946e+000,3.1161983260e+000,3.7217214787e+000,
3.6375000000e+001,3.4482408769e+000,3.5454715178e+000,2.5591380314e+000,3.6273637003e+000,3.3430731987e+000,3.5307806322e+000,2.7115776235e+000,3.3861202802e+000,2.4100952145e+000,3.5498837644e+000,2.7777440590e+000,3.7265932302e+000,3.2372593297e+000,3.7462568335e+000,
3.6468750000e+001,3.4288551994e+000,3.5531946963e+000,2.4807795602e+000,3.6569045993e+000,3.2623616615e+000,3.5626507765e+000,2.6815581545e+000,3.3774750467e+000,2.4434092956e+000,3.6323584891e+000,2.7260515198e+000,3.7989203723e+000,3.1701477134e+000,3.7706848489e+000,
3.6562500000e+001,3.3678298197e+000,3.4885945349e+000,2.3604627704e+000,3.6284926319e+000,3.0784788213e+000,3.5132586095e+000,2.5525922289e+000,3.3682026965e+000,2.4169979169e+000,3.6325793473e+000,2.7218434323e+000,3.7861109051e+000,3.2169426002e+000,3.7812699423e+000,
3.6656250000e+001,3.3211504531e+000,3.5731112306e+000,2.2244178938e+000,3.6608648574e+000,3.0470262779e+000,3.4392311953e+000,2.5501471016e+000,3.2619288611e+000,2.4694627882e+000,3.5341300804e+000,2.7342807127e+000,3.6024219917e+000,3.2212019272e+000,3.7282989852e+000,
3.6750000000e+001,3.3803123405e+000,3.6243189099e+000,2.3732636506e+000,3.6557246787e+000,2.9819306268e+000,3.4079518489e+000,2.6005663943e+000,3.2442299986e+000,2.4742909529e+000,3.5208035295e+000,2.7202892306e+000,3.5626867689e+000,3.1827216888e+000,3.6798476835e+000,
3.6843750000e+001,3.4094306728e+000,3.6269739736e+000,2.4882582804e+000,3.6108400614e+000,2.9847054022e+000,3.4138001024e+000,2.5641621823e+000,3.1678957035e+000,2.4763283607e+000,3.5315681389e+000,2.6561004579e+000,3.5757382890e+000,3.1594301344e+000,3.6260583413e+000,
3.6937500000e+001,3.3835762357e+000,3.4293161357e+000,2.5584136398e+000,3.5685769413e+000,2.9612558470e+000,3.2985117508e+000,2.5690984948e+000,3.1909734950e+000,2.5492172405e+000,3.3910605490e+000,2.5939354380e+000,3.4125002507e+000,3.0562834776e+000,3.4723010945e+000,
3.7031250000e+001,3.2793321155e+000,3.2361675251e+000,2.5264130699e+000,3.5322860951e+000,2.8772861750e+000,3.0287831290e+000,2.4271241445e+000,3.0981354908e+000,2.4482807493e+000,3.2858134866e+000,2.5325433808e+000,3.3253084266e+000,2.9905920571e+000,3.4250215611e+000,
3.7125000000e+001,3.2571946299e+000,3.2301324626e+000,2.5244544858e+000,3.5772253441e+000,2.8386300609e+000,3.1886550538e+000,2.4059365028e+000,3.1539848032e+000,2.3257775592e+000,3.2821785775e+000,2.3962268875e+000,3.4232359927e+000,2.9199612887e+000,3.4238905103e+000,
3.7218750000e+001,3.3498850174e+000,3.4922099255e+000,2.6655333867e+000,4.1340558726e+000,2.9037220330e+000,3.2690556468e+000,2.5090649422e+000,3.4198051816e+000,2.3157687796e+000,3.3712452929e+000,2.3112662256e+000,3.5464228851e+000,2.8913354631e+000,3.4262190052e+000,
3.7312500000e+001,3.3678712691e+000,3.5812204327e+000,2.7367909187e+000,4.1921722060e+000,2.7987962476e+000,3.4539080231e+000,2.4970976045e+000,3.5711079892e+000,2.3108688139e+000,3.3927750430e+000,2.2820089039e+000,3.5773573817e+000,2.9685458624e+000,3.5172945857e+000,
3.7406250000e+001,3.1677785770e+000,3.4038192163e+000,2.7395946782e+000,4.0298463884e+000,2.4809095709e+000,3.3168311526e+000,2.1601786541e+000,3.3924029900e+000,2.3702114507e+000,3.3331809842e+000,2.0700043091e+000,3.4632656538e+000,2.8409591969e+000,3.4851361761e+000,
3.7500000000e+001,3.3239374869e+000,3.6639327244e+000,2.8479475341e+000,4.0837657751e+000,2.7760422286e+000,3.5102485924e+000,2.2134400388e+000,3.5501189962e+000,2.5647187121e+000,3.5071983982e+000,1.9209368780e+000,3.5389069154e+000,2.9182824340e+000,3.4634266000e+000,
3.7593750000e+001,3.3852940876e+000,3.7077572462e+000,2.8491950277e+000,4.1078514151e+000,2.8032795602e+000,3.6407935435e+000,2.2626374160e+000,3.6710544296e+000,2.6020215483e+000,3.5074642840e+000,1.8964287574e+000,3.6301543282e+000,2.9183833932e+000,3.4912015257e+000,
3.7687500000e+001,3.4871916421e+000,3.8851532120e+000,3.0275364139e+000,4.1712987329e+000,2.9585383749e+000,3.8294747277e+000,2.3620911248e+000,3.8317668062e+000,2.4990797061e+000,3.4642554186e+000,1.7286350718e+000,3.5371469730e+000,2.8091079904e+000,3.2793008337e+000,
3.7781250000e+001,3.4379544905e+000,3.8803725554e+000,2.9713924256e+000,4.1961008604e+000,2.9443373394e+000,3.8355611637e+000,2.3177481052e+000,3.8587064052e+000,2.4350043575e+000,3.4868366040e+000,1.6623193921e+000,3.5465192362e+000,2.8337132354e+000,3.2576107445e+000,
3.7875000000e+001,3.3643225606e+000,3.8893801363e+000,2.8530749418e+000,4.1951541616e+000,2.9235258052e+000,3.8603742291e+000,2.2656906895e+000,3.8718851535e+000,2.3868358593e+000,3.5875542501e+000,1.7798852195e+000,3.7253479419e+000,2.9461403889e+000,3.5676533018e+000,
3.7968750000e+001,3.3212502187e+000,3.9557952764e+000,2.8498697807e+000,4.2131235357e+000,2.9290010623e+000,3.9288861582e+000,2.3266256643e+000,3.8807077847e+000,2.4624928582e+000,3.6667129702e+000,1.8637000241e+000,3.8452302533e+000,2.9558705132e+000,3.7150825357e+000,
3.8062500000e+001,3.3051715739e+000,3.9681615568e+000,2.8864842276e+000,4.1888151533e+000,2.8913221252e+000,3.9271614023e+000,2.3528587695e+000,3.8819412533e+000,2.4560695039e+000,3.6414895769e+000,1.8069573368e+000,3.8074075590e+000,2.9620949770e+000,3.7190340837e+000,
3.8156250000e+001,3.2882896876e+000,3.9414831357e+000,2.9326495655e+000,4.1635069381e+000,2.8899165490e+000,3.8646986088e+000,2.2939041729e+000,3.8224641587e+000,2.4669675357e+000,3.6424588689e+000,1.7285823474e+000,3.8225362148e+000,2.9346730562e+000,3.7956642962e+000,
3.8250000000e+001,3.1329563938e+000,3.8018105958e+000,2.7663216549e+000,3.6086977910e+000,2.9472017475e+000,3.7283743668e+000,2.2327420047e+000,3.5807356518e+000,2.4376544858e+000,3.6190614466e+000,1.7399445472e+000,3.7541830410e+000,2.9838112705e+000,3.7361293666e+000,
3.8343750000e+001,3.1340647154e+000,3.7855630449e+000,2.7672629246e+000,3.5158606685e+000,3.0184803376e+000,3.6772577259e+000,2.2914286608e+000,3.4857222740e+000,2.3585179767e+000,3.6530015051e+000,1.8870416640e+000,3.7678198411e+000,2.9079689552e+000,3.7193187458e+000,
3.8437500000e+001,3.0681044862e+000,3.7245966840e+000,2.7719503251e+000,3.5222561161e+000,3.0230133665e+000,3.6589331390e+000,2.2742183344e+000,3.5140107782e+000,2.3607323912e+000,3.6222479621e+000,1.9683710889e+000,3.7356710289e+000,2.8474657069e+000,3.6715329257e+000,
3.8531250000e+001,2.9977642167e+000,3.6455150345e+000,2.6703053447e+000,3.5535238852e+000,2.9104039447e+000,3.4839155551e+000,2.2630789311e+000,3.4019355305e+000,2.2109780546e+000,3.4726923583e+000,1.9461215037e+000,3.6738294451e+000,2.8269985297e+000,3.6420877533e+000,
3.8625000000e+001,2.9391542553e+000,3.5473191508e+000,2.6768984137e+000,3.4834141945e+000,2.8599459236e+000,3.2409602320e+000,2.2750270943e+000,3.1910737999e+000,2.2010723004e+000,3.4577505400e+000,2.0018062283e+000,3.6266173115e+000,2.8439453142e+000,3.6827019054e+000,
3.8718750000e+001,2.9542063829e+000,3.4646391415e+000,2.4244253271e+000,3.4045011227e+000,2.7100804096e+000,3.1154361821e+000,2.2602416494e+000,3.0813461659e+000,2.2142042805e+000,3.4515341668e+000,2.1245481249e+000,3.6341651934e+000,2.9034644416e+000,3.6994105209e+000,
3.8812500000e+001,2.9458371390e+000,3.5348430321e+000,2.4529283939e+000,3.4168721170e+000,2.7279063997e+000,3.1906422172e+000,2.2758070018e+000,3.1528175105e+000,2.2493166919e+000,3.4729155086e+000,2.2092291279e+000,3.6526539511e+000,2.9820156927e+000,3.7586766697e+000,
3.8906250000e+001,3.0098795340e+000,3.5910763807e+000,2.4513904867e+000,3.4075702511e+000,2.6860633169e+000,3.1747154018e+000,2.2664812658e+000,3.1759431204e+000,2.1555527598e+000,3.5620467624e+000,2.2035623196e+000,3.6512408086e+000,2.8810816457e+000,3.6894296675e+000,
3.9000000000e+001,3.0534120931e+000,3.7257510236e+000,2.4941571552e+000,3.5483046246e+000,2.6575585029e+000,3.0587038259e+000,2.2727756804e+000,3.1863761708e+000,2.1731507093e+000,3.4909049825e+000,2.1615800787e+000,3.5964858165e+000,2.9712709278e+000,3.5862327757e+000,
3.9093750000e+001,3.0950600898e+000,3.7264094832e+000,2.4567458726e+000,3.6544234827e+000,2.6685396648e+000,3.0604286132e+000,2.3123432110e+000,3.2256972989e+000,2.1578173248e+000,3.4943412969e+000,2.1826015436e+000,3.6247549838e+000,3.0561283136e+000,3.6456790723e+000,
3.9187500000e+001,3.0207580390e+000,3.6953426905e+000,2.4425795030e+000,3.6270551964e+000,2.6510036616e+000,3.0585790441e+000,2.3894940125e+000,3.2347358241e+000,2.1270252129e+000,3.4306761369e+000,2.2049996901e+000,3.5826550638e+000,3.1121929150e+000,3.5635280216e+000,
3.9281250000e+001,2.9916340157e+000,3.6853133515e+000,2.6243041132e+000,3.6465257371e+000,2.6087833744e+000,3.1893912707e+000,2.4871476131e+000,3.1998070811e+000,2.2655841507e+000,3.4810033514e+000,2.1720519090e+000,3.4960280063e+000,3.1682485503e+000,3.5076041797e+000,
3.9375000000e+001,3.1510105916e+000,3.7290937626e+000,2.6586304724e+000,3.6071958238e+000,2.5674769184e+000,3.1759491158e+000,2.5504664780e+000,3.2148014690e+000,2.2236111211e+000,3.4653782769e+000,2.0427276343e+000,3.4766587392e+000,3.1964502338e+000,3.5052980614e+000,
3.9468750000e+001,3.1823003988e+000,3.7268167645e+000,2.7259444001e+000,3.6235829926e+000,2.5971617102e+000,3.2426076120e+000,2.5935452026e+000,3.2938298191e+000,2.3430731614e+000,3.5221278605e+000,2.0999524760e+000,3.5948935146e+000,3.2898662496e+000,3.5738315847e+000,
3.9562500000e+001,3.1862464749e+000,3.6459375193e+000,2.7470499005e+000,3.5078691491e+000,2.6033287946e+000,3.2355334177e+000,2.5842742595e+000,3.3156649472e+000,2.1862274847e+000,3.4890200660e+000,2.0725842420e+000,3.6826016637e+000,3.2857107268e+000,3.6035545068e+000,
3.9656250000e+001,3.1710050221e+000,3.5838117674e+000,2.8542186456e+000,3.4979866474e+000,2.6029029466e+000,3.1308099095e+000,2.5662248105e+000,3.1960181137e+000,2.1764624027e+000,3.4778209733e+000,2.0487914277e+000,3.6636388791e+000,3.2702709563e+000,3.5428636804e+000,
3.9750000000e+001,3.2157508303e+000,3.5584283957e+000,2.9148084934e+000,3.5464363398e+000,2.6116927983e+000,3.0633590313e+000,2.4836459628e+000,3.1829158830e+000,2.2162093001e+000,3.4439137981e+000,1.9746556408e+000,3.6687092553e+000,3.2564394496e+000,3.5809472622e+000,
3.9843750000e+001,3.3123215323e+000,3.6185836526e+000,2.9305254054e+000,3.4638015104e+000,2.6704763434e+000,3.0621191121e+000,2.5878890299e+000,3.2050367891e+000,2.3525578638e+000,3.4663262784e+000,2.1207880736e+000,4.2867831098e+000,3.5266894728e+000,3.7568665693e+000,
3.9937500000e+001,3.3929988660e+000,3.7160365437e+000,3.0060142142e+000,3.5767832911e+000,2.8296168378e+000,3.1669718585e+000,2.6824146254e+000,3.1733219728e+000,2.4378635252e+000,3.3422282770e+000,2.1445297122e+000,4.2524760537e+000,3.5803512883e+000,3.8908294432e+000,
4.0031250000e+001,3.4816052643e+000,3.7050117969e+000,3.0746637628e+000,3.3309107743e+000,2.9623554858e+000,3.1578395123e+000,2.7548234165e+000,3.1818405488e+000,2.5787910818e+000,3.2770160040e+000,2.1890667445e+000,4.2266227755e+000,3.6472315527e+000,3.8629746402e+000,
4.0125000000e+001,3.6531144285e+000,3.8159212902e+000,3.2421479707e+000,3.4381841927e+000,3.0705539510e+000,3.2379069412e+000,2.8744536161e+000,3.2586762392e+000,2.6905935078e+000,3.2893415301e+000,2.1481413103e+000,4.2206658442e+000,3.6226278234e+000,3.8146573806e+000,
4.0218750000e+001,3.6987172353e+000,3.8459991655e+000,3.2343474524e+000,3.4205857354e+000,3.0487779551e+000,3.2239418822e+000,2.7450485142e+000,3.2582895228e+000,2.6420715657e+000,3.2577400322e+000,2.1303961726e+000,4.2577980496e+000,3.5547487575e+000,3.8576403511e+000,
4.0312500000e+001,3.6132283550e+000,3.8205059127e+000,3.1504413134e+000,3.4037924431e+000,2.9271768360e+000,3.0932693322e+000,2.6296763423e+000,3.2691690278e+000,2.5717943769e+000,3.1115028842e+000,2.1550231719e+000,4.2681786242e+000,3.5329213875e+000,3.8632329221e+000,
4.0406250000e+001,3.5127884677e+000,3.7653237767e+000,3.1294845296e+000,3.4269527947e+000,2.9564030998e+000,3.1020941817e+000,2.5251899292e+000,3.2254712705e+000,2.5509272787e+000,3.1457694000e+000,2.1189781737e+000,4.2943827937e+000,3.4883106759e+000,3.8575855521e+000,
4.0500000000e+001,3.4726697689e+000,3.7532723832e+000,3.0785950052e+000,3.3475600365e+000,2.9231750070e+000,3.0837223547e+000,2.5731242731e+000,3.0461005412e+000,2.4782533243e+000,3.1322848586e+000,2.0906712520e+000,4.2607961443e+000,3.4065667013e+000,3.8329731582e+000,
4.0593750000e+001,3.4956899982e+000,3.8121115567e+000,3.0366065227e+000,3.4039213001e+000,2.9813288741e+000,3.2019560192e+000,2.6191222957e+000,3.1287148459e+000,2.5443897959e+000,3.1560069280e+000,2.1741872003e+000,4.2216477604e+000,3.5752170429e+000,3.8586757538e+000,
4.0687500000e+001,3.4905884578e+000,3.7761768033e+000,2.9728668738e+000,3.3057766251e+000,3.0987527522e+000,3.2033538857e+000,2.5933646055e+000,3.0778358709e+000,2.6331168649e+000,3.2293991320e+000,2.2634867694e+000,4.2595466607e+000,3.5774333982e+000,3.8514666565e+000,
4.0781250000e+001,3.4210560767e+000,3.7072319993e+000,2.8561816235e+000,3.2384506393e+000,3.0911866095e+000,3.3523096476e+000,2.5726949199e+000,3.1472431365e+000,2.5610950255e+000,3.3833581020e+000,2.2320839868e+000,4.2876463305e+000,3.6495714740e+000,4.0411944372e+000,
4.0875000000e+001,3.3182392318e+000,3.6913742119e+000,2.8787466592e+000,3.3263435200e+000,3.0742872076e+000,3.3555772967e+000,2.5298239806e+000,3.1478202501e+000,2.4638770186e+000,3.3571255786e+000,2.0248378070e+000,3.7884978749e+000,3.4877187055e+000,3.8598392529e+000,
4.0968750000e+001,3.2087601148e+000,3.4929066300e+000,2.8235270746e+000,3.2050057018e+000,2.9457047047e+000,3.4141906884e+000,2.5187871100e+000,3.2005499169e+000,2.4238451713e+000,3.3744617191e+000,2.1987336749e+000,3.7529663452e+000,3.4344802780e+000,3.6831970183e+000,
4.1062500000e+001,3.1198369730e+000,3.5101440009e+000,2.6581175672e+000,3.2005500042e+000,2.8615881161e+000,3.4648044375e+000,2.3531917966e+000,3.1552255792e+000,2.2391996510e+000,3.3816453575e+000,2.1957295534e+000,3.7641639483e+000,3.3903791474e+000,3.6510741055e+000,
4.1156250000e+001,2.7174861169e+000,3.3949788316e+000,2.3375050243e+000,3.1468182112e+000,2.6790424648e+000,3.4599834338e+000,2.1113253574e+000,3.1102570897e+000,2.0969012854e+000,3.3725165763e+000,2.1626114337e+000,3.7236706147e+000,3.4027593171e+000,3.6619225633e+000,
