Time (s),AF3,AF4,F3,F4,F7,F8,FC5,FC6,T7,T8,P7,P8,O1,O2,Sampling Rate
0.0000000000e+000,2.4271114303e+000,2.4706436584e+000,2.4563287104e+000,2.3208047302e+000,2.8723142042e+000,3.3914754362e+000,2.1674105282e+000,3.7916194213e+000,2.2523355429e+000,2.4140938367e+000,2.4505160472e+000,2.7532741223e-001,2.7606875343e+000,3.0215302592e+000,1
9.3750000000e-002,2.3028652768e+000,2.4766988624e+000,2.4379949919e+000,2.1125121267e+000,2.7780797518e+000,3.3444318087e+000,2.1006574413e+000,3.8105891700e+000,2.2235904089e+000,2.4262616494e+000,2.5075611398e+000,2.7239434977e-001,2.7340905655e+000,3.0623672702e+000,
1.8750000000e-001,2.2984248749e+000,2.5766821714e+000,2.2591110510e+000,2.1829356457e+000,2.7526335689e+000,3.4722887018e+000,2.1318622746e+000,3.7787787733e+000,2.1792597428e+000,2.5645877186e+000,2.5153100989e+000,2.2170757762e-001,2.7339000662e+000,2.9809149894e+000,
2.8125000000e-001,2.3625660326e+000,2.6219456377e+000,2.3002241656e+000,2.2970790073e+000,2.7791609199e+000,3.5293813630e+000,2.1272893814e+000,3.8330100816e+000,2.0793309831e+000,2.4315784345e+000,2.3749215439e+000,1.9542657623e-001,2.7181805393e+000,2.9089441291e+000,
3.7500000000e-001,2.4023486944e+000,2.6762908729e+000,2.3297553891e+000,2.3142210013e+000,2.7826622862e+000,3.5847543033e+000,2.0445530585e+000,3.7974935088e+000,1.9371113349e+000,2.4263162566e+000,2.4636695349e+000,1.8580289924e-001,2.7745382648e+000,2.9331890532e+000,
4.6875000000e-001,2.4195567690e+000,2.6273200409e+000,2.3627116222e+000,2.3536961326e+000,2.7162008079e+000,3.5967638532e+000,2.0889331261e+000,3.8219141298e+000,1.9320255955e+000,2.3622269876e+000,2.5048759840e+000,2.1688653597e-001,2.8177041713e+000,2.9011329391e+000,
5.6250000000e-001,2.6304638577e+000,2.7539394162e+000,2.3942636222e+000,2.4792878699e+000,2.7270762350e+000,3.4438859243e+000,2.2911696343e+000,3.9602366825e+000,1.9170145899e+000,2.3534961049e+000,2.4471188247e+000,1.9564988665e-001,2.7956726404e+000,2.8052633956e+000,
6.5625000000e-001,2.7826950926e+000,2.8827811171e+000,2.4276038619e+000,2.6621577129e+000,2.7451668490e+000,3.5594930050e+000,2.3185081966e+000,3.9047830789e+000,1.9582658633e+000,2.4695555472e+000,2.4692268794e+000,1.6005935281e-001,2.7119707233e+000,2.7824827683e+000,
7.5000000000e-001,2.7755576693e+000,2.8836346294e+000,2.3233884520e+000,2.6697040314e+000,2.6623714518e+000,3.5823551304e+000,2.2849246903e+000,3.8725002993e+000,2.0418847130e+000,2.5371734848e+000,2.4923350153e+000,1.5502075994e-001,2.6032203782e+000,2.8890501535e+000,
8.4375000000e-001,2.7385681217e+000,2.9510291982e+000,2.3081221694e+000,2.6659747168e+000,2.5867630000e+000,3.5770032750e+000,2.2891478298e+000,3.8932042170e+000,2.0581880123e+000,2.5820392130e+000,2.5277447795e+000,1.8426571239e-001,2.3984807282e+000,2.7504682453e+000,
9.3750000000e-001,2.7883555480e+000,3.0938654935e+000,2.4149834220e+000,2.7599085737e+000,2.6997212777e+000,3.6635068749e+000,2.3474396892e+000,3.8181115578e+000,2.0687726534e+000,2.7207302556e+000,2.5462089006e+000,1.9171164885e-001,2.4124787642e+000,2.8276910077e+000,
1.0312500000e+000,2.8047395840e+000,3.1748421683e+000,2.4698771816e+000,2.8087842372e+000,2.6882643940e+000,3.8003768013e+000,2.3006741717e+000,3.7852836457e+000,2.0477548692e+000,2.7673085395e+000,2.5542184865e+000,2.5990152027e-001,2.3928370586e+000,2.9314976683e+000,
1.1250000000e+000,2.8187533314e+000,3.1529039419e+000,2.4195389195e+000,2.8278577182e+000,2.6613474241e+000,3.8597352739e+000,2.3188309169e+000,3.7780984563e+000,1.9728104645e+000,2.7410648096e+000,2.5004744757e+000,2.9033616983e-001,2.3608518244e+000,2.9364100222e+000,
1.2187500000e+000,3.3066177399e+000,3.4553448394e+000,3.0695606117e+000,3.2882787992e+000,3.1011498233e+000,4.0056095021e+000,2.9538578959e+000,3.8740283253e+000,2.4617879661e+000,3.2456651602e+000,2.9757661574e+000,6.2050017857e-001,2.8800081834e+000,3.3618166149e+000,
1.3125000000e+000,3.5093798025e+000,3.5719457915e+000,3.2514579699e+000,3.4378877720e+000,3.3489923068e+000,4.0699681315e+000,3.1759281949e+000,3.8295773091e+000,2.7577979147e+000,3.4958920273e+000,3.1289445608e+000,8.4201580424e-001,2.9206261091e+000,3.3731288063e+000,
1.4062500000e+000,3.6097562745e+000,3.6410690239e+000,3.3568634466e+000,3.5282281361e+000,3.4554073053e+000,4.1519700097e+000,3.2811500082e+000,3.7910762387e+000,2.8227113010e+000,3.5474474857e+000,3.1426955075e+000,9.0148718562e-001,2.9241342067e+000,3.4547866554e+000,
1.5000000000e+000,3.6039141214e+000,3.6311081039e+000,3.3582955103e+000,3.5334682268e+000,3.4748167351e+000,4.1910252656e+000,3.2700499705e+000,3.8683567916e+000,2.8431056445e+000,3.5807568900e+000,3.1879479290e+000,1.0885322373e+000,2.8931934714e+000,3.4625465195e+000,
1.5937500000e+000,3.5537963932e+000,3.5410948087e+000,3.3153508965e+000,3.4934723111e+000,3.4572725717e+000,4.2166216547e+000,3.2200185675e+000,3.6842285068e+000,2.8410494068e+000,3.5591162048e+000,3.1781137991e+000,1.1142159829e+000,2.9112880242e+000,3.4829209741e+000,
1.6875000000e+000,3.4919332664e+000,3.5351358924e+000,3.3016670491e+000,3.4373111276e+000,3.4246689125e+000,4.1241434052e+000,3.2066559913e+000,3.6946564949e+000,2.8522296055e+000,3.5355955329e+000,3.2470859620e+000,1.1150308960e+000,2.8958204074e+000,3.5398256952e+000,
1.7812500000e+000,3.5086690959e+000,3.4831502084e+000,3.3129671789e+000,3.4601941980e+000,3.4167546756e+000,4.0889707846e+000,3.2018296065e+000,3.7679803273e+000,2.8020900591e+000,3.5041901579e+000,3.2672018147e+000,1.1074047754e+000,2.9059179701e+000,3.5905951613e+000,
1.8750000000e+000,3.5063107995e+000,3.4494386001e+000,3.3454676072e+000,3.4922455457e+000,3.4167054515e+000,4.1446433226e+000,3.1880169913e+000,3.7542570046e+000,2.8059994899e+000,3.4793457031e+000,3.2696659917e+000,1.1113033906e+000,2.9207265628e+000,3.5667137251e+000,
1.9687500000e+000,3.4718332864e+000,3.3622289782e+000,3.3228963301e+000,3.4625859172e+000,3.3916680827e+000,4.2576269830e+000,3.2158420105e+000,3.7900386944e+000,2.8059025163e+000,3.4353128800e+000,3.2876141676e+000,1.1116258045e+000,2.9693671631e+000,3.5703888806e+000,
2.0625000000e+000,3.4883738814e+000,3.3033765596e+000,3.3238941933e+000,3.4442875602e+000,3.3617558264e+000,4.1761404208e+000,3.2271382368e+000,3.7865791946e+000,2.8169890030e+000,3.4287744399e+000,3.2824654679e+000,1.1110064365e+000,2.9445015558e+000,3.4774498121e+000,
2.1562500000e+000,3.3437762802e+000,3.2376650880e+000,3.1966389402e+000,3.3650879486e+000,3.3022459759e+000,4.1696948523e+000,3.1153707014e+000,3.8244866984e+000,2.8325789777e+000,3.3681812828e+000,3.2066833083e+000,1.0513922277e+000,2.9760075089e+000,3.4184055114e+000,
2.2500000000e+000,2.9002844550e+000,2.8162228773e+000,2.7595428806e+000,2.9518979943e+000,2.9573565514e+000,3.9419620890e+000,2.6901252329e+000,3.7451527755e+000,2.4503763020e+000,2.9481673625e+000,2.8124923432e+000,9.1759757558e-001,2.6053168165e+000,3.2760622602e+000,
2.3437500000e+000,2.6876829618e+000,2.6828619923e+000,2.5588522190e+000,2.8005712365e+000,2.8491947936e+000,3.9718546805e+000,2.3684038937e+000,3.7005925323e+000,2.3812280478e+000,2.8271358936e+000,2.7620748880e+000,6.8273644003e-001,2.6194330831e+000,3.2872777650e+000,
2.4375000000e+000,2.5548114948e+000,2.7573006820e+000,2.4013635923e+000,2.7793668733e+000,2.7930246259e+000,3.8616528084e+000,2.3721817745e+000,3.7913330488e+000,2.4297324598e+000,2.8802055843e+000,2.6634953587e+000,6.9165137536e-001,2.5975385721e+000,3.2017864480e+000,
2.5312500000e+000,2.5858492676e+000,2.7140586052e+000,2.3533579152e+000,2.7200693668e+000,2.7783725700e+000,3.8801888972e+000,2.3850450365e+000,3.7216012606e+000,2.3870914140e+000,2.7886417489e+000,2.5276460943e+000,3.6931242962e-001,2.4978483706e+000,3.1959121942e+000,
2.6250000000e+000,2.5563019054e+000,2.6574118354e+000,2.4150741795e+000,2.7155987712e+000,2.7383037595e+000,3.8845585791e+000,2.4183567653e+000,3.7185242409e+000,2.4778400994e+000,2.8511770362e+000,2.5413089441e+000,3.3366848799e-001,2.5789111419e+000,3.1883654280e+000,
2.7187500000e+000,2.5525743001e+000,2.6701132274e+000,2.3610154908e+000,2.6922151663e+000,2.7447109335e+000,3.8997817155e+000,2.4072454943e+000,3.7750066657e+000,2.4814512859e+000,2.8023997964e+000,2.3966810349e+000,3.5266224700e-001,2.6402037918e+000,3.0523827446e+000,
2.8125000000e+000,2.5288430687e+000,2.6894842176e+000,2.3879193038e+000,2.6933334332e+000,2.7430063096e+000,3.8998117342e+000,2.4316762292e+000,3.7801313097e+000,2.4734619336e+000,2.8108510010e+000,2.2971309778e+000,3.6042829679e-001,2.6656868877e+000,3.1043215699e+000,
2.9062500000e+000,2.5847346927e+000,2.6400289205e+000,2.2770323793e+000,2.5539162602e+000,2.7512741713e+000,3.6599000842e+000,2.4541554113e+000,3.7638696271e+000,2.4511304911e+000,2.8837675758e+000,2.2727384763e+000,3.2999602919e-001,2.6827206502e+000,3.1178610033e+000,
3.0000000000e+000,2.5862796950e+000,2.6193636028e+000,2.2604116424e+000,2.5729487474e+000,2.8686889360e+000,3.5048138152e+000,2.3975000598e+000,3.7989761329e+000,2.4711641314e+000,2.8773935151e+000,2.2986192236e+000,2.9999240072e-001,2.6041656362e+000,3.0886025031e+000,
3.0937500000e+000,2.5631840902e+000,2.5695305698e+000,2.2832573162e+000,2.6163315490e+000,2.8742789232e+000,3.5029063185e+000,2.4017703987e+000,3.7942435015e+000,2.5015363391e+000,2.8126187227e+000,2.3884261261e+000,2.5971904550e-001,2.6012810136e+000,3.0910158762e+000,
3.1875000000e+000,2.9436848638e+000,2.7358867130e+000,2.6617475476e+000,2.8339337834e+000,2.9951957005e+000,3.5181503210e+000,2.6251749297e+000,3.9019827769e+000,2.5455325145e+000,2.7953153590e+000,2.5297658545e+000,2.5127732080e-001,2.5871841149e+000,2.8628455334e+000,
3.2812500000e+000,2.9285870239e+000,2.7020386483e+000,2.6202788492e+000,2.8043629775e+000,2.8660487787e+000,3.5544300578e+000,2.5779893193e+000,3.8859487397e+000,2.4337043447e+000,2.8388124529e+000,2.4687601238e+000,2.5970756296e-001,2.6010700725e+000,2.8390397111e+000,
3.3750000000e+000,2.8871152980e+000,2.6027357910e+000,2.6188678902e+000,2.6695939885e+000,2.8091075158e+000,3.3068181645e+000,2.5445384453e+000,3.8307905168e+000,2.4462052688e+000,2.7572284909e+000,2.4623436669e+000,1.8196933858e-001,2.6911569369e+000,2.9099343171e+000,
3.4687500000e+000,2.8962631950e+000,2.5674893792e+000,2.6395737933e+000,2.7779199465e+000,2.7657592781e+000,3.4124760437e+000,2.4661499669e+000,3.8110215347e+000,2.3950044686e+000,2.7463451767e+000,2.4625298694e+000,1.8847063447e-001,2.7187759520e+000,2.9912922201e+000,
3.5625000000e+000,2.8481622082e+000,2.5218156850e+000,2.6087472431e+000,2.8198579997e+000,2.7609509198e+000,3.3108170478e+000,2.3702556685e+000,3.7698651423e+000,2.3560549116e+000,2.7054098373e+000,2.4222995978e+000,1.6964611844e-001,2.7606862662e+000,2.9712921365e+000,
3.6562500000e+000,2.8717829727e+000,2.4802988850e+000,2.6004507004e+000,2.8012014942e+000,2.7468842507e+000,3.2925953849e+000,2.4232781192e+000,3.7456507023e+000,2.3365634009e+000,2.6830084076e+000,2.4572849966e+000,1.9221622937e-001,2.7793407510e+000,2.9833062695e+000,
3.7500000000e+000,2.8993327788e+000,2.4778004942e+000,2.5702298701e+000,2.8545469187e+000,2.7525333334e+000,3.3937552107e+000,2.4689271101e+000,3.7990003192e+000,2.3119404894e+000,2.7312431372e+000,2.4684132666e+000,2.5376640088e-001,2.8640861522e+000,2.9626376486e+000,
3.8437500000e+000,2.9308520932e+000,2.5036643366e+000,2.5833375079e+000,2.8257638221e+000,2.6967416806e+000,3.4489729126e+000,2.4084763531e+000,3.7244961662e+000,2.3579297605e+000,2.7954904301e+000,2.5216613475e+000,2.5418383001e-001,2.8237226226e+000,2.9718488465e+000,
3.9375000000e+000,2.9154032477e+000,2.5943312675e+000,2.6783459182e+000,2.8960272938e+000,2.6763337576e+000,3.4479254421e+000,2.4132329512e+000,3.7007644333e+000,2.3409407211e+000,2.7396189671e+000,2.5597314531e+000,3.0240947893e-001,2.8476885761e+000,3.0630988418e+000,
4.0312500000e+000,2.9615123176e+000,2.6937535050e+000,2.7354492014e+000,2.9176032289e+000,2.6275746535e+000,3.4499964264e+000,2.5357060001e+000,3.6983442127e+000,2.4371564685e+000,2.9152460016e+000,2.6206666848e+000,2.8593231434e-001,2.9146132218e+000,3.1585816607e+000,
4.1250000000e+000,2.9925454373e+000,2.8505789079e+000,2.8151972152e+000,3.0385889377e+000,2.6846267635e+000,3.5625599176e+000,2.6045337447e+000,3.6151991285e+000,2.3572862706e+000,3.0032782553e+000,2.4629763374e+000,2.8530169383e-001,2.8336451825e+000,3.1859166561e+000,
4.2187500000e+000,2.7674326530e+000,2.7507248598e+000,2.6185154766e+000,2.9195333780e+000,2.6282971177e+000,3.3718664137e+000,2.4780965740e+000,3.7297212213e+000,2.2805586460e+000,2.9231543802e+000,2.4766079533e+000,3.4065587984e-001,2.7941348860e+000,3.1435252040e+000,
4.3125000000e+000,2.6868261180e+000,2.7657828228e+000,2.6624143853e+000,2.9362117460e+000,2.6191067003e+000,3.3570335397e+000,2.4430081594e+000,3.7141011800e+000,2.2767389664e+000,2.8324329732e+000,2.5100398098e+000,3.8546050902e-001,2.7796095139e+000,3.1348812292e+000,
4.4062500000e+000,2.9506118338e+000,3.0557570881e+000,2.7119773579e+000,3.0053731981e+000,2.7035623667e+000,3.3820445188e+000,2.5742210634e+000,3.7366025916e+000,2.2967648969e+000,3.0603573760e+000,2.5246509722e+000,3.9623817266e-001,2.7284466858e+000,3.1412026377e+000,
4.5000000000e+000,3.0175800031e+000,3.1950202875e+000,2.7760920475e+000,3.0158876240e+000,2.6736448309e+000,3.2971000241e+000,2.6137236522e+000,3.7979183189e+000,2.3481957618e+000,3.1224322052e+000,2.5113051352e+000,3.7504308930e-001,2.7043309014e+000,3.1324941864e+000,
4.5937500000e+000,3.0739558476e+000,3.2648544264e+000,2.8352176102e+000,2.9771007879e+000,2.7488180668e+000,3.3667933217e+000,2.6339077768e+000,3.7549658330e+000,2.3569336852e+000,3.1370269132e+000,2.5016032942e+000,4.1207317521e-001,2.6356246742e+000,3.1507419567e+000,
4.6875000000e+000,3.0847550777e+000,3.2498638200e+000,2.8367985015e+000,2.9547435238e+000,2.7348653817e+000,3.3546997897e+000,2.6406410055e+000,3.8570017440e+000,2.3140640090e+000,3.1721551906e+000,2.4671036672e+000,3.5514057065e-001,2.5894071253e+000,3.1211499192e+000,
4.7812500000e+000,3.0467988762e+000,3.2618221711e+000,2.8519980739e+000,2.9265191498e+000,2.7062690332e+000,3.3015137944e+000,2.6641035711e+000,3.7926189851e+000,2.2954286458e+000,3.1950198760e+000,2.4336597102e+000,3.2478874764e-001,2.4663407243e+000,2.9437546357e+000,
4.8750000000e+000,3.0245696308e+000,3.2745455554e+000,2.8835539758e+000,2.9464404058e+000,2.7236641921e+000,3.2585159772e+000,2.6579159991e+000,3.7298765959e+000,2.2796866659e+000,3.2210183750e+000,2.4290512899e+000,3.1966975231e-001,2.5047286924e+000,2.9470413182e+000,
4.9687500000e+000,2.9891940889e+000,3.2837091368e+000,2.8380872074e+000,2.9043797744e+000,2.7888007780e+000,3.2641973121e+000,2.6155322517e+000,3.7811295935e+000,2.2571984735e+000,3.1613068111e+000,2.3928735714e+000,2.8345869088e-001,2.5096374166e+000,2.7444087039e+000,
5.0625000000e+000,2.8478499027e+000,3.2184763580e+000,2.7107548534e+000,2.7897308504e+000,2.7229790135e+000,3.2131687580e+000,2.4765477998e+000,3.7454541788e+000,2.1530845454e+000,3.1163252914e+000,2.3353738243e+000,2.7829022418e-001,2.5304613185e+000,2.8492753588e+000,
5.1562500000e+000,2.8180689799e+000,3.1153994588e+000,2.5741004033e+000,2.5927874568e+000,2.5618077387e+000,3.0401578926e+000,2.5406001294e+000,3.5608109212e+000,2.3289731533e+000,3.0882002141e+000,2.3560446686e+000,2.5837413040e-001,2.5991874650e+000,2.9829440403e+000,
5.2500000000e+000,2.8888551482e+000,3.1961070480e+000,2.6181599816e+000,2.6459306837e+000,2.6641164423e+000,3.1282497922e+000,2.5563392130e+000,3.5742716282e+000,2.3004414661e+000,3.0887924948e+000,2.3184421280e+000,2.1089565634e-001,2.6041871650e+000,2.9372758580e+000,
5.3437500000e+000,2.9839145687e+000,3.2396040832e+000,2.6448493960e+000,2.6450337520e+000,2.7978122743e+000,3.3072213768e+000,2.6051758431e+000,3.5140593047e+000,2.3069471395e+000,3.1268148621e+000,2.2796680985e+000,2.0555952468e-001,2.5053353211e+000,2.8805521553e+000,
5.4375000000e+000,2.6757415311e+000,2.9456932225e+000,2.5621503274e+000,2.6195472474e+000,2.6876996925e+000,3.2080724067e+000,2.4735426817e+000,3.4806645429e+000,2.1932956872e+000,2.9545164011e+000,2.2687541475e+000,2.1751071334e-001,2.5222807900e+000,2.9122657004e+000,
5.5312500000e+000,2.5443796214e+000,2.8109206207e+000,2.5142798092e+000,2.5253670810e+000,2.7059596817e+000,3.1099467723e+000,2.3837888408e+000,3.4024567700e+000,2.1837902506e+000,2.8891374280e+000,2.2335876781e+000,2.6675773396e-001,2.5741108215e+000,2.8978425647e+000,
5.6250000000e+000,2.4745268947e+000,2.9069935118e+000,2.5121502944e+000,2.6264900866e+000,2.7017462512e+000,3.0880262974e+000,2.4691279881e+000,3.2590784431e+000,2.2560585593e+000,2.9567067854e+000,2.2977090805e+000,2.8805730739e-001,2.6381051582e+000,2.9836323445e+000,
5.7187500000e+000,2.6170010664e+000,2.9763280387e+000,2.5541683427e+000,2.6822078807e+000,2.8112206677e+000,3.0100670875e+000,2.4497367468e+000,3.3336994588e+000,2.2880308232e+000,2.8709151654e+000,2.2987204540e+000,2.7835997876e-001,2.5890450835e+000,3.1356267569e+000,
5.8125000000e+000,2.7466937388e+000,2.9551888448e+000,2.5183216797e+000,2.7299509114e+000,2.9287745607e+000,3.0890226831e+000,2.4480777915e+000,3.4356220844e+000,2.2925475684e+000,2.8328634628e+000,2.3385917066e+000,3.0426775406e-001,2.5480980228e+000,3.2020677014e+000,
5.9062500000e+000,2.7580727166e+000,2.9898726503e+000,2.5665050563e+000,2.7158525772e+000,2.9428624077e+000,3.0637648861e+000,2.4940532634e+000,3.4494865942e+000,2.2607009570e+000,2.7337670763e+000,2.2858262862e+000,3.1337874601e-001,2.4267313196e+000,3.1633960526e+000,
6.0000000000e+000,2.8130266445e+000,2.9747380802e+000,2.5894706902e+000,2.7934745776e+000,2.9547970083e+000,3.0049036355e+000,2.4924648742e+000,3.4421025551e+000,2.3011932720e+000,2.7403768059e+000,2.2213178553e+000,3.1491209149e-001,2.3375320918e+000,3.1181169278e+000,
6.0937500000e+000,2.8705805830e+000,3.0698958856e+000,2.6068992940e+000,2.7827430126e+000,2.9671047533e+000,3.0570246916e+000,2.4310654074e+000,3.4268374769e+000,2.2843744059e+000,2.7996733986e+000,2.1681351884e+000,3.2883225828e-001,2.3568343604e+000,3.0162746302e+000,
6.1875000000e+000,2.8747155685e+000,3.1478360279e+000,2.5518828437e+000,2.7484845222e+000,2.9599062932e+000,3.1508360728e+000,2.2803638435e+000,3.4390002486e+000,2.2230771809e+000,2.9898402118e+000,2.2387418466e+000,3.0691118442e-001,2.4445013437e+000,3.0539655328e+000,
6.2812500000e+000,2.8705214773e+000,3.2011975200e+000,2.5077389327e+000,2.7848614685e+000,2.8981467847e+000,3.1107187198e+000,2.2499745860e+000,3.5144643125e+000,2.2027826133e+000,3.0366225140e+000,2.2348999930e+000,2.7091311363e-001,2.5053896680e+000,3.1001270871e+000,
6.3750000000e+000,2.8731971623e+000,3.2199048605e+000,2.6155276097e+000,2.8505127482e+000,2.8185690244e+000,3.0337862648e+000,2.2097262585e+000,3.5327958232e+000,2.2091492517e+000,3.1104626888e+000,2.2446037204e+000,2.8359777287e-001,2.5560626838e+000,3.1098840108e+000,
6.4687500000e+000,2.9007842745e+000,3.2654020175e+000,2.6909444783e+000,2.8320610478e+000,2.8821826203e+000,3.2248915127e+000,2.3557015309e+000,3.6028187072e+000,2.2979760027e+000,3.1031805736e+000,2.2318003051e+000,2.9750888036e-001,2.5653750389e+000,3.0563546969e+000,
6.5625000000e+000,2.9399350844e+000,3.2078577620e+000,2.6824393019e+000,2.9268471012e+000,2.9398493053e+000,3.2786527306e+000,2.3434052854e+000,3.5886092538e+000,2.2322916722e+000,3.0638874507e+000,2.3150337484e+000,2.7564939006e-001,2.4747866854e+000,2.9921232723e+000,
6.6562500000e+000,2.9556990643e+000,3.2928336348e+000,2.7149719809e+000,2.8345399985e+000,2.8847278669e+000,3.2466720031e+000,2.3804411378e+000,3.6575504647e+000,2.2087731904e+000,3.0540644236e+000,2.3218017542e+000,3.4706473187e-001,2.4261536793e+000,2.8320104199e+000,
6.7500000000e+000,2.8570655820e+000,3.2795281026e+000,2.7528985725e+000,2.7925098813e+000,2.7725081128e+000,3.2256423762e+000,2.3425333878e+000,3.6462562161e+000,2.1971205703e+000,3.0346642870e+000,2.2831497428e+000,3.5910682404e-001,2.4325972146e+000,2.7666682198e+000,
6.8437500000e+000,2.8990260744e+000,3.3154916642e+000,2.7856491180e+000,2.8727115541e+000,2.6253627247e+000,3.2376266071e+000,2.3755643067e+000,3.6014686169e+000,2.2319479305e+000,3.1081114216e+000,2.2143952617e+000,3.2011751125e-001,2.5061411113e+000,2.7346254887e+000,
6.9375000000e+000,3.0235396995e+000,3.3073131237e+000,2.7905835790e+000,2.9350341815e+000,2.6536614423e+000,3.3034674440e+000,2.3927403592e+000,3.7435214836e+000,2.2814816069e+000,3.1604268044e+000,2.2229939358e+000,3.1360843194e-001,2.5871794007e+000,2.8142517007e+000,
7.0312500000e+000,3.0822990752e+000,3.2932562185e+000,2.8641019049e+000,2.9741996706e+000,2.6089168030e+000,3.3247862625e+000,2.4990062195e+000,3.6994310464e+000,2.2919454502e+000,3.1857270411e+000,2.3054011910e+000,3.1850748440e-001,2.6050217021e+000,2.8850735048e+000,
7.1250000000e+000,3.2015944897e+000,3.3132118264e+000,2.9559345778e+000,3.1196493533e+000,2.6343149941e+000,3.3454052611e+000,2.7039614776e+000,3.7441275993e+000,2.3780009809e+000,3.1483854808e+000,2.3184794294e+000,3.0406378047e-001,2.5396491042e+000,2.8038178628e+000,
7.2187500000e+000,3.1824257096e+000,3.2239979769e+000,2.9327440324e+000,3.1107612786e+000,2.6330818862e+000,3.2874811052e+000,2.7423200196e+000,3.7541812024e+000,2.3955262273e+000,3.0278851207e+000,2.3176341588e+000,2.9792284648e-001,2.5650451070e+000,2.7723066096e+000,
7.3125000000e+000,3.2224265137e+000,3.1494112630e+000,2.9857852685e+000,3.1634177776e+000,2.7246876833e+000,3.2811404668e+000,2.7398576668e+000,3.6596550960e+000,2.4483398127e+000,2.9235247796e+000,2.2785192058e+000,2.9722738762e-001,2.5616438062e+000,2.7111743231e+000,
7.4062500000e+000,3.2711437219e+000,3.1754889790e+000,3.0164955385e+000,3.1666574402e+000,2.7362434332e+000,3.4010938790e+000,2.7931007505e+000,3.6335724124e+000,2.5444064417e+000,2.9654425035e+000,2.4869084148e+000,2.7761279766e-001,2.6982305543e+000,2.7920503583e+000,
7.5000000000e+000,3.2330190469e+000,3.1544591700e+000,2.9692836615e+000,3.1179226616e+000,2.6140356454e+000,3.2701959269e+000,2.7208297140e+000,3.6145938400e+000,2.5805118783e+000,2.9417017885e+000,2.5411470121e+000,2.8753641496e-001,2.8668847692e+000,2.8295635879e+000,
7.5937500000e+000,3.2243354969e+000,3.2078886359e+000,2.9448558888e+000,3.1602675942e+000,2.5880143418e+000,3.3726238038e+000,2.6777449144e+000,3.6448099905e+000,2.6236075290e+000,2.9914138055e+000,2.4503840271e+000,5.7408820728e-001,2.9728852517e+000,2.9891183747e+000,
7.6875000000e+000,3.2040707530e+000,3.1788686667e+000,2.8860378100e+000,3.1704586172e+000,2.5863540081e+000,3.2972376084e+000,2.6494038017e+000,3.5673361753e+000,2.6594855143e+000,2.9754146906e+000,2.4776712315e+000,5.0856019206e-001,3.0046097240e+000,3.0154505613e+000,
7.7812500000e+000,3.2173850760e+000,3.2457664700e+000,2.8950974322e+000,3.1492190721e+000,2.7211017829e+000,3.3046266334e+000,2.8013388809e+000,3.4685328362e+000,2.6957789166e+000,2.9771009806e+000,2.5177647059e+000,5.0812677085e-001,3.0030990317e+000,3.0236735030e+000,
7.8750000000e+000,3.0810927907e+000,3.1418299657e+000,2.8030327381e+000,3.0554878547e+000,2.6962002325e+000,3.3254374155e+000,2.7710548015e+000,3.4740231872e+000,2.6519382137e+000,2.9032233424e+000,2.5110079290e+000,6.3289753819e-001,2.9216703628e+000,2.8884700306e+000,
7.9687500000e+000,3.0653526083e+000,3.1314660382e+000,2.7791251620e+000,3.0165715237e+000,2.7387021554e+000,3.3801992400e+000,2.8181110981e+000,3.3810417823e+000,2.6192922263e+000,2.9122994533e+000,2.5034197121e+000,6.7738894684e-001,2.9079078769e+000,2.7942563318e+000,
8.0625000000e+000,2.8977902626e+000,3.0305424539e+000,2.7659802823e+000,2.9039893432e+000,2.7388033549e+000,3.3452819930e+000,2.7555115827e+000,3.4319383037e+000,2.6758141408e+000,2.8864871215e+000,2.5406755852e+000,7.0249723448e-001,2.9872903950e+000,2.7686397808e+000,
8.1562500000e+000,2.7761668459e+000,3.0058732780e+000,2.6455022751e+000,2.8876311511e+000,2.7490126116e+000,3.3360895440e+000,2.6625680364e+000,3.3617589566e+000,2.6314283099e+000,2.8506903903e+000,2.5846843205e+000,7.2032962427e-001,2.9986929057e+000,2.8264350259e+000,
8.2500000000e+000,2.9644981134e+000,3.0957244501e+000,2.8390784099e+000,2.9956637317e+000,2.7918334857e+000,3.4449382330e+000,2.7428950459e+000,3.4660542263e+000,2.6429621671e+000,2.8125213572e+000,2.5514377028e+000,7.4474051830e-001,2.9334714713e+000,2.8313442779e+000,
8.3437500000e+000,2.7941107421e+000,3.0391637600e+000,2.7183266010e+000,2.9618166280e+000,2.7821080616e+000,3.3539763112e+000,2.7183585769e+000,3.4141957630e+000,2.5894476663e+000,2.7544644938e+000,2.5351533501e+000,7.8215640164e-001,2.8814334605e+000,2.8770881070e+000,
8.4375000000e+000,2.7339818079e+000,2.9709758337e+000,2.6456033225e+000,2.9510203811e+000,2.7614419989e+000,3.3050391788e+000,2.7010297072e+000,3.5173864958e+000,2.5564801934e+000,2.7426450175e+000,2.5316745359e+000,9.0674493783e-001,2.7848488978e+000,2.8511807381e+000,
8.5312500000e+000,2.7436431067e+000,3.0008532572e+000,2.6755292744e+000,2.9323092977e+000,2.8535897112e+000,3.3683845236e+000,2.7323359357e+000,3.3888549179e+000,2.5209381757e+000,2.7662194884e+000,2.4479713793e+000,8.3754742952e-001,2.5355358418e+000,2.7141213366e+000,
8.6250000000e+000,2.8259256037e+000,2.9668428447e+000,2.6948716238e+000,2.9762883449e+000,2.8479279075e+000,3.5017644035e+000,2.7312513465e+000,3.4809100509e+000,2.4227132942e+000,2.6874946859e+000,2.4174889150e+000,7.0228187002e-001,2.4682614148e+000,2.5615558186e+000,
8.7187500000e+000,2.9465098630e+000,3.0100654260e+000,2.7299699625e+000,3.0680416131e+000,2.9186299702e+000,3.7673669164e+000,2.8415508927e+000,3.5187081826e+000,2.4438199397e+000,2.7073751735e+000,2.4828187584e+000,7.7788621900e-001,2.6087682736e+000,2.5582783355e+000,
8.8125000000e+000,2.9261820483e+000,2.8566348587e+000,2.6420708548e+000,3.0402272043e+000,2.8012120042e+000,3.9848853405e+000,2.7266586313e+000,3.5692272073e+000,2.4036103858e+000,2.6853633775e+000,2.4505751696e+000,8.6500066217e-001,2.5362301207e+000,2.6024286469e+000,
8.9062500000e+000,2.9005995515e+000,3.0156149318e+000,2.6376066118e+000,3.0491546806e+000,2.8181003617e+000,3.9271678856e+000,2.7349380732e+000,3.5760524637e+000,2.4247263754e+000,2.6617437971e+000,2.4447360077e+000,8.8284067494e-001,2.5177320256e+000,2.5980305104e+000,
9.0000000000e+000,2.8924043960e+000,3.0684513176e+000,2.6718737745e+000,3.0537088255e+000,2.8186285222e+000,3.9598609406e+000,2.6976132255e+000,3.6096674583e+000,2.4507105064e+000,2.6687700655e+000,2.4582947363e+000,9.1582847128e-001,2.5104687614e+000,2.6382782721e+000,
9.0937500000e+000,2.8701065815e+000,3.0375530711e+000,2.6326758448e+000,2.9798925595e+000,2.7584455189e+000,3.9912338547e+000,2.6452980926e+000,3.6295917052e+000,2.3711785877e+000,2.6944005255e+000,2.3478502664e+000,8.9485456703e-001,2.5097834067e+000,2.6878617137e+000,
9.1875000000e+000,2.9625102790e+000,3.0376580898e+000,2.6838492135e+000,3.0011980509e+000,2.8870509412e+000,4.0175876998e+000,2.8003702817e+000,3.6062477514e+000,2.6759368032e+000,2.9392154775e+000,2.6246532350e+000,8.8856839030e-001,2.5890017670e+000,2.8409140783e+000,
9.2812500000e+000,2.8035977895e+000,2.9208014203e+000,2.5904499529e+000,2.8867579821e+000,2.8223068175e+000,3.9597109384e+000,2.7911520387e+000,3.5732831616e+000,2.7125232324e+000,2.9431995062e+000,2.7854459087e+000,9.9408234773e-001,2.6152286561e+000,2.8666405596e+000,
9.3750000000e+000,2.8807334471e+000,2.9853142168e+000,2.6325380424e+000,2.8622574193e+000,2.8513801430e+000,4.1022611439e+000,2.9568258470e+000,3.5606021996e+000,2.8334270905e+000,3.0373770381e+000,2.9084823585e+000,1.0069016241e+000,2.6651244807e+000,2.8648176090e+000,
9.4687500000e+000,2.8929065429e+000,2.9911049751e+000,2.6569745198e+000,2.8945603234e+000,2.8487733842e+000,4.1216484854e+000,2.9427290712e+000,3.5954314579e+000,2.8346652885e+000,2.9844986621e+000,2.9779284172e+000,9.0838526524e-001,2.7297721746e+000,2.8505524681e+000,
9.5625000000e+000,2.8380003524e+000,2.9458549134e+000,2.6357496161e+000,2.8615555149e+000,2.7450256535e+000,4.0305239092e+000,2.9577399893e+000,3.6211704862e+000,2.8586067605e+000,3.0349034876e+000,3.0197982627e+000,8.7793864373e-001,2.7668144905e+000,2.8611634640e+000,
9.6562500000e+000,2.7294294882e+000,2.9178321082e+000,2.6651624962e+000,2.8260808665e+000,2.7460258391e+000,3.9803349537e+000,2.9447855692e+000,3.5822960013e+000,2.8655782833e+000,3.0746487990e+000,3.0024516277e+000,9.9454188703e-001,2.8454839684e+000,2.8727415329e+000,
9.7500000000e+000,2.8766888511e+000,3.0368114363e+000,3.0529860331e+000,2.9454378420e+000,2.9628994622e+000,3.7692720005e+000,3.2045364770e+000,3.6961386097e+000,3.1522972451e+000,3.4896892261e+000,3.2725907933e+000,1.1055921196e+000,3.1366431033e+000,3.1517742509e+000,
9.8437500000e+000,4.1518554269e+000,4.0182503950e+000,4.4681342421e+000,4.2285223454e+000,4.1242227142e+000,3.8575292712e+000,4.4533655989e+000,3.8160097567e+000,4.5599624805e+000,4.7274143283e+000,4.5287073905e+000,1.1757229566e+000,4.4084821948e+000,4.3364906363e+000,
9.9375000000e+000,4.1648855985e+000,3.9775242171e+000,4.4863819773e+000,4.2261526127e+000,4.1277857628e+000,3.8212365301e+000,4.4527026860e+000,3.8489738200e+000,4.5764072500e+000,4.7393799742e+000,4.5407649352e+000,1.1610356637e+000,4.4197254447e+000,4.3486350737e+000,
1.0031250000e+001,4.1669319628e+000,4.0014193116e+000,4.4921431607e+000,4.2244984093e+000,4.1245923518e+000,3.7934686112e+000,4.4538788058e+000,3.7784624959e+000,4.5750804646e+000,4.7355587257e+000,4.5356811748e+000,1.1926067926e+000,4.4022333760e+000,4.3487172108e+000,
1.0125000000e+001,4.1791606764e+000,4.0210560018e+000,4.5208257228e+000,4.2807158983e+000,4.1623471281e+000,3.7699032262e+000,4.4723960269e+000,3.8157131146e+000,4.5820255258e+000,4.7394036901e+000,4.5394257613e+000,1.3019438674e+000,4.4182260183e+000,4.3576631656e+000,
1.0218750000e+001,4.6287936532e+000,4.5050519803e+000,4.9659327818e+000,4.7312818917e+000,4.6085167499e+000,4.2184833290e+000,4.8719467112e+000,3.8146844120e+000,4.9859193484e+000,5.1517811297e+000,4.8864544275e+000,1.3860125292e+000,4.8384501205e+000,4.8521068622e+000,
1.0312500000e+001,4.8896804609e+000,4.8234219268e+000,5.2312564854e+000,5.0099398381e+000,4.8946193956e+000,4.3510119244e+000,5.0863705786e+000,3.8992721226e+000,5.2451856669e+000,5.3198088969e+000,5.0894040225e+000,1.3750407292e+000,5.0668572418e+000,5.0975204115e+000,
1.0406250000e+001,5.2443640008e+000,5.2062872473e+000,5.5506762780e+000,5.3699853326e+000,5.2120460425e+000,4.6416992989e+000,5.3927516610e+000,3.9016844582e+000,5.5477718278e+000,5.6475599203e+000,5.3521426624e+000,1.3606267234e+000,5.3320063496e+000,5.3659530326e+000,
1.0500000000e+001,5.3138168400e+000,5.2866005502e+000,5.6277321910e+000,5.4465828662e+000,5.2714589496e+000,4.7343592222e+000,5.4599818265e+000,3.8365020563e+000,5.6305588246e+000,5.7427785581e+000,5.4442871794e+000,1.3425484355e+000,5.4427455471e+000,5.4830646191e+000,
1.0593750000e+001,5.3347040891e+000,5.2937791017e+000,5.6453453317e+000,5.4506902585e+000,5.2882153118e+000,4.7376471448e+000,5.4751862279e+000,3.8896460146e+000,5.6366744728e+000,5.7471778502e+000,5.4532515400e+000,1.3344999718e+000,5.4429443060e+000,5.4961190427e+000,
1.0687500000e+001,5.3715758965e+000,5.3197941951e+000,5.6783534906e+000,5.4871205873e+000,5.3228892731e+000,4.7577755956e+000,5.5054831205e+000,3.8043671096e+000,5.6668651772e+000,5.7693443136e+000,5.4877031899e+000,1.2081422949e+000,5.4694683829e+000,5.5476552325e+000,
1.0781250000e+001,5.4204057537e+000,5.4447184444e+000,5.7643404154e+000,5.6114576528e+000,5.4063809589e+000,4.9245448462e+000,5.5743223127e+000,3.7360559630e+000,5.7733177996e+000,5.8327863676e+000,5.5684430273e+000,1.0718526588e+000,5.5947478194e+000,5.6496080091e+000,
1.0875000000e+001,5.6425874755e+000,5.7754121793e+000,6.0355696353e+000,5.8976366516e+000,5.6967361904e+000,5.2524117333e+000,5.8530636304e+000,3.8856517224e+000,6.0682681753e+000,6.1296768485e+000,5.8596286812e+000,1.0557416176e+000,5.9112832831e+000,5.9300902656e+000,
1.0968750000e+001,5.6842319418e+000,5.8258276544e+000,6.0788141776e+000,5.9504317973e+000,5.7373295946e+000,5.3020841735e+000,5.9049900796e+000,3.8630659924e+000,6.1188443755e+000,6.1816110404e+000,5.9163585989e+000,1.2208368245e+000,5.9591302238e+000,5.9853473513e+000,
1.1062500000e+001,5.6860967408e+000,5.8243103556e+000,6.0842160172e+000,5.9571791664e+000,5.7401537479e+000,5.3082186460e+000,5.9120802129e+000,3.8293437979e+000,6.1216188238e+000,6.1846334398e+000,5.9196008685e+000,1.3466628698e+000,5.9650297006e+000,5.9902937906e+000,
1.1156250000e+001,5.6696597285e+000,5.8206078188e+000,6.0737046755e+000,5.9485399701e+000,5.7273835211e+000,5.3015313768e+000,5.9043221791e+000,3.8151145293e+000,6.1143046697e+000,6.1774147722e+000,5.9055615566e+000,1.4655209690e+000,5.9485490719e+000,5.9864404193e+000,
1.1250000000e+001,5.4709486397e+000,5.6592284934e+000,5.8920811116e+000,5.7896748763e+000,5.5457809850e+000,5.1489961629e+000,5.7376117675e+000,3.7856461335e+000,5.9522183861e+000,6.0215660538e+000,5.7507986982e+000,1.4674686079e+000,5.7940406299e+000,5.7978359433e+000,
1.1343750000e+001,5.3570005708e+000,5.5474824227e+000,5.7855295459e+000,5.6750939529e+000,5.4317931138e+000,5.0444909775e+000,5.6425702331e+000,3.7085778691e+000,5.8421818459e+000,5.9272120049e+000,5.6516818500e+000,1.5692093316e+000,5.7065003866e+000,5.7032950948e+000,
1.1437500000e+001,5.0545075536e+000,5.3195978559e+000,5.5491457221e+000,5.4617637750e+000,5.2161035940e+000,4.8730300508e+000,5.4166222894e+000,3.8378005899e+000,5.6305672595e+000,5.7065480160e+000,5.4549599982e+000,1.6129089183e+000,5.5168820469e+000,5.5237815725e+000,
1.1531250000e+001,5.0440402434e+000,5.3012155362e+000,5.5363991238e+000,5.4429182740e+000,5.2063752248e+000,4.8441063622e+000,5.4022809243e+000,3.8865140016e+000,5.6048476648e+000,5.6594472065e+000,5.4138078914e+000,1.6152470297e+000,5.4792568948e+000,5.4813573729e+000,
1.1625000000e+001,5.0144342071e+000,5.2938959698e+000,5.5122655270e+000,5.4310988605e+000,5.1884537400e+000,4.8575367852e+000,5.3854367712e+000,3.8858505943e+000,5.5973876470e+000,5.6556709703e+000,5.4120415411e+000,1.6582642526e+000,5.4910919657e+000,5.4723460397e+000,
1.1718750000e+001,4.9606145480e+000,5.2484383153e+000,5.4498060014e+000,5.3735496577e+000,5.1172441576e+000,4.8361785927e+000,5.3285240841e+000,3.8659175180e+000,5.5222409163e+000,5.5954562877e+000,5.3275832041e+000,1.8385678269e+000,5.4075087070e+000,5.3822102148e+000,
1.1812500000e+001,4.2449978814e+000,4.4933773286e+000,4.6543711537e+000,4.6452018552e+000,4.3895709336e+000,4.2746383064e+000,4.5765732367e+000,3.6742793000e+000,4.6914832903e+000,4.7753063476e+000,4.5193227677e+000,1.9918158553e+000,4.6140719443e+000,4.6493167106e+000,
1.1906250000e+001,3.6003700565e+000,3.2994848779e+000,3.3008623313e+000,3.5508074609e+000,3.1783773626e+000,3.4275175910e+000,3.2924212517e+000,3.6235888259e+000,3.1218622716e+000,3.3031223184e+000,2.8187907282e+000,2.0112885825e+000,3.2278874462e+000,3.6413301504e+000,
1.2000000000e+001,4.3526937351e+000,3.2030224916e+000,3.0702631862e+000,3.4320946690e+000,3.1191899441e+000,3.3951756207e+000,3.0855820256e+000,3.6596317284e+000,2.7894409842e+000,3.0943915115e+000,2.5524442601e+000,2.0264311804e+000,3.1643520641e+000,3.5664303365e+000,
1.2093750000e+001,4.9478796718e+000,3.2792571907e+000,3.0372253989e+000,3.3498260979e+000,3.0795370684e+000,3.4529747804e+000,2.9129852771e+000,3.7291308802e+000,2.6481711285e+000,3.1814888261e+000,2.5160892997e+000,1.9385428280e+000,3.1346211600e+000,3.5653364419e+000,
1.2187500000e+001,5.4560660576e+000,3.1578122960e+000,2.9665188595e+000,3.3335537317e+000,2.9498441848e+000,3.3410354377e+000,2.7094758608e+000,3.7527576062e+000,2.3972627644e+000,2.9532794798e+000,2.4378485971e+000,1.8834098960e+000,3.2275470432e+000,3.5142032720e+000,
1.2281250000e+001,6.1788023703e+000,3.1140203913e+000,2.9106592534e+000,3.3358141976e+000,2.8817009474e+000,3.3709381665e+000,2.5631585042e+000,3.7332829773e+000,2.2826459966e+000,2.9641949855e+000,2.5026082445e+000,1.8377756299e+000,3.2417410798e+000,3.5683244641e+000,
1.2375000000e+001,6.5812074940e+000,3.0871915379e+000,2.9023609536e+000,3.3580549621e+000,2.8677920814e+000,3.3687960730e+000,2.4655785265e+000,3.6618999737e+000,2.3842680077e+000,3.0402890216e+000,2.5312324142e+000,1.7973329335e+000,3.2326726672e+000,3.5616119199e+000,
1.2468750000e+001,6.5930012588e+000,3.1085118369e+000,2.8414497854e+000,3.3012073839e+000,2.8977962527e+000,3.3083372125e+000,2.4241332134e+000,3.6012534030e+000,2.4195440370e+000,3.0306204133e+000,2.4923234285e+000,1.7926163751e+000,3.1683011957e+000,3.5217276063e+000,
1.2562500000e+001,9.3621049291e+000,3.1493760300e+000,2.8475131269e+000,3.2635312798e+000,2.9776487541e+000,3.3669895264e+000,2.9107694645e+000,3.5146402188e+000,2.4545614280e+000,3.0670349360e+000,2.5438473162e+000,1.7948334597e+000,3.1590090728e+000,3.5225460375e+000,
1.2656250000e+001,1.0880338839e+001,3.2313961940e+000,2.8917248472e+000,3.3504259425e+000,2.9762536362e+000,3.2843717220e+000,4.3867753667e+000,3.6536539491e+000,2.4598956019e+000,3.0837856537e+000,2.4433838940e+000,1.8169060445e+000,2.9938751693e+000,3.5214799023e+000,
1.2750000000e+001,1.0924559539e+001,3.2487409155e+000,2.8374249874e+000,3.3683478920e+000,2.9809798350e+000,3.2310413292e+000,4.3878106964e+000,4.0799691056e+000,2.4998567082e+000,3.1260884705e+000,2.6259567397e+000,1.6660933061e+000,2.9330072273e+000,3.5017885620e+000,
1.2843750000e+001,1.0927042966e+001,3.3544956884e+000,2.8892634460e+000,3.3806479544e+000,3.0056754329e+000,3.2809876402e+000,4.3974201722e+000,4.0583600519e+000,2.3814093116e+000,3.2151946201e+000,2.6890990811e+000,1.5563287453e+000,2.8988235155e+000,3.5619521408e+000,
1.2937500000e+001,1.0926315366e+001,3.3251029539e+000,2.7873377115e+000,3.2655668635e+000,2.9444836146e+000,3.2963478448e+000,4.3954992618e+000,4.0512234089e+000,2.3576022730e+000,3.1499743625e+000,2.7002425863e+000,1.6557548521e+000,2.9120090360e+000,3.4404334411e+000,
1.3031250000e+001,1.0926574641e+001,3.2834854171e+000,2.6602147864e+000,3.2799858641e+000,2.7836241582e+000,3.3613936660e+000,4.3983497449e+000,3.9856113430e+000,2.4502165785e+000,3.0489401531e+000,2.5789556505e+000,1.5377654023e+000,2.6836151916e+000,3.2891621951e+000,
1.3125000000e+001,1.0924853927e+001,3.2733012407e+000,2.6003918164e+000,3.1977492959e+000,2.7653704920e+000,3.3122882392e+000,4.3844970522e+000,4.0183808652e+000,2.3870900451e+000,2.9093373035e+000,2.5159526028e+000,1.6006364320e+000,2.5899196671e+000,3.2812724798e+000,
1.3218750000e+001,1.0923998178e+001,3.2678195573e+000,2.5399851677e+000,3.1100576158e+000,2.7458054423e+000,3.2805829471e+000,4.3858252010e+000,3.9606542522e+000,2.3340856049e+000,2.8840872361e+000,2.5676259552e+000,1.5162276710e+000,2.6345482364e+000,3.2636906959e+000,
1.3312500000e+001,1.0916808515e+001,3.2751964740e+000,2.4986601680e+000,3.0597954272e+000,2.7178609200e+000,3.2499520842e+000,4.3826654992e+000,4.0007584455e+000,2.2316901248e+000,2.8517583394e+000,2.4849052653e+000,1.5125424796e+000,2.6672870586e+000,3.2893803220e+000,
1.3406250000e+001,1.0915407780e+001,3.2320696233e+000,2.4969567915e+000,3.0525499356e+000,2.7676399565e+000,3.2132915080e+000,4.3872399894e+000,4.0586847614e+000,2.3115738647e+000,2.8843954517e+000,2.5325026306e+000,1.4947507357e+000,2.7152227751e+000,3.2854700838e+000,
1.3500000000e+001,1.0915396420e+001,3.2248377999e+000,2.4496340073e+000,2.9833490770e+000,2.7439953791e+000,3.0809916226e+000,4.3825520539e+000,4.0311874420e+000,2.2526334102e+000,2.8525993585e+000,2.5948090633e+000,1.5059795257e+000,2.7280385341e+000,3.2437558801e+000,
1.3593750000e+001,9.8212502603e+000,3.0944841439e+000,2.2598401210e+000,2.8632742730e+000,2.6201489201e+000,2.9973343898e+000,3.6606683471e+000,4.0802569059e+000,2.2700219874e+000,2.7085995894e+000,2.5626322024e+000,1.5031715823e+000,2.6607616823e+000,3.1569233463e+000,
1.3687500000e+001,7.5138323127e+000,3.0589326892e+000,2.2307588497e+000,2.6732584799e+000,2.6711598926e+000,2.9712510762e+000,2.2964963528e+000,3.7163105821e+000,2.1911568071e+000,2.7466731997e+000,2.3826430190e+000,1.3463948705e+000,2.6770344518e+000,3.2163971055e+000,
1.3781250000e+001,4.8082791171e+000,3.1878417399e+000,2.4247577161e+000,2.8727624386e+000,2.7557212990e+000,3.0336657193e+000,2.4609180127e+000,3.4086081818e+000,2.3981082955e+000,2.8722331816e+000,2.2871839115e+000,1.2910469460e+000,2.7951296654e+000,3.1763120018e+000,
1.3875000000e+001,4.4786689411e+000,3.0962818300e+000,2.4626187910e+000,2.8547819097e+000,2.8028528325e+000,2.9477591349e+000,2.5028843453e+000,3.4317846140e+000,2.5370447723e+000,2.8247665902e+000,2.1992604739e+000,1.1650466931e+000,2.8182046080e+000,3.1519119658e+000,
1.3968750000e+001,4.4132219668e+000,2.9464859370e+000,2.4250921659e+000,2.9390698454e+000,2.7761564855e+000,2.9452436977e+000,2.5110593379e+000,3.5140940866e+000,2.5240167716e+000,2.7591853924e+000,2.1526870099e+000,8.7917905267e-001,2.8081146754e+000,3.1492272668e+000,
1.4062500000e+001,3.6509958714e+000,2.9269226992e+000,2.3929205117e+000,2.8845283268e+000,2.7847535125e+000,2.7973556539e+000,2.4220299523e+000,3.5190564958e+000,2.4241127982e+000,2.7999431119e+000,2.3329376491e+000,9.4348963073e-001,2.7050045369e+000,2.9739986454e+000,
1.4156250000e+001,3.5028936139e+000,2.9464600727e+000,2.3858471928e+000,2.8927658495e+000,2.7492006544e+000,2.6704842649e+000,2.3957469582e+000,3.4893543851e+000,2.5101490206e+000,2.8412307773e+000,2.2912598520e+000,6.8850028520e-001,2.7765581029e+000,3.0555611539e+000,
1.4250000000e+001,3.3542396291e+000,2.8981223763e+000,2.3743887128e+000,2.9714224037e+000,2.8014293139e+000,2.6588328875e+000,2.3842980816e+000,3.4642364710e+000,2.6382133929e+000,2.8490066292e+000,2.3114220736e+000,6.7553144712e-001,2.8653396022e+000,3.0963002928e+000,
1.4343750000e+001,3.2612734045e+000,2.8862663504e+000,2.7624599786e+000,2.9618691501e+000,2.8332467013e+000,2.7009954423e+000,2.4048097169e+000,3.4924671406e+000,2.7224836652e+000,2.8822096829e+000,2.2756018403e+000,6.4657207383e-001,2.9521163760e+000,3.1498785114e+000,
1.4437500000e+001,3.3336877506e+000,3.0036429896e+000,4.3132707399e+000,3.0635581359e+000,2.8359591258e+000,2.8108309054e+000,2.5467856169e+000,3.4187855862e+000,2.6789923541e+000,2.8746421099e+000,2.1953658831e+000,6.5456460231e-001,2.9595011414e+000,3.1928724783e+000,
1.4531250000e+001,3.3137110983e+000,3.0213117106e+000,4.4956506698e+000,3.0846425780e+000,2.8504048486e+000,2.8597860477e+000,2.5652212123e+000,3.4589004516e+000,2.6591042103e+000,2.8629077530e+000,2.0531702442e+000,8.4530811574e-001,3.0121876878e+000,3.2122323784e+000,
1.4625000000e+001,3.2792514194e+000,3.0204781716e+000,4.8044536887e+000,3.0843158204e+000,2.8281474835e+000,2.8408275527e+000,2.6047541820e+000,3.3643429891e+000,2.6530507211e+000,2.8860598499e+000,2.0213286791e+000,9.4303682323e-001,3.0211589366e+000,3.2251474274e+000,
1.4718750000e+001,3.1844825644e+000,2.9415933042e+000,4.8104139662e+000,2.9931619386e+000,2.7597794040e+000,2.9183766140e+000,2.6211187752e+000,3.4199500678e+000,2.7626022949e+000,2.8516928661e+000,2.0241266248e+000,1.0307282100e+000,2.9900901320e+000,3.1249252655e+000,
1.4812500000e+001,3.0083163027e+000,2.7411207307e+000,4.7932881745e+000,2.7293533602e+000,2.6977094992e+000,2.9864213583e+000,2.5356294316e+000,3.4022379550e+000,2.6737162495e+000,2.6023382056e+000,2.0832859263e+000,9.9913028582e-001,2.8152462360e+000,3.0415679549e+000,
1.4906250000e+001,2.9390505957e+000,2.6914423814e+000,9.0117249817e+000,2.6823131587e+000,2.5897390741e+000,2.8959105907e+000,2.4090205120e+000,3.3449504781e+000,2.5447232381e+000,2.6211925736e+000,2.1058225256e+000,9.9277749220e-001,2.8591270260e+000,3.0758312787e+000,
1.5000000000e+001,3.0079362099e+000,2.6873136143e+000,1.0869491932e+001,2.6619134429e+000,2.6613111842e+000,2.8883026849e+000,2.4997964039e+000,3.4408046527e+000,2.5754715362e+000,2.6059596093e+000,1.9792649562e+000,9.3774990205e-001,2.9239289172e+000,3.2004969217e+000,
1.5093750000e+001,2.9487421323e+000,2.4829821560e+000,1.1216365574e+001,2.7562222914e+000,3.0504525889e+000,2.9834122409e+000,2.6035787819e+000,4.2830406242e+000,2.4928313812e+000,2.4084713953e+000,2.1716352222e+000,8.3836279172e-001,2.8258427787e+000,3.1105897265e+000,
1.5187500000e+001,2.8797391562e+000,2.3941638419e+000,1.1228838073e+001,2.7331507083e+000,3.0583000621e+000,3.0992410329e+000,2.6604815451e+000,4.2731954338e+000,2.4924973278e+000,2.4156555316e+000,2.2828148711e+000,8.6904604381e-001,2.8116898312e+000,3.0983323888e+000,
1.5281250000e+001,2.9391669315e+000,2.6223819164e+000,1.1229175854e+001,2.7355552133e+000,3.0347003751e+000,3.1944043177e+000,2.8353734619e+000,4.3007438649e+000,2.3141967682e+000,2.4516416766e+000,2.2452299371e+000,8.6808381099e-001,2.5008488713e+000,2.9793579615e+000,
1.5375000000e+001,2.8581241824e+000,2.5703541480e+000,1.1228984125e+001,2.6609919485e+000,2.9481827224e+000,3.1537866562e+000,2.8357127361e+000,4.2919171898e+000,2.1912691636e+000,2.4032973378e+000,2.3652600064e+000,8.6986472204e-001,2.4249396803e+000,2.9226444107e+000,
1.5468750000e+001,3.0240123192e+000,2.9602425288e+000,1.1228341665e+001,3.0209440078e+000,3.1607232304e+000,3.2168646230e+000,3.0916268671e+000,4.2637166310e+000,2.8283258029e+000,3.1068039637e+000,2.9110787302e+000,9.3261811476e-001,3.0088513932e+000,3.3665257031e+000,
1.5562500000e+001,3.3569809064e+000,3.5271705848e+000,1.1228212284e+001,3.6035348250e+000,3.4570888252e+000,3.4268242556e+000,3.5219095971e+000,4.2739028078e+000,3.4386515096e+000,3.6953039397e+000,3.4361136152e+000,7.5512728043e-001,3.5951658381e+000,3.8620061365e+000,
1.5656250000e+001,3.3758143770e+000,3.5655812848e+000,1.1227831911e+001,3.6799486991e+000,3.4691324538e+000,3.4076921485e+000,3.5105663204e+000,4.3197735232e+000,3.4436906333e+000,3.6803343584e+000,3.4699663288e+000,6.0023865476e-001,3.6024924452e+000,3.8970752460e+000,
1.5750000000e+001,3.3490548848e+000,3.5682802440e+000,1.1227889025e+001,3.6974710852e+000,3.4945354225e+000,3.3456743812e+000,3.5128571093e+000,4.3286190039e+000,3.4385637121e+000,3.6756169093e+000,3.4858140517e+000,5.1517028612e-001,3.6189651969e+000,3.9067284823e+000,
1.5843750000e+001,3.7346858771e+000,3.9368178533e+000,1.1228069770e+001,4.0944862434e+000,3.8102624530e+000,3.6695675523e+000,3.8249881128e+000,4.3428411258e+000,3.8747619187e+000,4.2703353681e+000,3.8714331733e+000,8.6721560796e-001,3.9371834750e+000,4.3303429659e+000,
1.5937500000e+001,3.7342154155e+000,3.9550298558e+000,1.0919296238e+001,4.1056342773e+000,3.8377777681e+000,3.7400456167e+000,3.8279751442e+000,4.3019889427e+000,3.9324110284e+000,4.3300587927e+000,3.9243091275e+000,9.2936205192e-001,3.9929074532e+000,4.3733719884e+000,
1.6031250000e+001,3.7602647680e+000,4.0290233186e+000,9.1428582872e+000,4.1415050264e+000,3.7127626011e+000,3.7105325778e+000,3.8068968367e+000,3.8337374925e+000,3.9749196499e+000,4.4096551090e+000,3.9939293196e+000,1.2525470087e+000,4.0515421904e+000,4.4049189716e+000,
1.6125000000e+001,3.8365741720e+000,4.0890605697e+000,5.9656380052e+000,4.2168406759e+000,3.7194351153e+000,3.7513523548e+000,3.8583758962e+000,3.5388381880e+000,4.0472870451e+000,4.5053519786e+000,4.0324463267e+000,1.3552994433e+000,4.2105768064e+000,4.5655085669e+000,
1.6218750000e+001,3.8332539015e+000,4.0844280854e+000,4.0291755872e+000,4.1967705358e+000,3.7159161291e+000,3.7306454002e+000,3.8498355646e+000,3.5054874827e+000,4.0630853831e+000,4.5374295566e+000,4.0501633175e+000,1.4977955058e+000,4.2195352500e+000,4.5934751480e+000,
1.6312500000e+001,3.8166711475e+000,4.0394636169e+000,3.7803798769e+000,4.1670069908e+000,3.6866443140e+000,3.6729074276e+000,3.8160555935e+000,3.5648407280e+000,4.0600047537e+000,4.5179726347e+000,4.0330376286e+000,1.5182005905e+000,4.2216355339e+000,4.5941316324e+000,
1.6406250000e+001,3.8357803539e+000,4.0517450577e+000,3.6987017884e+000,4.1834968457e+000,3.7483519117e+000,3.6883061957e+000,3.8291175289e+000,3.5817808706e+000,4.0852089476e+000,4.5223664679e+000,4.0379672115e+000,1.5468965233e+000,4.2056517591e+000,4.6103723500e+000,
1.6500000000e+001,3.6510341407e+000,3.7792410831e+000,3.6925777522e+000,3.9413532994e+000,3.4877269441e+000,3.4024560159e+000,3.4728490754e+000,3.5693155226e+000,3.7207291948e+000,4.2552721742e+000,3.6930660749e+000,1.4868977718e+000,3.8932308263e+000,4.3951988246e+000,
1.6593750000e+001,3.6488208521e+000,3.6422156596e+000,3.6875806604e+000,3.8243814018e+000,3.4145645614e+000,3.4022687632e+000,3.3503210066e+000,3.6189673160e+000,3.6007705933e+000,4.1629697525e+000,3.5987238411e+000,1.6342264187e+000,3.7683378976e+000,4.3019991304e+000,
1.6687500000e+001,3.5948947424e+000,3.5902124269e+000,3.6412721128e+000,3.7884238176e+000,3.4138927922e+000,3.4869229721e+000,3.3542565989e+000,3.4844574369e+000,3.5942164554e+000,4.1891368666e+000,3.5980128033e+000,1.7155070410e+000,3.8163498468e+000,4.3339439955e+000,
1.6781250000e+001,3.6138079473e+000,3.6459579270e+000,3.6243134886e+000,3.8146665396e+000,3.3940439194e+000,3.4754979571e+000,3.4026489463e+000,3.5381765983e+000,3.5946700931e+000,4.2230659777e+000,3.6505129322e+000,1.7722817142e+000,3.8816188789e+000,4.3565199630e+000,
1.6875000000e+001,3.7537756556e+000,3.5810639021e+000,3.7425796594e+000,3.7807211134e+000,3.5717850844e+000,3.3463132866e+000,3.5988797673e+000,3.7056132316e+000,3.8006970075e+000,4.2582434515e+000,3.8142495781e+000,1.6861090009e+000,4.0667260728e+000,4.3610570053e+000,
1.6968750000e+001,3.9455250787e+000,3.7085501389e+000,4.0023095199e+000,3.9546866195e+000,3.6909101491e+000,3.4474184151e+000,3.8531307917e+000,3.5881386470e+000,3.9945556425e+000,4.3884049003e+000,3.9521426741e+000,1.6919815348e+000,4.2376522231e+000,4.4825658015e+000,
1.7062500000e+001,3.8925227213e+000,3.6278360416e+000,3.9468669646e+000,3.8801220151e+000,3.7010043491e+000,3.4538152993e+000,3.8165184355e+000,3.5911388920e+000,3.9392902686e+000,4.2897029247e+000,3.8963498916e+000,1.4641567031e+000,4.1310620705e+000,4.4027014333e+000,
1.7156250000e+001,3.8176707472e+000,3.5681564288e+000,3.9197215241e+000,3.7888133227e+000,3.7032375130e+000,3.3192252385e+000,3.7617585469e+000,3.5291353721e+000,3.8896083079e+000,4.2234934727e+000,3.8575315374e+000,1.2831870080e+000,4.0462186376e+000,4.2809640128e+000,
1.7250000000e+001,3.8291269602e+000,3.6194134808e+000,3.9397747620e+000,3.8468001762e+000,3.7250209525e+000,3.7235899867e+000,3.7521775309e+000,3.4479526147e+000,3.8831782962e+000,4.2084525967e+000,3.8528468220e+000,1.3136323701e+000,4.0508746719e+000,4.2624866803e+000,
1.7343750000e+001,3.8577276093e+000,3.6544293227e+000,3.9307275228e+000,3.8834928895e+000,3.7513667138e+000,3.7539117893e+000,3.7551161499e+000,3.5095411465e+000,3.8864365589e+000,4.2212097902e+000,3.8390932663e+000,1.4176933861e+000,4.0515344230e+000,4.2708077729e+000,
1.7437500000e+001,3.8986279330e+000,3.6786562474e+000,3.9563222451e+000,3.9419303130e+000,3.7445936098e+000,4.0761948558e+000,3.8619281982e+000,3.4504019007e+000,3.9479508095e+000,4.2789986217e+000,3.8741059871e+000,1.6547943400e+000,4.0453468556e+000,4.2924100065e+000,
1.7531250000e+001,3.8164403242e+000,3.6498674148e+000,3.9437090936e+000,3.9336232036e+000,3.7662180129e+000,4.0971759370e+000,3.8663542492e+000,3.5452084984e+000,3.9557072629e+000,4.2966643297e+000,3.9055982281e+000,1.6913185854e+000,4.0251955965e+000,4.2911801020e+000,
1.7625000000e+001,3.8326897068e+000,3.6704521133e+000,3.9352827498e+000,3.9348128029e+000,3.8223730741e+000,4.0579902772e+000,3.9107111334e+000,3.5825713172e+000,4.0584258154e+000,4.3530503036e+000,3.9460311568e+000,1.6082268928e+000,4.0287292058e+000,4.3057233369e+000,
1.7718750000e+001,3.9028292081e+000,3.7485579142e+000,3.9308531510e+000,3.9781379465e+000,3.8799402716e+000,4.1025120045e+000,3.9231588896e+000,3.5068356053e+000,4.0653106195e+000,4.4028253173e+000,3.9469226848e+000,1.5697391356e+000,3.9817193648e+000,4.2833685172e+000,
1.7812500000e+001,3.8579923230e+000,3.6683100653e+000,3.7822066821e+000,3.9482823737e+000,3.8315772341e+000,4.1092388127e+000,3.8438235140e+000,3.5390449035e+000,3.9006458133e+000,4.2972620049e+000,3.8312582008e+000,1.5616408351e+000,3.7425329181e+000,4.1607077600e+000,
1.7906250000e+001,3.5059683044e+000,3.4258297687e+000,3.3501007383e+000,3.6251003835e+000,3.5046431828e+000,3.9092496029e+000,3.4855785738e+000,3.5722847022e+000,3.4070242627e+000,3.7911721420e+000,3.3126471995e+000,1.5342834615e+000,3.1084591702e+000,3.7165137558e+000,
1.8000000000e+001,3.3865425365e+000,3.2977607162e+000,2.9585603805e+000,3.3792483921e+000,3.3605961712e+000,3.8873607174e+000,3.2549010009e+000,3.5498758330e+000,3.0705897529e+000,3.5374964935e+000,2.9887470076e+000,1.4996451937e+000,2.6271695093e+000,3.4262663016e+000,
1.8093750000e+001,3.4343487139e+000,3.3082349178e+000,3.0135549615e+000,3.3951963722e+000,3.3550842841e+000,3.9084256618e+000,3.2756073287e+000,3.5737463700e+000,3.0702326764e+000,3.5383589242e+000,2.9669448020e+000,1.5233294958e+000,2.6703960558e+000,3.4678453038e+000,
1.8187500000e+001,3.6017969196e+000,3.4556541263e+000,3.0979637314e+000,3.4065969091e+000,3.3850722129e+000,3.8981061704e+000,3.3083722152e+000,3.5307373852e+000,3.0917068909e+000,3.5449446220e+000,2.9789490395e+000,1.4886259910e+000,2.6142989150e+000,3.4295440399e+000,
1.8281250000e+001,3.7098921350e+000,3.4887764832e+000,3.1919428619e+000,3.4597666987e+000,3.4544616036e+000,3.6984513753e+000,3.3975160213e+000,3.5932738869e+000,3.2638727056e+000,3.6749272467e+000,3.1925561372e+000,1.7773184824e+000,2.6840957257e+000,3.4268762790e+000,
1.8375000000e+001,3.7053284782e+000,3.4961586654e+000,3.1944294402e+000,3.4275893464e+000,3.4610108288e+000,3.6885088924e+000,3.4148193368e+000,3.7451475520e+000,3.2935508376e+000,3.6808302911e+000,3.2950381115e+000,1.7775163060e+000,2.8123781095e+000,3.3525189166e+000,
1.8468750000e+001,3.6180937980e+000,3.4093937301e+000,3.1714905656e+000,3.3054137644e+000,3.3898578323e+000,3.2153065913e+000,3.2786688107e+000,3.7367099838e+000,3.1649610521e+000,3.6104850412e+000,3.2561682718e+000,1.5699534640e+000,2.7988641083e+000,3.2729360320e+000,
1.8562500000e+001,3.6258029903e+000,3.4036183869e+000,3.1409645718e+000,3.2880018551e+000,3.3755968423e+000,3.2654037414e+000,3.1967210706e+000,3.8507209657e+000,2.9719213874e+000,3.5205683744e+000,3.1535037962e+000,1.5261953406e+000,2.7631477965e+000,3.1881504341e+000,
1.8656250000e+001,3.6341608182e+000,3.4153455372e+000,3.1278562632e+000,3.3068278882e+000,3.2634437037e+000,3.2424042057e+000,3.1126223666e+000,3.7881774689e+000,2.8085867053e+000,3.4503371567e+000,3.1448824011e+000,1.4685111475e+000,2.8521177393e+000,3.2167692434e+000,
1.8750000000e+001,3.5438416337e+000,3.2879136858e+000,3.1315220037e+000,3.0897760625e+000,3.0885987377e+000,3.1601191864e+000,3.1089902060e+000,3.7501689583e+000,2.9309341984e+000,3.3572936681e+000,3.2111934919e+000,1.4187416606e+000,3.0475380910e+000,3.3018129446e+000,
1.8843750000e+001,3.6561210993e+000,3.3691540309e+000,3.3272760006e+000,3.2200327783e+000,3.1674059242e+000,3.1709602853e+000,3.2491354767e+000,3.7706671767e+000,3.0669485222e+000,3.5330242970e+000,3.2744634598e+000,1.4332675730e+000,3.1954664181e+000,3.3065733794e+000,
1.8937500000e+001,3.6479699530e+000,3.3797958691e+000,3.3617365873e+000,3.2642852172e+000,3.1326944104e+000,3.2491289089e+000,3.2472200014e+000,3.7047029168e+000,3.0695993507e+000,3.5817035024e+000,3.2798080804e+000,1.4188107435e+000,3.1905896521e+000,3.3334574177e+000,
1.9031250000e+001,3.5860323677e+000,3.3367707758e+000,3.3551569575e+000,3.2660144351e+000,3.1100609791e+000,3.2482070849e+000,3.2337365275e+000,3.7407990634e+000,3.0741525093e+000,3.6055714430e+000,3.2752847229e+000,1.4510313161e+000,3.1778640084e+000,3.4256695278e+000,
1.9125000000e+001,3.5898554281e+000,3.3499358591e+000,3.3637268813e+000,3.3750261346e+000,3.1228889325e+000,3.3589988016e+000,3.2398130270e+000,3.6866192183e+000,3.0898278092e+000,3.6556898027e+000,3.2839056452e+000,1.4962138572e+000,3.1947041679e+000,3.4181967214e+000,
1.9218750000e+001,3.5367590016e+000,3.2322737976e+000,3.3499760728e+000,3.3745171698e+000,3.0888729912e+000,3.2901150797e+000,3.2696678552e+000,3.7615496440e+000,3.0816473921e+000,3.6380849584e+000,3.2937042574e+000,1.4945457803e+000,3.2226234323e+000,3.4180034605e+000,
1.9312500000e+001,3.4537524333e+000,3.2038975518e+000,3.3172403715e+000,3.3196835653e+000,2.9000486391e+000,3.2196682990e+000,3.2090853076e+000,3.6445055090e+000,2.9258843122e+000,3.5682558100e+000,3.1320396822e+000,1.2842748975e+000,3.3300072164e+000,3.6362043350e+000,
1.9406250000e+001,3.6101768989e+000,3.3994265737e+000,3.5884556909e+000,3.5528621939e+000,3.1729456036e+000,3.3581094094e+000,3.4941700302e+000,3.4652209592e+000,3.3097931680e+000,3.9287640609e+000,3.4796315470e+000,1.5186982762e+000,3.8010303681e+000,4.0363374774e+000,
1.9500000000e+001,3.7676558857e+000,3.6063337966e+000,3.8533941052e+000,3.8404589091e+000,3.4339626898e+000,3.6542135240e+000,3.7531755789e+000,3.5488834758e+000,3.6011958155e+000,4.1828664776e+000,3.7958575006e+000,1.7120047738e+000,4.0842351452e+000,4.2410774500e+000,
1.9593750000e+001,3.7066700987e+000,3.6005350641e+000,3.8368006770e+000,3.8085949363e+000,3.4213319088e+000,3.6232013774e+000,3.7817011425e+000,3.3226959928e+000,3.6353686597e+000,4.1866280473e+000,3.8076905943e+000,1.7187535741e+000,4.0933202078e+000,4.2571846718e+000,
1.9687500000e+001,3.7395666629e+000,3.6204667619e+000,3.8534127015e+000,3.8499374287e+000,3.4616891456e+000,3.7090607219e+000,3.8050098552e+000,3.5847401351e+000,3.6426418253e+000,4.2090005145e+000,3.8127054800e+000,1.6751827345e+000,4.0392694850e+000,4.1946154844e+000,
1.9781250000e+001,3.6515318531e+000,3.5965654766e+000,3.7435325960e+000,3.7862337309e+000,3.3886912682e+000,3.7683957280e+000,3.7485049364e+000,3.5432737218e+000,3.4964356731e+000,4.1264574146e+000,3.7693737515e+000,1.6714657253e+000,3.9923398372e+000,4.1537830092e+000,
1.9875000000e+001,3.7054536086e+000,3.7188021931e+000,3.9116864283e+000,3.9760965289e+000,3.5669043774e+000,3.9001103674e+000,3.8035901707e+000,3.5905005966e+000,3.7556205734e+000,4.2367237310e+000,3.8286627216e+000,1.7206716214e+000,4.0541699776e+000,4.2189743694e+000,
1.9968750000e+001,4.1597591974e+000,4.1217583862e+000,4.3636292406e+000,4.4058636111e+000,3.9724593662e+000,4.1424063228e+000,4.2227325885e+000,3.5941094493e+000,4.2548674379e+000,4.7392849726e+000,4.3009869272e+000,1.7654622130e+000,4.4292742091e+000,4.6850344675e+000,
2.0062500000e+001,4.2439674976e+000,4.2521536172e+000,4.4640876387e+000,4.5122019826e+000,4.1089953092e+000,4.1752304643e+000,4.3802810124e+000,3.6457973386e+000,4.4354276150e+000,4.8465800369e+000,4.4672978269e+000,1.7634010821e+000,4.5748570291e+000,4.8285872671e+000,
2.0156250000e+001,4.2315932945e+000,4.2584813545e+000,4.4938351978e+000,4.5364462488e+000,4.1322752855e+000,4.1757471008e+000,4.4239045663e+000,3.6383643446e+000,4.5064911491e+000,4.8912470074e+000,4.5205045580e+000,1.7356798225e+000,4.6027433775e+000,4.8782242771e+000,
2.0250000000e+001,4.2196195383e+000,4.2529641834e+000,4.4873783101e+000,4.5496792794e+000,4.1494228959e+000,4.2110366628e+000,4.4166304911e+000,3.5713423098e+000,4.5066364663e+000,4.8922471183e+000,4.5115608454e+000,1.7149818432e+000,4.6074110173e+000,4.8762631447e+000,
2.0343750000e+001,4.1534390475e+000,4.2286384724e+000,4.4135177817e+000,4.5015917327e+000,4.1294842283e+000,4.1777846916e+000,4.3377846156e+000,3.5990067335e+000,4.4398598025e+000,4.8148070167e+000,4.4407990173e+000,1.4533519242e+000,4.4476419701e+000,4.7231791468e+000,
2.0437500000e+001,4.2107304808e+000,4.2952556881e+000,4.4377850875e+000,4.5437756461e+000,4.1889281677e+000,4.1799725616e+000,4.3256168215e+000,3.6630012426e+000,4.4639899737e+000,4.8782742668e+000,4.4348223468e+000,1.2550852103e+000,4.4608364774e+000,4.7284602771e+000,
2.0531250000e+001,4.2244481963e+000,4.3082038840e+000,4.4374224095e+000,4.5483952964e+000,4.2600062764e+000,4.1520098837e+000,4.3485489456e+000,3.6042583185e+000,4.5255697494e+000,4.8773107015e+000,4.4980142988e+000,1.1672030409e+000,4.5046034103e+000,4.7157093263e+000,
2.0625000000e+001,4.2206090207e+000,4.2839221860e+000,4.4244533758e+000,4.5363387725e+000,4.2440971450e+000,4.1570026784e+000,4.3217034001e+000,3.6673360716e+000,4.5171272127e+000,4.8651676730e+000,4.5042353691e+000,1.1672502665e+000,4.5139291334e+000,4.7044406184e+000,
2.0718750000e+001,4.2371312686e+000,4.3208902572e+000,4.4619147730e+000,4.5802978493e+000,4.2661097691e+000,4.1091901370e+000,4.3623632059e+000,3.5581014255e+000,4.5657854723e+000,4.9080549559e+000,4.5390093769e+000,1.1459865966e+000,4.5450251801e+000,4.7363631740e+000,
2.0812500000e+001,4.2282571632e+000,4.2857534773e+000,4.4566436155e+000,4.5735081219e+000,4.2573470471e+000,4.0539160868e+000,4.3730625659e+000,3.5953055123e+000,4.5756213931e+000,4.8907081088e+000,4.5336822283e+000,1.1314735275e+000,4.5442215320e+000,4.7390420813e+000,
2.0906250000e+001,4.0449389615e+000,4.1503236718e+000,4.2741848452e+000,4.4158072262e+000,4.1111874671e+000,3.8816058785e+000,4.2334685454e+000,3.5840280969e+000,4.4306588362e+000,4.7661736890e+000,4.4428780910e+000,9.8055524153e-001,4.4540479533e+000,4.6707216912e+000,
2.1000000000e+001,3.5734088724e+000,3.7399176535e+000,3.7871419472e+000,3.9685811342e+000,3.8146339952e+000,3.6117254430e+000,3.8128287703e+000,3.5498457372e+000,4.0263235190e+000,4.3237230450e+000,4.0346284362e+000,9.3128280904e-001,4.1113611317e+000,4.2191470639e+000,
2.1093750000e+001,3.4113619202e+000,3.5979786621e+000,3.5639276851e+000,3.7865008055e+000,3.6010150951e+000,3.4927791364e+000,3.4559758842e+000,3.6597596279e+000,3.7031606492e+000,4.0970159111e+000,3.7412953429e+000,8.7732413032e-001,3.8367842896e+000,3.9153307557e+000,
2.1187500000e+001,3.4000341632e+000,3.5814768784e+000,3.4907009714e+000,3.7066983228e+000,3.5597103300e+000,3.4876025656e+000,3.3812074413e+000,3.6232608445e+000,3.6089020840e+000,4.0309123327e+000,3.6680945067e+000,9.2614996752e-001,3.7744582528e+000,3.8338609373e+000,
2.1281250000e+001,3.4337833348e+000,3.5542313783e+000,3.5244149151e+000,3.7160743565e+000,3.4867730141e+000,3.4874743646e+000,3.3933456796e+000,3.6157472660e+000,3.6158114097e+000,4.0237419884e+000,3.6735598926e+000,1.3205174134e+000,3.7798001429e+000,3.8086236279e+000,
2.1375000000e+001,3.3087756788e+000,3.3786019964e+000,3.3693839551e+000,3.5661448721e+000,3.2811906662e+000,3.3989521420e+000,3.2213013361e+000,3.6778281676e+000,3.4539711913e+000,3.8645005678e+000,3.5657252042e+000,1.4423871159e+000,3.6832293016e+000,3.7939142473e+000,
2.1468750000e+001,3.1273219679e+000,3.0823201637e+000,3.0000993465e+000,3.2434463196e+000,2.9805164051e+000,3.2535738876e+000,2.9442118997e+000,3.6482565552e+000,3.0520028909e+000,3.4748682818e+000,3.1089464628e+000,1.4785958514e+000,3.2265613968e+000,3.5341305895e+000,
2.1562500000e+001,3.0464888604e+000,3.0759498420e+000,2.9177364713e+000,3.0396321499e+000,2.7270470662e+000,3.1474215738e+000,2.9213006249e+000,3.7695137479e+000,2.7505363031e+000,3.3578458143e+000,2.6318409057e+000,1.6105507970e+000,2.7374331680e+000,3.4352218078e+000,
2.1656250000e+001,3.0284273523e+000,3.0554375509e+000,2.9431057272e+000,2.9465706507e+000,2.7869527889e+000,3.1385687738e+000,2.9114696371e+000,3.7503902195e+000,2.7028788597e+000,3.2954364011e+000,2.5609708037e+000,1.7746965077e+000,2.6661724064e+000,3.4318801184e+000,
2.1750000000e+001,2.9651923088e+000,2.9349037677e+000,2.7161585203e+000,2.6478012394e+000,2.6418807127e+000,3.1349809306e+000,2.6141172253e+000,3.6171383817e+000,2.2450531196e+000,3.0307990912e+000,2.2540950530e+000,1.8593676144e+000,2.4966551746e+000,3.2595675094e+000,
2.1843750000e+001,2.9564990003e+000,2.9541040428e+000,2.7116182010e+000,2.6634928873e+000,2.6341778988e+000,3.1321943318e+000,2.5970162379e+000,3.6530955002e+000,2.1681894433e+000,3.0582883328e+000,2.2034473994e+000,1.8467177942e+000,2.5508222354e+000,3.1668474562e+000,
2.1937500000e+001,2.9755974219e+000,3.0193619824e+000,2.7297528885e+000,2.7475621917e+000,2.6616008493e+000,3.1036636581e+000,2.5985971344e+000,3.5844074470e+000,2.2140344717e+000,3.0580677388e+000,2.2946262236e+000,1.8454475120e+000,2.6405824430e+000,3.1836609517e+000,
2.2031250000e+001,3.0677331317e+000,3.2237067738e+000,2.8296236663e+000,2.9215674613e+000,2.7384587209e+000,3.1314531978e+000,2.6987531793e+000,3.4785752746e+000,2.1728167829e+000,3.0967660485e+000,2.2890435598e+000,1.8436318618e+000,2.5628845627e+000,3.0490176024e+000,
2.2125000000e+001,2.9602518083e+000,3.1017389926e+000,2.8701767764e+000,2.9303168741e+000,2.7582134687e+000,3.0567899898e+000,2.6828591835e+000,3.5632062528e+000,2.1216668805e+000,3.0613058318e+000,2.2996448917e+000,1.8305487816e+000,2.6000278424e+000,3.0654251808e+000,
2.2218750000e+001,2.9794778698e+000,3.2063237101e+000,2.9227717802e+000,3.0348103220e+000,2.8135490602e+000,2.9679571893e+000,2.6776150629e+000,3.5618495505e+000,2.1426466977e+000,3.0238889588e+000,2.2527368386e+000,1.8888299652e+000,2.6302306444e+000,3.1084563177e+000,
2.2312500000e+001,2.9337093772e+000,3.1744088050e+000,2.8979184691e+000,3.0173707623e+000,2.9122358650e+000,2.9953585952e+000,2.6785625675e+000,3.6475485113e+000,2.1326954098e+000,2.9856217195e+000,2.3674900715e+000,1.6829433777e+000,2.7351982060e+000,3.1447574213e+000,
2.2406250000e+001,2.9415725620e+000,3.1463263306e+000,2.8992000924e+000,3.0439582039e+000,2.9212047812e+000,2.9999070727e+000,2.6079902646e+000,3.6096180175e+000,2.0627835880e+000,2.9152812199e+000,2.4223892980e+000,1.6476222075e+000,2.7812088498e+000,3.0087931945e+000,
2.2500000000e+001,2.8812471440e+000,3.1464869595e+000,2.8243625510e+000,3.0280241537e+000,2.9013408649e+000,2.9572809706e+000,2.4484055659e+000,3.5356852397e+000,1.9815619667e+000,2.8521716047e+000,2.4781391082e+000,1.5390994924e+000,2.7926739289e+000,2.9718135223e+000,
2.2593750000e+001,2.8512133581e+000,3.2050440029e+000,2.7152326215e+000,3.0038958289e+000,2.8511226003e+000,2.8653898497e+000,2.2496894386e+000,3.4788163285e+000,1.9451114207e+000,2.7809109585e+000,2.5339952209e+000,1.2901262239e+000,2.7652630099e+000,2.8999649427e+000,
2.2687500000e+001,2.8900297597e+000,3.2131672388e+000,2.7590292295e+000,3.1096403212e+000,2.7528379002e+000,2.7560407013e+000,2.3295896416e+000,3.3768480931e+000,2.0847605391e+000,2.8767531969e+000,2.5256443235e+000,1.0789783744e+000,2.7687490558e+000,2.9461048151e+000,
2.2781250000e+001,2.9841090064e+000,3.2528413624e+000,2.7488284369e+000,3.1171851147e+000,2.7696520431e+000,2.8551450584e+000,2.3337933563e+000,3.4093093286e+000,2.0058529172e+000,2.8307464105e+000,2.5366646270e+000,1.2008880068e+000,2.6560033045e+000,2.9541942794e+000,
2.2875000000e+001,3.0131009160e+000,3.2236766572e+000,2.7403974030e+000,3.1475336320e+000,2.8149969545e+000,2.9074072540e+000,2.3267275859e+000,3.3948946685e+000,1.9703354922e+000,2.7896038793e+000,2.4620931908e+000,1.2512539886e+000,2.7771858951e+000,2.9406158352e+000,
2.2968750000e+001,2.9264947053e+000,3.0779570290e+000,2.6788936478e+000,3.0204885258e+000,2.7176914831e+000,2.8061605878e+000,2.2382817163e+000,3.3354024961e+000,2.0036547364e+000,2.6543149403e+000,2.5279360621e+000,1.3258469364e+000,2.8148462148e+000,2.9429691311e+000,
2.3062500000e+001,2.9245946555e+000,2.9902520280e+000,2.7555948322e+000,2.9764948126e+000,2.6675232931e+000,2.7925228910e+000,2.2013557939e+000,3.4216542278e+000,2.0426205609e+000,2.5684751526e+000,2.5213241142e+000,1.5017011793e+000,2.8063043240e+000,2.8929157324e+000,
2.3156250000e+001,2.9462900877e+000,2.9429913659e+000,2.5816140365e+000,2.8941021496e+000,2.7153673468e+000,2.7740045725e+000,2.2058905046e+000,3.2348994541e+000,2.0787118800e+000,2.5897668945e+000,2.5527581445e+000,1.7267888891e+000,2.7904822437e+000,2.8830072363e+000,
2.3250000000e+001,2.9703745188e+000,2.8847903730e+000,2.5129730719e+000,2.9734060007e+000,2.6505927492e+000,2.9433991872e+000,2.2246506385e+000,3.1210154128e+000,2.0769736333e+000,2.7697880677e+000,2.5377520356e+000,1.7671541509e+000,2.7743272966e+000,2.8388558728e+000,
2.3343750000e+001,2.9643864741e+000,2.8899101759e+000,2.4983551477e+000,2.9321380524e+000,2.5535037139e+000,2.9662774552e+000,2.1985609641e+000,3.1346357750e+000,2.0894134824e+000,2.7429498916e+000,2.4059809368e+000,1.9040956555e+000,2.6788819608e+000,2.7705661276e+000,
2.3437500000e+001,2.9355061392e+000,2.9506744637e+000,2.4961282803e+000,2.8606855601e+000,2.6294609724e+000,2.9584418883e+000,2.1935495261e+000,3.1618907041e+000,2.1370585011e+000,2.6566465140e+000,2.2216266648e+000,1.9961357989e+000,2.5792046340e+000,2.7071115092e+000,
2.3531250000e+001,2.9632854059e+000,2.9705477650e+000,2.4943715648e+000,2.9080399370e+000,2.7048739184e+000,3.0765277053e+000,2.2012101018e+000,3.1586125765e+000,2.1508780771e+000,2.7295320096e+000,2.2093887209e+000,2.1219997628e+000,2.5382791348e+000,2.7538264660e+000,
2.3625000000e+001,3.0423878437e+000,2.8597386103e+000,2.5485643592e+000,2.9280076615e+000,2.7727332936e+000,3.2008439282e+000,2.4302865426e+000,3.2245366723e+000,2.2929932040e+000,2.7747324574e+000,2.2402236704e+000,2.1744587333e+000,2.6067077445e+000,2.8021095083e+000,
2.3718750000e+001,3.0497928302e+000,2.8791994670e+000,2.5449959706e+000,2.8981580831e+000,2.7348355609e+000,3.2727927048e+000,2.4023022932e+000,3.2118578871e+000,2.2494790405e+000,2.6883982603e+000,2.2374031475e+000,2.2790260322e+000,2.5993279259e+000,2.7924444112e+000,
2.3812500000e+001,2.9825990906e+000,2.8442776619e+000,2.5332540248e+000,2.8633503196e+000,2.7842566823e+000,3.3995948745e+000,2.3945135413e+000,3.2046331202e+000,2.4108832183e+000,2.7343459210e+000,2.3153911997e+000,2.3120136048e+000,2.6819691919e+000,2.7682147367e+000,
2.3906250000e+001,2.9236724171e+000,2.9437792511e+000,2.5401751505e+000,2.8008084714e+000,2.7685428196e+000,3.5835947071e+000,2.4603950259e+000,3.1904175759e+000,2.4706441221e+000,2.7460258101e+000,2.3070276485e+000,2.3806759964e+000,2.5247339397e+000,2.7050453381e+000,
2.4000000000e+001,2.9474848033e+000,2.9728122370e+000,2.4150570687e+000,2.8343314973e+000,2.8085961640e+000,3.9314806890e+000,2.4543988849e+000,3.1659242672e+000,2.4446250902e+000,2.7462453001e+000,2.2159645195e+000,2.4335104917e+000,2.4533933647e+000,2.6532353355e+000,
2.4093750000e+001,2.9552649103e+000,3.0267056937e+000,2.4169147229e+000,2.8281730239e+000,2.7921578862e+000,4.0078829450e+000,2.4477722636e+000,3.2593351910e+000,2.4321205063e+000,2.7819705314e+000,2.2201162096e+000,2.3660736590e+000,2.5485477052e+000,2.7079119828e+000,
2.4187500000e+001,2.8681380566e+000,3.0100016874e+000,2.4481117036e+000,2.7155912396e+000,2.7680683596e+000,4.3153966361e+000,2.4282695847e+000,3.2382074473e+000,2.4412443853e+000,2.8345933353e+000,2.1941421627e+000,2.2432763212e+000,2.5624778021e+000,2.5714049934e+000,
2.4281250000e+001,2.9021765008e+000,3.0987767263e+000,2.5483827320e+000,2.5751101145e+000,2.8139168375e+000,4.3484952061e+000,2.4851167967e+000,3.2446578518e+000,2.4509173112e+000,2.7980923496e+000,2.2282022677e+000,2.1738514014e+000,2.5753740171e+000,2.5816111017e+000,
2.4375000000e+001,2.8910239641e+000,3.0327735091e+000,2.5282208304e+000,2.5530458562e+000,2.7981845994e+000,4.3256318328e+000,2.5184095444e+000,3.2741912059e+000,2.3933568752e+000,2.8321609299e+000,2.2988077685e+000,2.0752918746e+000,2.7095551529e+000,2.5731969552e+000,
2.4468750000e+001,2.9082090234e+000,3.0044216706e+000,2.5793224870e+000,2.5784677824e+000,2.6803514823e+000,4.3192188826e+000,2.5707695766e+000,3.2054699357e+000,2.3694032951e+000,2.8296084714e+000,2.3247675002e+000,1.9658229573e+000,2.7015525421e+000,2.6605489544e+000,
2.4562500000e+001,2.8372912357e+000,3.0355646975e+000,2.5558650365e+000,2.4908845402e+000,2.6280953710e+000,4.3239762333e+000,2.4594892896e+000,3.1448638090e+000,2.2659844879e+000,2.9096724202e+000,2.4018413822e+000,1.9410266922e+000,2.7359446466e+000,2.7017933233e+000,
2.4656250000e+001,2.6854643680e+000,2.9795911011e+000,2.4208999307e+000,2.5003368442e+000,2.5899437076e+000,4.3233623432e+000,2.3155646139e+000,3.1753090485e+000,2.1143968461e+000,2.9029646483e+000,2.3828546373e+000,2.0133217856e+000,2.7865161715e+000,2.7859993076e+000,
2.4750000000e+001,2.5955358895e+000,2.9650956135e+000,2.3628784419e+000,2.4907426292e+000,2.5438917054e+000,4.2577035191e+000,2.3511798296e+000,3.1789424338e+000,2.0648272951e+000,2.9548251216e+000,2.3789119748e+000,1.9353819577e+000,2.7641010096e+000,2.8955626054e+000,
2.4843750000e+001,2.6356091387e+000,2.9379362605e+000,2.3800322095e+000,2.6116587170e+000,2.4865427020e+000,4.1849004604e+000,2.4086810792e+000,3.3093999143e+000,2.0307128352e+000,2.9389082216e+000,2.2291954816e+000,1.9360085365e+000,2.6582796829e+000,2.9245085843e+000,
2.4937500000e+001,2.6943368231e+000,2.9496862680e+000,2.4230546068e+000,2.6761686437e+000,2.5313709860e+000,4.1302180669e+000,2.4385882350e+000,3.2913413379e+000,2.0323136331e+000,2.9515487219e+000,2.2575303684e+000,1.8720383885e+000,2.6671404004e+000,2.9424700460e+000,
2.5031250000e+001,2.7014494606e+000,2.8207102773e+000,2.3434140972e+000,2.6566024325e+000,2.4547430495e+000,3.7734447002e+000,2.4784239552e+000,3.2913810312e+000,2.0663030619e+000,3.1400502304e+000,2.3770400867e+000,1.9464652191e+000,2.5640652534e+000,2.9547258173e+000,
2.5125000000e+001,2.7667971865e+000,2.8187702317e+000,2.3128084532e+000,2.7207256128e+000,2.4966783677e+000,3.5236025765e+000,2.4663121623e+000,3.2349022839e+000,2.0395202785e+000,3.2070109772e+000,2.4331996817e+000,2.0602783909e+000,2.5662357503e+000,3.0004339371e+000,
2.5218750000e+001,2.8556974870e+000,2.8623539272e+000,2.3147273324e+000,2.8826806495e+000,2.5268473381e+000,3.4951036384e+000,2.5944417799e+000,3.3267811153e+000,2.0838090144e+000,3.1715090665e+000,2.5151715876e+000,2.1903047967e+000,2.5837162203e+000,3.0244190718e+000,
2.5312500000e+001,2.8889241598e+000,2.8296121007e+000,2.2939606337e+000,2.9315854670e+000,2.4952717529e+000,3.8144462891e+000,2.6034499091e+000,3.4047951856e+000,2.2393636748e+000,3.1358431625e+000,2.4890003992e+000,2.2770759793e+000,2.4199817558e+000,3.0489657626e+000,
2.5406250000e+001,2.9003478832e+000,2.9322440452e+000,2.3584186192e+000,2.9456889117e+000,2.5666894643e+000,3.8250959552e+000,2.5885397067e+000,3.3989368090e+000,2.2636903146e+000,3.1171717097e+000,2.4434569522e+000,2.3080158386e+000,2.3595776645e+000,3.1052390089e+000,
2.5500000000e+001,2.8954664533e+000,2.8922874883e+000,2.2866712252e+000,2.9847101449e+000,2.5541761541e+000,3.9411485293e+000,2.5343905676e+000,3.4305518502e+000,2.2999765771e+000,3.1680009799e+000,2.3540437471e+000,2.2976612599e+000,2.4176344567e+000,3.1265608349e+000,
2.5593750000e+001,2.9288728301e+000,2.9006571441e+000,2.3048192947e+000,2.9739686004e+000,2.6215365975e+000,3.9228886637e+000,2.5530156072e+000,3.4451143547e+000,2.3138412497e+000,3.0166067908e+000,2.2600088813e+000,2.2444047243e+000,2.3552063485e+000,3.0347045578e+000,
2.5687500000e+001,2.9113664350e+000,2.9054477346e+000,2.3981120241e+000,2.9139275403e+000,2.5859831473e+000,3.8916610147e+000,2.5580633310e+000,3.3459474237e+000,2.3192261394e+000,3.0211350681e+000,2.3841929195e+000,2.3085584736e+000,2.3053492225e+000,3.2552562622e+000,
2.5781250000e+001,2.8917972087e+000,2.9110655847e+000,2.4467956461e+000,2.8712757709e+000,2.6527919106e+000,3.9044362604e+000,2.6140028685e+000,3.4553622025e+000,2.4540401703e+000,2.9910532984e+000,2.4458982092e+000,2.3667691400e+000,2.3096533924e+000,3.1695838733e+000,
2.5875000000e+001,2.8500677742e+000,2.8640047087e+000,2.4554559156e+000,2.9033759901e+000,2.6780570397e+000,3.9105025936e+000,2.5359735034e+000,3.3476892494e+000,2.4019133558e+000,3.0433643623e+000,2.5346787032e+000,2.3262731497e+000,2.3256089181e+000,3.2349675275e+000,
2.5968750000e+001,2.7980640619e+000,2.7547017244e+000,2.3810083003e+000,2.8219666580e+000,2.6672131216e+000,3.9925468024e+000,2.4557876556e+000,3.4569782174e+000,2.3620228610e+000,3.0688558948e+000,2.5444563744e+000,2.2481174982e+000,2.3905311276e+000,3.2311710076e+000,
2.6062500000e+001,2.7875110938e+000,2.7820337496e+000,2.4705722226e+000,2.8303631398e+000,2.7566682218e+000,4.0449147155e+000,2.5356662474e+000,3.5174817981e+000,2.3949562166e+000,2.9114452384e+000,2.4591088587e+000,2.1928646314e+000,2.4516936590e+000,3.2811874761e+000,
2.6156250000e+001,2.7216456505e+000,2.6341681919e+000,2.4137370504e+000,2.7429542230e+000,2.7646107396e+000,4.0293118988e+000,2.4256014268e+000,3.4577520426e+000,2.3638332355e+000,2.8507223429e+000,2.3418686366e+000,2.1090400413e+000,2.4017142356e+000,3.2826071823e+000,
2.6250000000e+001,2.5518621470e+000,2.6143562399e+000,2.3567923484e+000,2.5952801301e+000,2.7418455929e+000,3.7342880726e+000,2.3639190014e+000,3.4112191870e+000,2.3531180343e+000,2.8580828792e+000,2.3741630374e+000,2.0133062737e+000,2.5396187679e+000,3.2968260149e+000,
2.6343750000e+001,2.5417417255e+000,2.5040703930e+000,2.3847628115e+000,2.5574096809e+000,2.7145565947e+000,4.0020161428e+000,2.3479504684e+000,3.3090754183e+000,2.3017973002e+000,2.8964760393e+000,2.4599806291e+000,2.0446330289e+000,2.6653434747e+000,3.2943899539e+000,
2.6437500000e+001,3.0846299233e+000,2.9379238166e+000,2.6182061882e+000,2.8280108338e+000,3.0342782243e+000,4.1895907762e+000,2.6676785526e+000,3.4269027522e+000,2.4695620174e+000,2.9725006300e+000,2.5302652846e+000,2.0902552558e+000,2.7547945473e+000,3.3176786818e+000,
2.6531250000e+001,3.0233324290e+000,2.9595391441e+000,2.5699332627e+000,2.7478751248e+000,3.0031469676e+000,4.2758960517e+000,2.6774107888e+000,3.5202665790e+000,2.5677725327e+000,2.9685677823e+000,2.5288638011e+000,2.2129289973e+000,2.6843835697e+000,3.3064358001e+000,
2.6625000000e+001,3.0355660605e+000,2.9442437961e+000,2.5941523156e+000,2.8180692186e+000,2.9855897162e+000,4.4272528883e+000,2.6717513318e+000,3.4975805519e+000,2.6128225483e+000,3.0034496369e+000,2.4661548524e+000,2.2160300437e+000,2.7617934070e+000,3.3102257841e+000,
2.6718750000e+001,3.0792534582e+000,2.9115840993e+000,2.6524521108e+000,2.8068460172e+000,3.0029746561e+000,4.4161010349e+000,2.6182951262e+000,3.6250800396e+000,2.5811130832e+000,2.9674191473e+000,2.3995430657e+000,2.1146586074e+000,2.7751207110e+000,3.1257825811e+000,
2.6812500000e+001,3.0794432661e+000,2.9567982439e+000,2.6163952560e+000,2.7881348560e+000,3.0005584607e+000,4.4286954638e+000,2.5971338141e+000,3.4886605395e+000,2.5228057535e+000,2.9088087845e+000,2.4143044804e+000,2.0501898684e+000,2.7392265996e+000,3.1675892050e+000,
2.6906250000e+001,3.1035005112e+000,3.0588847848e+000,2.6810511159e+000,2.8403735159e+000,2.9810590134e+000,4.4685931189e+000,2.6423070556e+000,3.4911257633e+000,2.5246146270e+000,2.8910719188e+000,2.3596466368e+000,2.1270225478e+000,2.7466587241e+000,3.1607473551e+000,
2.7000000000e+001,3.2355160616e+000,3.1058221936e+000,2.7370512163e+000,2.8944574136e+000,3.0518995334e+000,4.4853553161e+000,2.6557452168e+000,3.5305638946e+000,2.5165632556e+000,2.8438922744e+000,2.3187704210e+000,2.1352163478e+000,2.7354314788e+000,3.1594962048e+000,
2.7093750000e+001,3.1614840289e+000,3.1170471268e+000,2.6337305523e+000,2.8881271397e+000,2.9709789229e+000,4.4441293644e+000,2.5980137969e+000,3.4114788939e+000,2.4872362459e+000,3.0381352602e+000,2.3560072611e+000,2.0632996905e+000,2.7586602036e+000,3.1494275383e+000,
2.7187500000e+001,3.2051128014e+000,3.1684923052e+000,2.6958781761e+000,2.9187851566e+000,3.0236699302e+000,4.4498223610e+000,2.5677104129e+000,3.4888579615e+000,2.4830163514e+000,3.0486816341e+000,2.3804701324e+000,2.0111509877e+000,2.7656079716e+000,3.2173863853e+000,
2.7281250000e+001,3.2971167069e+000,3.2927741300e+000,2.8544862976e+000,2.9476443214e+000,3.2170537828e+000,4.2994435550e+000,2.6813791489e+000,3.4679899879e+000,2.4722372310e+000,3.0752679382e+000,2.3129660511e+000,1.8802200905e+000,2.6604866888e+000,3.2321699825e+000,
2.7375000000e+001,3.2296828334e+000,3.2630229211e+000,2.8494823238e+000,2.8916438816e+000,3.1980356803e+000,4.0821989408e+000,2.7014191014e+000,3.4993404712e+000,2.4730419915e+000,3.0347773454e+000,2.2640472555e+000,1.8478106153e+000,2.6223433374e+000,3.1716500019e+000,
2.7468750000e+001,2.9580109320e+000,3.0179573948e+000,2.8578771137e+000,2.7132288244e+000,3.0955808091e+000,3.8751571501e+000,2.5430314831e+000,3.4529058426e+000,2.4200878592e+000,2.9712177265e+000,2.1888525452e+000,1.6497621646e+000,2.5433103589e+000,3.1351438696e+000,
2.7562500000e+001,2.9905206956e+000,2.9824096218e+000,2.8891060587e+000,2.8282251677e+000,3.0853393698e+000,3.4505083265e+000,2.6112882797e+000,3.3743491614e+000,2.2243763022e+000,3.1888787891e+000,2.1339312140e+000,1.3567873294e+000,2.5084226346e+000,3.0996631968e+000,
2.7656250000e+001,2.9686544294e+000,3.0175580390e+000,2.8594970739e+000,2.8837028031e+000,3.0726089968e+000,3.4399831362e+000,2.5341686453e+000,3.4681885581e+000,2.1490870179e+000,3.2120802001e+000,2.0843825950e+000,1.0782271702e+000,2.4507871705e+000,3.0415083743e+000,
2.7750000000e+001,2.9768454593e+000,3.1076090235e+000,2.7951328069e+000,2.9243984120e+000,3.0944680744e+000,3.4659733922e+000,2.5420286914e+000,3.3547532838e+000,2.2201471933e+000,3.2656180375e+000,2.0848054533e+000,9.9405076819e-001,2.4892317580e+000,3.0253858534e+000,
2.7843750000e+001,2.9525167329e+000,3.1598495842e+000,2.7345835651e+000,2.9039002575e+000,3.0715030525e+000,3.2958706508e+000,2.5020653290e+000,3.4160973092e+000,2.2577690649e+000,3.2620893286e+000,2.2672685613e+000,9.3739363834e-001,2.6154260517e+000,3.0221276051e+000,
2.7937500000e+001,2.9959483545e+000,3.1327590896e+000,2.8233012287e+000,2.9668404788e+000,3.0786464534e+000,3.1559946562e+000,2.4905283932e+000,3.3828017665e+000,2.3164472003e+000,3.2312336524e+000,2.2863503810e+000,6.3660116741e-001,2.6142690535e+000,3.0500247361e+000,
2.8031250000e+001,2.7820780737e+000,3.1094230844e+000,2.8446181019e+000,2.8984667941e+000,3.0290514913e+000,3.0786505490e+000,2.4173466478e+000,3.3160232295e+000,2.2417287065e+000,3.1201909185e+000,2.2624709579e+000,5.8735263183e-001,2.6238172372e+000,3.1130085385e+000,
2.8125000000e+001,2.7482792407e+000,3.0557271084e+000,2.8606453900e+000,2.8837564317e+000,2.9947099568e+000,3.1155424359e+000,2.4340715001e+000,3.4175654142e+000,2.2355813806e+000,2.9510235905e+000,2.1418372332e+000,5.6957419507e-001,2.5762406372e+000,3.0256743131e+000,
2.8218750000e+001,2.7786050710e+000,3.1065061173e+000,2.7998478598e+000,2.9438374561e+000,2.9486540511e+000,3.0576573395e+000,2.4549591611e+000,3.3848282117e+000,2.2445964294e+000,2.9761268078e+000,2.1526027328e+000,4.9228895421e-001,2.6900630782e+000,3.0779723406e+000,
2.8312500000e+001,2.7558259900e+000,3.0079807469e+000,2.6840475921e+000,2.9760057555e+000,2.6548378767e+000,3.1429676565e+000,2.3740634042e+000,3.4203184106e+000,2.2855763868e+000,3.0336123660e+000,2.2393308100e+000,4.6882984475e-001,2.6697325956e+000,3.0839816643e+000,
2.8406250000e+001,2.9420387202e+000,3.1232685869e+000,2.7470457601e+000,3.1565932898e+000,2.7495243957e+000,3.1803191923e+000,2.5217200085e+000,3.3720751848e+000,2.3625832881e+000,3.1203402724e+000,2.3107319153e+000,4.8969880453e-001,2.6635323601e+000,3.0930327153e+000,
2.8500000000e+001,2.9306454452e+000,3.1687934227e+000,2.7629388782e+000,3.2219641027e+000,2.6082710698e+000,3.0049214530e+000,2.3842991616e+000,3.3508329873e+000,2.3479606361e+000,3.0078028798e+000,2.4141648206e+000,4.9856378413e-001,2.7767071140e+000,3.1836897942e+000,
2.8593750000e+001,2.8959180730e+000,3.1721595072e+000,2.8194267211e+000,3.1466912032e+000,2.6616914628e+000,2.9581272309e+000,2.3385242860e+000,3.4342364270e+000,2.3291751194e+000,2.8108888689e+000,2.4888695107e+000,4.7447116845e-001,2.7807774036e+000,3.1934121025e+000,
2.8687500000e+001,2.8654054131e+000,3.1024248249e+000,2.8456165906e+000,3.1371097729e+000,2.6780863843e+000,2.8941385773e+000,2.3452960071e+000,3.4882739536e+000,2.3351430860e+000,2.7975036541e+000,2.5164977357e+000,4.8305114929e-001,2.8005522905e+000,3.2328577893e+000,
2.8781250000e+001,2.8686923030e+000,3.0578412432e+000,2.8493235181e+000,3.1198314111e+000,2.6833144697e+000,2.8874473269e+000,2.4609157439e+000,3.5587823813e+000,2.2507884985e+000,2.7330382596e+000,2.5050611496e+000,5.4537988183e-001,2.7777710603e+000,3.1982859585e+000,
2.8875000000e+001,2.8787266641e+000,2.9165546611e+000,2.7968471722e+000,3.1042384982e+000,2.6159311414e+000,2.8695034398e+000,2.4797015950e+000,3.5762931719e+000,2.1686134292e+000,2.7176934821e+000,2.4345020141e+000,1.0905509786e+000,2.6276027308e+000,3.1246037229e+000,
2.8968750000e+001,2.8743297685e+000,2.8944544064e+000,2.8014864415e+000,3.0682103861e+000,2.5999036932e+000,2.8441359585e+000,2.5034166727e+000,3.5546387283e+000,2.0961275769e+000,2.8230279760e+000,2.4485453353e+000,1.3181109438e+000,2.6240421721e+000,3.1429792707e+000,
2.9062500000e+001,2.9635390162e+000,2.9095516334e+000,2.7482197707e+000,3.0760935914e+000,2.6711212143e+000,2.7768100944e+000,2.5283590499e+000,3.6320633998e+000,2.1501086502e+000,2.8823646689e+000,2.4948754360e+000,1.3250290520e+000,2.6083727940e+000,3.1151608152e+000,
2.9156250000e+001,2.9769143027e+000,2.8554233140e+000,2.7620715646e+000,3.0455723307e+000,2.7018624646e+000,2.8101719034e+000,2.6055759709e+000,3.5363408201e+000,2.3644423264e+000,2.8883261418e+000,2.5517445072e+000,1.4691933739e+000,2.6014069036e+000,3.0057984236e+000,
2.9250000000e+001,2.9235892796e+000,2.7291672900e+000,2.7573108683e+000,2.9364613135e+000,2.8064418345e+000,2.8061102015e+000,2.5219873136e+000,3.5298511708e+000,2.3973439205e+000,2.8011219628e+000,2.5681537580e+000,1.5280643935e+000,2.4965298216e+000,2.9947432554e+000,
2.9343750000e+001,2.9819506411e+000,2.8113038148e+000,2.8644008641e+000,3.0048078085e+000,2.8083132671e+000,2.8232313122e+000,2.5081262630e+000,3.6232806542e+000,2.2780796669e+000,2.9419878462e+000,2.4502544090e+000,1.5837785387e+000,2.4237528616e+000,3.0349624295e+000,
2.9437500000e+001,2.9129360112e+000,2.7022214810e+000,2.7713883440e+000,2.8320129933e+000,2.8355257144e+000,2.7584626829e+000,2.3993206844e+000,3.6152158392e+000,2.3166785535e+000,2.8976217404e+000,2.4649871964e+000,1.8213472688e+000,2.3837735814e+000,3.0349999279e+000,
2.9531250000e+001,2.9599477821e+000,2.7452096151e+000,2.7226607203e+000,2.8442770380e+000,2.8394461896e+000,2.8663971105e+000,2.4311426383e+000,3.6213226227e+000,2.2884989561e+000,2.9568879502e+000,2.4077997624e+000,1.9201215303e+000,2.2949257714e+000,2.9034104285e+000,
2.9625000000e+001,3.0349641655e+000,2.7387346377e+000,2.6864193241e+000,2.7987339426e+000,2.8424208191e+000,2.8367752946e+000,2.4348805448e+000,3.4328099598e+000,2.3219102340e+000,2.9522991876e+000,2.4292196922e+000,1.9334518105e+000,2.2802131097e+000,2.8056935657e+000,
2.9718750000e+001,3.2888212835e+000,2.9630936955e+000,2.7928972156e+000,2.8956693855e+000,2.9173057877e+000,3.0048442150e+000,2.5641530472e+000,3.3588971989e+000,2.3148517794e+000,2.9935326332e+000,2.4843033653e+000,1.9436673400e+000,2.4195860470e+000,2.8235196803e+000,
2.9812500000e+001,3.2678590776e+000,2.9288134818e+000,2.8650694319e+000,2.8969929754e+000,2.9262581624e+000,3.0176112034e+000,2.5122890313e+000,3.5035086628e+000,2.3306671206e+000,2.9420616458e+000,2.5128683986e+000,1.8406626613e+000,2.4912762169e+000,2.9223913539e+000,
2.9906250000e+001,3.3039375260e+000,3.0866479559e+000,2.9602559221e+000,2.9698690888e+000,3.0092611352e+000,3.2167535445e+000,2.5816739560e+000,3.4415179972e+000,2.4814955330e+000,3.0080726129e+000,2.5171344315e+000,1.7462571268e+000,2.6379918540e+000,3.0352871878e+000,
3.0000000000e+001,3.3076570605e+000,3.2530037477e+000,2.9321203995e+000,2.9402502738e+000,2.9979361177e+000,3.2482264678e+000,2.5932921294e+000,3.4661605338e+000,2.6301373098e+000,2.9365155989e+000,2.5851070155e+000,1.9296915203e+000,2.6877770374e+000,2.9811875140e+000,
3.0093750000e+001,3.3342124773e+000,3.2722610409e+000,3.0131327343e+000,3.0065408368e+000,2.9994489525e+000,3.4064610988e+000,2.6078242948e+000,3.3573876655e+000,2.6503935506e+000,2.9633909638e+000,2.5514340828e+000,1.9226208391e+000,2.7712532924e+000,3.0456922795e+000,
3.0187500000e+001,3.3560876108e+000,3.3151141974e+000,3.0253993382e+000,3.0521895978e+000,2.9975857649e+000,3.5904976590e+000,2.5908442698e+000,3.3854790690e+000,2.5259222389e+000,2.9597761195e+000,2.6323336203e+000,1.9652791443e+000,2.7194428682e+000,3.0332937101e+000,
3.0281250000e+001,3.2844600755e+000,3.3983595557e+000,3.0053423645e+000,3.0917929716e+000,2.8775735887e+000,3.5770779283e+000,2.5942415928e+000,3.2851476916e+000,2.5684906581e+000,2.9623983921e+000,2.6890795176e+000,1.9935624298e+000,2.7672864313e+000,3.1435290190e+000,
3.0375000000e+001,3.1096732753e+000,3.3505544474e+000,2.9022760346e+000,3.0136488405e+000,2.7664427958e+000,3.5482617338e+000,2.5206863774e+000,3.2127440053e+000,2.5264764575e+000,2.8157093621e+000,2.6554870712e+000,1.8734281752e+000,2.7829994157e+000,3.1289447754e+000,
3.0468750000e+001,3.1193875591e+000,3.3988930412e+000,2.9601268856e+000,3.0502748043e+000,2.7412181208e+000,3.5942349555e+000,2.5802736690e+000,3.2304346986e+000,2.5342114974e+000,2.9126400059e+000,2.6582282695e+000,1.8275820328e+000,2.8381256202e+000,3.1995893462e+000,
3.0562500000e+001,3.1338743941e+000,3.3771669924e+000,2.9695068512e+000,3.0359934271e+000,2.6725915480e+000,3.5583788168e+000,2.6291889492e+000,3.2301395114e+000,2.5338764207e+000,2.9076773289e+000,2.7995315855e+000,1.9326686005e+000,2.9891882135e+000,3.2382129281e+000,
3.0656250000e+001,3.0790275084e+000,3.3205624425e+000,2.9174529709e+000,3.0524145705e+000,2.6441845520e+000,3.7161958082e+000,2.5919414857e+000,3.2872594944e+000,2.5112607278e+000,2.9364118355e+000,2.7458632917e+000,1.9476657483e+000,3.0086712633e+000,3.2576338547e+000,
3.0750000000e+001,2.7859957808e+000,3.2276174008e+000,2.7971651017e+000,2.9000026043e+000,2.4836128405e+000,3.9116136538e+000,2.4315241207e+000,3.1870458068e+000,2.5278993479e+000,2.8947400858e+000,2.6812373554e+000,1.9409940858e+000,2.8987924151e+000,3.1727462938e+000,
3.0843750000e+001,2.8444952539e+000,3.1853131636e+000,2.7954128122e+000,2.9469716062e+000,2.6925152586e+000,3.9547292789e+000,2.4782838387e+000,3.1684874104e+000,2.5907317599e+000,3.0046119228e+000,2.7203186231e+000,1.9378084854e+000,2.9378035900e+000,3.2085227487e+000,
3.0937500000e+001,2.8685718322e+000,3.0697280786e+000,2.7601811288e+000,3.0101335448e+000,2.6075886905e+000,3.9835413284e+000,2.4513949390e+000,3.2316389419e+000,2.5288475969e+000,3.0516700056e+000,2.6436699473e+000,1.7650052662e+000,2.8398799769e+000,3.1708264916e+000,
3.1031250000e+001,2.9231138751e+000,2.9497170163e+000,2.7791999277e+000,3.0105030248e+000,2.6282315082e+000,4.1807064505e+000,2.4802429398e+000,3.2984000990e+000,2.3876065899e+000,3.0027150594e+000,2.5748729886e+000,1.5348338393e+000,2.8466649415e+000,3.1673010268e+000,
3.1125000000e+001,2.8402999122e+000,2.9282883003e+000,2.6542529584e+000,3.0532502754e+000,2.6289692764e+000,4.1516332649e+000,2.4557202021e+000,3.3094148132e+000,2.4180350726e+000,3.0700403896e+000,2.5894107007e+000,1.5331663451e+000,2.8171749448e+000,3.1510545387e+000,
3.1218750000e+001,2.8050439951e+000,2.9056148171e+000,2.6351298472e+000,3.0314412479e+000,2.6145032427e+000,4.2045914705e+000,2.4299214369e+000,3.2617988029e+000,2.3618945922e+000,3.0512158279e+000,2.4608835194e+000,1.5810053495e+000,2.8533836173e+000,3.1233400986e+000,
3.1312500000e+001,2.8051693107e+000,2.6204876819e+000,2.5394787474e+000,2.9631188092e+000,2.6334010852e+000,4.3069326049e+000,2.3538648923e+000,3.3184080631e+000,2.2410509536e+000,2.9608451166e+000,2.4935342836e+000,1.5683403000e+000,2.7581698916e+000,2.9127799644e+000,
3.1406250000e+001,2.9412996917e+000,2.5853796592e+000,2.5152524680e+000,2.8948751488e+000,2.7119727487e+000,4.3250227464e+000,2.3472931270e+000,3.3411685150e+000,2.2797131916e+000,3.0282470355e+000,2.5360080372e+000,1.7024296914e+000,2.7664149835e+000,2.9112168736e+000,
3.1500000000e+001,2.8799481553e+000,2.6012617011e+000,2.3712437571e+000,2.8697358914e+000,2.6918028035e+000,4.2991001343e+000,2.4111678389e+000,3.2942982737e+000,2.3387573936e+000,2.9142323281e+000,2.3751101436e+000,1.5859733857e+000,2.5725825979e+000,2.8748085318e+000,
3.1593750000e+001,2.8146343957e+000,2.6104675436e+000,2.3776198141e+000,2.9434819052e+000,2.7100399869e+000,4.2987555410e+000,2.3131938141e+000,3.4547078599e+000,2.3875544829e+000,2.8774758497e+000,2.2162325643e+000,1.5339222129e+000,2.5289987339e+000,2.8227607704e+000,
3.1687500000e+001,2.7875026469e+000,2.5372073643e+000,2.3568995379e+000,2.9289194987e+000,2.7756636358e+000,4.0768005095e+000,2.3068024185e+000,3.3516802239e+000,2.4140041392e+000,2.9297450316e+000,2.4020165010e+000,1.5959158983e+000,2.6829394977e+000,2.8217933958e+000,
3.1781250000e+001,2.7628662435e+000,2.5255005852e+000,2.2575418669e+000,2.9295632921e+000,2.7519620461e+000,3.9972824494e+000,2.3558536420e+000,3.4149278416e+000,2.4010374460e+000,2.8937681896e+000,2.5517447551e+000,1.5960488136e+000,2.8037253545e+000,2.7041355841e+000,
3.1875000000e+001,2.7244167204e+000,2.4949619077e+000,2.2880960126e+000,2.8322007947e+000,2.7005627375e+000,3.9647561316e+000,2.3449775491e+000,3.4261686350e+000,2.4180521579e+000,2.8091795099e+000,2.5795218948e+000,1.7476606439e+000,2.8735192879e+000,2.7414694496e+000,
3.1968750000e+001,2.6442277952e+000,2.5966646797e+000,2.4030789711e+000,2.9330510213e+000,2.8081100703e+000,3.7295456156e+000,2.4282699855e+000,3.3386209815e+000,2.5638143842e+000,2.7144210405e+000,2.7104936525e+000,1.9415704631e+000,2.9028695407e+000,2.7030520158e+000,
3.2062500000e+001,2.6521723508e+000,2.7644981952e+000,2.3996137701e+000,2.8697439482e+000,2.7351557510e+000,3.6211907656e+000,2.4139729101e+000,3.3744515876e+000,2.4973664708e+000,2.6243069253e+000,2.7042325159e+000,2.0389022908e+000,2.8952177081e+000,2.7391073773e+000,
3.2156250000e+001,2.7478836791e+000,2.9781640407e+000,2.5870975666e+000,2.9692259540e+000,2.8502182823e+000,3.6551279937e+000,2.5435375508e+000,3.3461543112e+000,2.7577715605e+000,2.7043184683e+000,2.8763534649e+000,2.1506074802e+000,3.0395719680e+000,2.8749237893e+000,
3.2250000000e+001,3.3251919797e+000,3.4902333369e+000,3.3748134184e+000,3.7224039584e+000,3.3044576371e+000,3.2867664394e+000,3.3938847826e+000,3.2995838112e+000,3.4289020587e+000,3.8572627980e+000,3.3928407963e+000,2.1829945525e+000,3.4518652248e+000,3.5933335753e+000,
3.2343750000e+001,3.2871558588e+000,3.5308307091e+000,3.4464143355e+000,3.7240900115e+000,3.3462454392e+000,3.1404687728e+000,3.4380416146e+000,3.2741721873e+000,3.5046258691e+000,3.8790985685e+000,3.3717860510e+000,2.1868372139e+000,3.4932014220e+000,3.6498918168e+000,
3.2437500000e+001,3.3248116266e+000,3.5431460505e+000,3.4240124697e+000,3.7480802433e+000,3.2993015866e+000,3.1307832616e+000,3.4033012601e+000,3.4381587490e+000,3.4785246695e+000,3.8868765287e+000,3.3690391147e+000,2.1835767499e+000,3.5214469708e+000,3.5986850117e+000,
3.2531250000e+001,3.4161585817e+000,3.5123939839e+000,3.4421999822e+000,3.7558778225e+000,3.3629000811e+000,3.1567659064e+000,3.4282174885e+000,3.5041978133e+000,3.4745249097e+000,3.8961707672e+000,3.3846024568e+000,2.1965405745e+000,3.5054559281e+000,3.6209561613e+000,
3.2625000000e+001,3.4949541031e+000,3.5857831034e+000,3.5021596162e+000,3.7845921841e+000,3.3912357105e+000,3.2289360741e+000,3.4612643440e+000,3.3757003708e+000,3.4869936354e+000,3.8499402888e+000,3.3787056781e+000,2.3061498126e+000,3.5038744326e+000,3.6629430423e+000,
3.2718750000e+001,3.5362675213e+000,3.6062551732e+000,3.5316759865e+000,3.7991703955e+000,3.3446366100e+000,3.2125816756e+000,3.4568987146e+000,3.3284052840e+000,3.4879503806e+000,3.8602474160e+000,3.3369579868e+000,2.3227333925e+000,3.3341915189e+000,3.6394755475e+000,
3.2812500000e+001,3.5497813308e+000,3.6780897212e+000,3.5454707997e+000,3.7880629648e+000,3.4636735288e+000,3.1096574693e+000,3.4697348846e+000,3.2855979482e+000,3.5400598979e+000,3.8527582221e+000,3.2796631544e+000,2.3368600889e+000,3.3082562388e+000,3.6571756812e+000,
3.2906250000e+001,3.5197677806e+000,3.7173876446e+000,3.5765493535e+000,3.8234730423e+000,3.3631358732e+000,3.0450668201e+000,3.4397369262e+000,3.2438533133e+000,3.5265002940e+000,3.8933453028e+000,3.2589085042e+000,2.1976587352e+000,3.2423124166e+000,3.6714855718e+000,
3.3000000000e+001,3.5447385928e+000,3.6617877895e+000,3.5581471885e+000,3.8391967928e+000,3.3894328143e+000,3.3148050537e+000,3.4787112672e+000,3.2845879637e+000,3.5463134013e+000,3.9584899059e+000,3.3074117751e+000,2.2071281793e+000,3.3018186634e+000,3.7269448309e+000,
3.3093750000e+001,3.6284797773e+000,3.7198804709e+000,3.6437056053e+000,3.8987479617e+000,3.4802965874e+000,3.3465461285e+000,3.5399843934e+000,3.2577745497e+000,3.6160804715e+000,3.9931643416e+000,3.4074042944e+000,2.1488949965e+000,3.3950666664e+000,3.7441618028e+000,
3.3187500000e+001,3.5275180348e+000,3.5110525346e+000,3.4714745277e+000,3.7035143334e+000,3.3150284790e+000,3.2049140304e+000,3.4004774827e+000,3.2951241668e+000,3.3865156346e+000,3.8133452634e+000,3.1578514287e+000,2.1564645628e+000,3.1784249669e+000,3.4868043300e+000,
3.3281250000e+001,3.2285943684e+000,3.1347481690e+000,3.0121158939e+000,3.2796478662e+000,3.0290314358e+000,3.2028911738e+000,2.8098534807e+000,3.3010647495e+000,2.9105486618e+000,3.0525073070e+000,2.7716844428e+000,1.9991518559e+000,2.8957467133e+000,3.0736876339e+000,
3.3375000000e+001,3.2095191899e+000,3.1275156640e+000,2.9517480993e+000,3.2746094126e+000,3.1029422485e+000,3.3079764074e+000,2.7943607590e+000,3.1269144329e+000,2.8465715433e+000,3.0567249291e+000,2.7554671917e+000,1.9980596004e+000,2.8794216367e+000,3.0564617253e+000,
3.3468750000e+001,3.1248944328e+000,3.1920990343e+000,2.9663849916e+000,3.2044361894e+000,3.1274662412e+000,3.3824384355e+000,2.8351785926e+000,3.0628881700e+000,2.8964833657e+000,3.0632172483e+000,2.7846031001e+000,2.0752511419e+000,2.8282600564e+000,3.0530711168e+000,
3.3562500000e+001,3.1009472005e+000,3.2173418094e+000,3.0330974936e+000,3.1735051229e+000,3.1672881767e+000,3.3727149797e+000,2.8177389186e+000,3.1084927736e+000,2.9099280465e+000,3.1312752784e+000,2.7869086381e+000,2.0668077712e+000,2.8540123852e+000,3.0653584242e+000,
3.3656250000e+001,3.0949433621e+000,3.1784134508e+000,2.9849260927e+000,3.1268891703e+000,3.1586542136e+000,3.4262641223e+000,2.8274672579e+000,3.1384985522e+000,2.9104209607e+000,3.1744390823e+000,2.7865341329e+000,2.1345181099e+000,2.7820543450e+000,3.0418490383e+000,
3.3750000000e+001,3.2867625911e+000,3.2571348165e+000,3.0541500366e+000,3.2060603911e+000,3.1817948734e+000,3.4655424765e+000,2.9193155517e+000,3.1950583724e+000,2.9694918577e+000,3.3451532334e+000,2.9296214636e+000,2.1572435951e+000,2.8818096538e+000,3.0742217709e+000,
3.3843750000e+001,3.4515949246e+000,3.3646040655e+000,3.2985517756e+000,3.4030312898e+000,3.2947317395e+000,3.5066982661e+000,3.1905348567e+000,3.2210298526e+000,3.0596390790e+000,3.5573489429e+000,3.0847337009e+000,2.2259106016e+000,3.0595393824e+000,3.2154472103e+000,
3.3937500000e+001,3.5640514778e+000,3.3890392115e+000,3.3726175039e+000,3.4308297677e+000,3.4139543499e+000,3.5333966650e+000,3.2357706987e+000,3.1865357417e+000,3.0784093083e+000,3.4911479574e+000,3.0975134342e+000,2.2774700369e+000,3.1682793206e+000,3.2425642488e+000,
3.4031250000e+001,3.4994611543e+000,3.2806691305e+000,3.3067794960e+000,3.3959042690e+000,3.3986725179e+000,3.2449570463e+000,3.2111820591e+000,3.2466029265e+000,3.0209665832e+000,3.5454154578e+000,3.0232785294e+000,2.3121935467e+000,3.1041016611e+000,3.2366002150e+000,
3.4125000000e+001,3.4309242293e+000,3.2691163053e+000,3.2715872129e+000,3.3818773855e+000,3.3535555067e+000,3.3071229893e+000,3.1557873202e+000,3.2449207558e+000,2.9652201349e+000,3.4913601673e+000,2.8924880602e+000,2.3852004140e+000,3.0304370973e+000,3.2217599016e+000,
3.4218750000e+001,3.4276046056e+000,3.3022009371e+000,3.2494465538e+000,3.3628023226e+000,3.3654563309e+000,3.3171329142e+000,3.0850000491e+000,3.2694105588e+000,2.9518743205e+000,3.4457780661e+000,2.8526411189e+000,2.3213592629e+000,2.9673896122e+000,3.1931109474e+000,
3.4312500000e+001,3.4320378852e+000,3.2925568004e+000,3.2784909657e+000,3.3943580570e+000,3.2923910556e+000,3.2195771674e+000,3.0804496499e+000,3.3318064704e+000,2.9550654391e+000,3.4496303653e+000,2.8466784289e+000,2.3482778689e+000,2.9736917881e+000,3.2043944399e+000,
3.4406250000e+001,3.4162108585e+000,3.2210236806e+000,3.2822177292e+000,3.3913292554e+000,3.2350384767e+000,3.1295840314e+000,3.0483425763e+000,3.2572943358e+000,2.8957895801e+000,3.4514367467e+000,2.8286017337e+000,2.4304946436e+000,2.9602047730e+000,3.2402383552e+000,
3.4500000000e+001,3.3945229490e+000,3.1868244076e+000,3.2771585872e+000,3.3766626568e+000,3.2637878869e+000,3.0541624408e+000,3.0379661701e+000,3.3461462957e+000,2.8771610682e+000,3.4608695568e+000,2.7882869744e+000,2.4766903983e+000,2.9808061825e+000,3.2878168208e+000,
3.4593750000e+001,3.3723178607e+000,3.1673906807e+000,3.2266771032e+000,3.3511738595e+000,3.2001680688e+000,2.9750549582e+000,2.9965660196e+000,3.2420944279e+000,2.7771279852e+000,3.4482604044e+000,2.7593692649e+000,2.4256253552e+000,2.9341798634e+000,3.2785504339e+000,
3.4687500000e+001,3.2729463480e+000,3.1066410712e+000,3.1748177312e+000,3.3711009864e+000,3.1712736450e+000,2.9955190657e+000,2.9544120780e+000,3.2422929255e+000,2.8178479803e+000,3.4581984733e+000,2.6675179992e+000,2.3925494571e+000,2.9239512980e+000,3.2756107493e+000,
3.4781250000e+001,3.0554099607e+000,2.9250513879e+000,3.0519365401e+000,3.2778219388e+000,3.0564045897e+000,3.0320077248e+000,2.8584011506e+000,3.3918628978e+000,2.6795135075e+000,3.4159274810e+000,2.6023906601e+000,2.4283181925e+000,2.9328141645e+000,3.3165005825e+000,
3.4875000000e+001,2.8673924477e+000,2.8778963777e+000,2.7165071114e+000,3.1396021674e+000,2.8275809398e+000,2.9797419208e+000,2.4585838658e+000,3.3965306192e+000,2.5266023614e+000,3.2194127183e+000,2.5317010889e+000,2.3776137241e+000,2.8313506889e+000,3.2655119041e+000,
3.4968750000e+001,2.6731886767e+000,2.8218368517e+000,2.4693798734e+000,2.8061226136e+000,2.6232152010e+000,2.9513952716e+000,2.2586627260e+000,3.4873665418e+000,2.3047893345e+000,3.0822941233e+000,2.2942373742e+000,2.2603398578e+000,2.5456394844e+000,3.1591930042e+000,
3.5062500000e+001,2.6223334597e+000,2.8699978620e+000,2.4166988933e+000,2.7654603996e+000,2.5746109445e+000,3.0032923472e+000,2.0695115984e+000,3.4837769107e+000,2.2126084557e+000,3.0206888984e+000,2.1899312572e+000,2.1738040123e+000,2.5957244662e+000,3.1453672372e+000,
3.5156250000e+001,2.5996401396e+000,2.7691441405e+000,2.4364011472e+000,2.7631459342e+000,2.6060946722e+000,3.0659717838e+000,2.0679509048e+000,3.4042875618e+000,2.2098257745e+000,3.0267747696e+000,2.1826686781e+000,2.0681318005e+000,2.6500042307e+000,3.1969099961e+000,
3.5250000000e+001,2.7168664931e+000,2.8066784000e+000,2.3730395978e+000,2.7709237243e+000,2.6985161915e+000,3.0437750986e+000,2.3288056939e+000,3.3784974285e+000,2.2920982166e+000,3.0902067909e+000,2.3943422400e+000,2.0171126291e+000,2.6344960557e+000,3.2780181582e+000,
3.5343750000e+001,2.7185061135e+000,2.8771161955e+000,2.3636528850e+000,2.6077656043e+000,2.6938066528e+000,3.1406704492e+000,2.3328604224e+000,3.3711532053e+000,2.3557548049e+000,3.1475443407e+000,2.4462681186e+000,1.9082759382e+000,2.6504903783e+000,3.3117262850e+000,
3.5437500000e+001,2.7658703687e+000,2.8967295890e+000,2.4414402475e+000,2.7238999926e+000,2.6518198668e+000,3.1516384494e+000,2.3672416873e+000,3.3620270560e+000,2.4911419288e+000,3.1498148979e+000,2.4757990752e+000,1.6691977387e+000,2.6866317036e+000,3.3732900807e+000,
3.5531250000e+001,2.7944251172e+000,2.9205839138e+000,2.3640302505e+000,2.7161498101e+000,2.6410532602e+000,3.1584254269e+000,2.3063373297e+000,3.3983237487e+000,2.4758684852e+000,3.1698717686e+000,2.5059306936e+000,1.4695260189e+000,2.7312396488e+000,3.3502060370e+000,
3.5625000000e+001,2.7209664151e+000,2.8744008100e+000,2.3505226675e+000,2.6359718932e+000,2.5958659434e+000,3.1642785140e+000,2.3472187468e+000,3.3035154881e+000,2.4674661257e+000,3.0127269305e+000,2.5091414193e+000,1.6149648890e+000,2.7064034504e+000,3.3317268758e+000,
3.5718750000e+001,2.7268566213e+000,2.8780770273e+000,2.3247603770e+000,2.6105843201e+000,2.5474261284e+000,3.1685432054e+000,2.3271830369e+000,3.4101701999e+000,2.4272151080e+000,3.0474663564e+000,2.4662635351e+000,1.5603079175e+000,2.7585869890e+000,3.4209256502e+000,
3.5812500000e+001,2.6591456694e+000,2.7602621208e+000,2.1974884674e+000,2.5122387445e+000,2.4757004511e+000,3.1770746714e+000,2.2752993296e+000,3.3681579623e+000,2.3091957585e+000,2.9820093190e+000,2.3419129092e+000,1.4307952249e+000,2.7300940502e+000,3.3628301501e+000,
3.5906250000e+001,2.5965669660e+000,2.7867097713e+000,2.3310653479e+000,2.5419689362e+000,2.4143959109e+000,3.2711039049e+000,2.2858823745e+000,3.2703478370e+000,2.3484552901e+000,3.1164672063e+000,2.3363580081e+000,1.4788867794e+000,2.7351057086e+000,3.3244456492e+000,
3.6000000000e+001,2.7897972035e+000,2.9090550672e+000,2.4072073995e+000,2.7073139987e+000,2.4272654969e+000,3.2798635458e+000,2.3812126294e+000,3.2421132931e+000,2.4405167551e+000,3.2090269704e+000,2.3907917749e+000,1.5370719216e+000,2.7274560276e+000,3.4147226535e+000,
3.6093750000e+001,2.8350354571e+000,2.8525595375e+000,2.4273910334e+000,2.7300664032e+000,2.4669776268e+000,3.2224324371e+000,2.4439066598e+000,3.1621097492e+000,2.4283606894e+000,3.1848143674e+000,2.4574543076e+000,1.5803799388e+000,2.7124031958e+000,3.3811510778e+000,
3.6187500000e+001,2.8398726976e+000,2.8952352642e+000,2.5031915808e+000,2.7996705715e+000,2.5530029685e+000,3.1448985606e+000,2.5128304879e+000,3.2369216204e+000,2.5093614217e+000,3.1997974988e+000,2.5366448519e+000,1.6668651049e+000,2.7231643196e+000,3.3670016921e+000,
3.6281250000e+001,2.6227867041e+000,2.8284632793e+000,2.5011752939e+000,2.7728345745e+000,2.5213818401e+000,3.0520222436e+000,2.3168134675e+000,3.2078986055e+000,2.4845115433e+000,3.0948115021e+000,2.3856073331e+000,1.7237102204e+000,2.6771957523e+000,3.2487662167e+000,
3.6375000000e+001,2.6697052255e+000,2.8145775660e+000,2.4438769408e+000,2.7447520217e+000,2.4927611458e+000,3.0183810395e+000,2.3754755385e+000,3.1872565395e+000,2.3468577777e+000,3.0066908607e+000,2.3737343345e+000,1.6480927535e+000,2.6734119104e+000,3.1989769751e+000,
3.6468750000e+001,2.7588905747e+000,2.7447083706e+000,2.4395437242e+000,2.7497867970e+000,2.4457346000e+000,3.1177365148e+000,2.3483408192e+000,3.2829359430e+000,2.3726178403e+000,3.0452233343e+000,2.3870138417e+000,1.6343594231e+000,2.7043987728e+000,3.2057338057e+000,
3.6562500000e+001,2.8210222842e+000,2.7000555002e+000,2.5076883290e+000,2.8488048928e+000,2.5699990788e+000,3.1487284309e+000,2.3935570904e+000,3.2386469282e+000,2.3794386474e+000,3.1247945867e+000,2.3616228399e+000,1.5247577857e+000,2.6381524040e+000,3.1816019593e+000,
3.6656250000e+001,2.9369222750e+000,2.8061793392e+000,2.7022152296e+000,3.0576136056e+000,2.7012161767e+000,3.4024232522e+000,2.3543850775e+000,3.3171021910e+000,2.3178030223e+000,3.2278440870e+000,2.4151345666e+000,1.3132211458e+000,2.6921166580e+000,3.2645616958e+000,
3.6750000000e+001,2.9642173371e+000,2.7916226848e+000,2.6907284089e+000,3.0782490035e+000,2.8108190303e+000,3.5318002959e+000,2.4252791682e+000,3.1675840284e+000,2.3284392675e+000,3.1673422800e+000,2.3999496590e+000,1.3088985040e+000,2.5714007082e+000,3.1968657021e+000,
3.6843750000e+001,3.0032808881e+000,2.6965742124e+000,2.6988314434e+000,3.1125190386e+000,2.8196084022e+000,3.5112631556e+000,2.3737219476e+000,3.1752733100e+000,2.2746081050e+000,3.0342860333e+000,2.3198935592e+000,1.3621882693e+000,2.5148042001e+000,3.1585739292e+000,
3.6937500000e+001,2.9279713065e+000,2.5055600530e+000,2.6032410258e+000,3.0499740656e+000,2.9220506412e+000,3.6218505452e+000,2.3244688074e+000,3.2425509745e+000,2.1575343682e+000,2.9097412622e+000,2.2351398900e+000,1.3520063503e+000,2.4610441266e+000,3.1330081229e+000,
3.7031250000e+001,2.9081849298e+000,2.5181861826e+000,2.6554421020e+000,3.0461882223e+000,2.8772705507e+000,3.6653116497e+000,2.4411211829e+000,3.2715896349e+000,2.2840111331e+000,2.9300900387e+000,2.2471731920e+000,1.3864768570e+000,2.4159675057e+000,3.1284009330e+000,
3.7125000000e+001,3.1345661195e+000,2.7560687808e+000,2.8560753371e+000,3.1998483762e+000,3.0466078870e+000,4.1114469661e+000,2.4764177946e+000,3.3720513521e+000,2.3639637749e+000,3.1184698169e+000,2.4140303199e+000,1.4700100677e+000,2.3558276803e+000,3.2276281218e+000,
3.7218750000e+001,3.1805019659e+000,2.8333996418e+000,2.8887025389e+000,3.2228179197e+000,3.0134361141e+000,4.2397176674e+000,2.4159099204e+000,3.3423221663e+000,2.3414714475e+000,3.1656382180e+000,2.3550605471e+000,1.3684978308e+000,2.3857383204e+000,3.2496617957e+000,
3.7312500000e+001,3.2009113509e+000,2.8922229916e+000,2.8333319039e+000,3.1866545956e+000,2.9867064678e+000,4.2600357514e+000,2.3814984729e+000,3.4063507670e+000,2.3229952383e+000,3.1714898974e+000,2.3804081005e+000,1.2930931693e+000,2.3298501188e+000,3.2432435000e+000,
3.7406250000e+001,3.1789296075e+000,2.9629690859e+000,2.9578976905e+000,3.2102835188e+000,2.9975144137e+000,4.2544316317e+000,2.3615208847e+000,3.3907092760e+000,2.2092162699e+000,3.1707846630e+000,2.2844942187e+000,1.2952672899e+000,2.2161870011e+000,3.1765399970e+000,
3.7500000000e+001,3.2277994011e+000,3.0326043327e+000,3.0122354688e+000,3.2628034072e+000,3.0104493962e+000,4.3003426976e+000,2.3961125869e+000,3.2474113255e+000,2.2652266105e+000,3.1462530084e+000,2.2713978842e+000,1.5183211256e+000,2.2310905737e+000,3.1283585315e+000,
3.7593750000e+001,3.1751710219e+000,2.9979518356e+000,3.0009883177e+000,3.2291704532e+000,2.9054380200e+000,4.4054049680e+000,2.3566978275e+000,3.2976159078e+000,2.3063874735e+000,3.0071225010e+000,2.2294409735e+000,1.5197544895e+000,2.1674869119e+000,3.0532806712e+000,
3.7687500000e+001,3.2424042453e+000,3.0689527620e+000,2.9696223391e+000,3.1995320655e+000,2.8533999610e+000,4.3419830529e+000,2.4075556304e+000,3.2670415343e+000,2.3791545672e+000,2.9786403671e+000,2.2457681234e+000,1.7515878851e+000,2.1344251676e+000,2.9467280229e+000,
3.7781250000e+001,3.2786008289e+000,3.1025051109e+000,3.0182412919e+000,3.2395210037e+000,2.8169101923e+000,4.3402992642e+000,2.4087374558e+000,3.1588531938e+000,2.4375778541e+000,3.0658290975e+000,2.2232140668e+000,1.7993216926e+000,2.1627868664e+000,2.9508942997e+000,
3.7875000000e+001,3.3187163861e+000,3.1790928622e+000,3.0366911942e+000,3.2459284003e+000,2.6981785468e+000,4.3398438191e+000,2.3990406899e+000,3.2542440776e+000,2.5210137643e+000,3.1759585572e+000,2.4014481541e+000,1.8594288586e+000,2.1486751303e+000,3.0524110895e+000,
3.7968750000e+001,3.3433800321e+000,3.2966567543e+000,3.0824347802e+000,3.2767582108e+000,2.6876677364e+000,4.2514809484e+000,2.3682766591e+000,3.1963375379e+000,2.5233231990e+000,3.1635718020e+000,2.4053330234e+000,1.8042110922e+000,2.2456763962e+000,2.9308508016e+000,
3.8062500000e+001,3.1923483284e+000,3.2256823723e+000,2.9028439714e+000,3.1177210077e+000,2.4819703887e+000,4.1226236768e+000,2.1905032198e+000,3.2196817341e+000,2.4074395139e+000,3.0498464267e+000,2.1842816774e+000,1.8930746425e+000,2.2795672624e+000,2.8036663615e+000,
3.8156250000e+001,3.2799896685e+000,3.1753610959e+000,2.9579929126e+000,3.1215124452e+000,2.4888199029e+000,3.7061670088e+000,2.2567407403e+000,3.1409895103e+000,2.4302749158e+000,3.0621459814e+000,2.0954845906e+000,1.9748597322e+000,2.2387918745e+000,2.6873462098e+000,
3.8250000000e+001,3.2883473193e+000,3.2019150047e+000,2.9906646415e+000,3.1178809387e+000,2.5426218160e+000,3.7114921540e+000,2.4903328832e+000,3.0127486438e+000,2.5087316635e+000,3.0198493554e+000,2.0619828211e+000,2.0443868545e+000,2.2206365043e+000,2.7350873599e+000,
3.8343750000e+001,3.3401482183e+000,3.2947623403e+000,3.1191359242e+000,3.2626383515e+000,2.7702327183e+000,3.6839518985e+000,2.7658807429e+000,3.0707376609e+000,2.5627054692e+000,3.0585481778e+000,2.0193164008e+000,2.1022137252e+000,2.2793156827e+000,2.7685307388e+000,
3.8437500000e+001,3.2842254838e+000,3.2406144501e+000,3.0353806987e+000,3.2322970880e+000,2.8545767221e+000,3.7373126410e+000,2.7771336783e+000,3.1182333991e+000,2.5447946697e+000,3.0650417383e+000,1.9378135972e+000,2.0752345984e+000,2.3168228112e+000,2.9076436702e+000,
3.8531250000e+001,3.2532986068e+000,3.2096666939e+000,2.9896958613e+000,3.1557614066e+000,2.8192781904e+000,3.6680931905e+000,2.7734327988e+000,3.1672953274e+000,2.5081855564e+000,3.0273604434e+000,1.9406143832e+000,2.0055943483e+000,2.2918433968e+000,3.1064536931e+000,
3.8625000000e+001,3.2363597230e+000,3.3196231621e+000,2.9640676242e+000,3.1353557363e+000,2.8426317426e+000,3.4452661495e+000,2.8634695572e+000,3.2734313617e+000,2.4609142530e+000,3.1253504606e+000,2.1059969848e+000,2.0840704321e+000,2.3372954219e+000,3.1497754679e+000,
3.8718750000e+001,3.1506580628e+000,3.3031161811e+000,2.9417435597e+000,3.0932695420e+000,2.7932863251e+000,3.3307163572e+000,2.8088201097e+000,3.2040895234e+000,2.4407583499e+000,3.1082779975e+000,2.1036279401e+000,1.9109911878e+000,2.3289031514e+000,3.1492809623e+000,
3.8812500000e+001,3.1536002396e+000,3.3131568129e+000,2.9785472184e+000,3.0729675467e+000,2.7967791723e+000,3.3986635447e+000,2.7943952521e+000,3.2917658497e+000,2.4036808028e+000,3.0551676598e+000,2.0672782842e+000,1.8678550921e+000,2.3729256085e+000,3.2169770739e+000,
3.8906250000e+001,3.2485527542e+000,3.3559044750e+000,3.0596600569e+000,3.2259480381e+000,2.9694899460e+000,3.6432467603e+000,2.8729432057e+000,3.2033229787e+000,2.3638057732e+000,3.0173334392e+000,1.9402044160e+000,1.9213293432e+000,2.4490188925e+000,3.2337653390e+000,
3.9000000000e+001,3.2349804752e+000,3.2952630698e+000,3.0779613809e+000,3.2264326773e+000,3.0414514433e+000,3.6486085088e+000,2.8464639185e+000,3.0953499240e+000,2.4196930035e+000,3.0979607969e+000,1.9702808382e+000,1.9073319702e+000,2.4647522501e+000,3.2864704792e+000,
3.9093750000e+001,3.0852503888e+000,3.2787324207e+000,3.0099798208e+000,3.1914999454e+000,2.9936000391e+000,3.6315081365e+000,2.7772208732e+000,3.1981886916e+000,2.4707678328e+000,3.0430478822e+000,2.2323065325e+000,1.7706676972e+000,2.5196536886e+000,3.3117447231e+000,
3.9187500000e+001,3.0986170042e+000,3.3229790121e+000,3.0767909206e+000,3.2626067003e+000,2.9790691760e+000,3.7118671916e+000,2.7490881777e+000,3.2406154400e+000,2.4823510065e+000,3.2172704331e+000,2.3762075675e+000,1.8067074227e+000,2.7936373423e+000,3.3805917451e+000,
3.9281250000e+001,2.9953542525e+000,3.2304291710e+000,2.9514078806e+000,3.2133187238e+000,2.7850200579e+000,3.6816828533e+000,2.4983306763e+000,3.2646772064e+000,2.3569314645e+000,3.2347764791e+000,2.4656783443e+000,2.0236029937e+000,2.8190035757e+000,3.4399533299e+000,
3.9375000000e+001,3.0280353168e+000,3.2670018907e+000,2.9314786994e+000,3.2224600053e+000,2.6494508171e+000,3.6547337118e+000,2.4619383110e+000,3.2689122140e+000,2.3939600952e+000,3.3097585700e+000,2.5046714533e+000,1.9685086296e+000,2.8234802836e+000,3.4233414070e+000,
3.9468750000e+001,3.0280544690e+000,3.3025347587e+000,3.0071054259e+000,3.2002355567e+000,2.6909067497e+000,3.5840522765e+000,2.5119160430e+000,3.1571845641e+000,2.5484124288e+000,3.3251576967e+000,2.5674021352e+000,1.9735901833e+000,3.0191964102e+000,3.3821648809e+000,
3.9562500000e+001,3.0228482421e+000,3.3203014468e+000,3.0035389128e+000,3.2141822313e+000,2.6747767611e+000,3.5770694916e+000,2.5049018370e+000,3.2587948391e+000,2.6015452756e+000,3.3170303177e+000,2.5426837870e+000,1.9242071443e+000,3.0385020880e+000,3.2533529218e+000,
3.9656250000e+001,2.9463629225e+000,3.2375052444e+000,2.9352611551e+000,3.0691469848e+000,2.5985414562e+000,3.4432175460e+000,2.4455638161e+000,3.0701080462e+000,2.6314851527e+000,3.1696698762e+000,2.4569750676e+000,1.9677155595e+000,3.0128076290e+000,3.2845401820e+000,
3.9750000000e+001,2.8802406728e+000,3.1354137774e+000,2.8876717273e+000,3.0754371094e+000,2.5535565751e+000,3.4097507775e+000,2.5105206307e+000,3.0689185541e+000,2.7404191966e+000,3.2005990305e+000,2.5321952168e+000,1.9772550082e+000,2.9829525149e+000,3.2181107129e+000,
3.9843750000e+001,2.8476779375e+000,3.0796059833e+000,2.7999608513e+000,3.0016787683e+000,2.3816897788e+000,3.5301863606e+000,2.4802434826e+000,3.0857061024e+000,2.7479483573e+000,3.2018442743e+000,2.5126623684e+000,1.9899699430e+000,2.9467056859e+000,3.0962306270e+000,
3.9937500000e+001,2.6141250078e+000,2.9755439807e+000,2.6644381479e+000,2.8021802523e+000,2.0484446502e+000,3.5033498740e+000,2.3816624142e+000,3.1157930917e+000,2.6663723329e+000,3.0866053757e+000,2.4851722180e+000,2.0291920716e+000,2.8656940573e+000,2.9901062561e+000,
4.0031250000e+001,2.5919406917e+000,2.9347592707e+000,2.6451233392e+000,2.7708801445e+000,2.0820014026e+000,3.5403729164e+000,2.3460065786e+000,3.1146769600e+000,2.6181807454e+000,3.0464360866e+000,2.4993455460e+000,2.0486934507e+000,2.8688339614e+000,2.9877470950e+000,
4.0125000000e+001,2.5079066138e+000,2.8965773256e+000,2.5983117250e+000,2.8035675733e+000,2.0294991633e+000,3.7680243101e+000,2.3529414058e+000,3.0980644414e+000,2.5435855009e+000,3.0107157285e+000,2.3710744241e+000,1.9542416685e+000,2.8331823032e+000,2.9802775776e+000,
4.0218750000e+001,2.4204817072e+000,2.8678936716e+000,2.4292605043e+000,2.6085638951e+000,2.0643377045e+000,3.7132607119e+000,2.3224244803e+000,2.9577059511e+000,2.5228779219e+000,2.7149152831e+000,2.2263230412e+000,1.7636763871e+000,2.6369172703e+000,2.8307725344e+000,
4.0312500000e+001,2.5165215942e+000,2.8907729201e+000,2.4803618654e+000,2.6143839321e+000,2.1197234976e+000,3.8071907201e+000,2.3481636067e+000,3.0750842226e+000,2.5320174109e+000,2.5535843935e+000,2.1621438603e+000,1.6115487030e+000,2.6632705433e+000,2.7055518562e+000,
4.0406250000e+001,2.5342713345e+000,2.8383964621e+000,2.3539472702e+000,2.5534343007e+000,2.1346320895e+000,3.8566092168e+000,2.2841035796e+000,3.1000152638e+000,2.4449478741e+000,2.5332270071e+000,2.1170961861e+000,1.5990758239e+000,2.6705887762e+000,2.6852901708e+000,
4.0500000000e+001,2.4982085162e+000,2.7676151727e+000,2.1460709817e+000,2.5553560440e+000,2.0270138165e+000,4.0207336788e+000,2.2092396266e+000,3.0609851255e+000,2.3501726421e+000,2.4969724462e+000,2.1659559519e+000,1.5926271724e+000,2.4145505922e+000,2.7047962068e+000,
4.0593750000e+001,2.5630980936e+000,2.6900803572e+000,2.2792142016e+000,2.5212352714e+000,2.1856309490e+000,4.3082572469e+000,2.1814960527e+000,3.1186850162e+000,2.3943760869e+000,2.5669849518e+000,2.1658193143e+000,1.5352353582e+000,2.4829869766e+000,2.7157366680e+000,
4.0687500000e+001,2.6136363420e+000,2.6887656128e+000,2.4054099705e+000,2.5637950427e+000,2.3218486200e+000,4.2639477398e+000,2.3391826990e+000,3.0731430335e+000,2.5707892937e+000,2.7332624997e+000,2.3503994772e+000,1.4970391720e+000,2.5246594819e+000,2.8361541577e+000,
4.0781250000e+001,2.6989229071e+000,2.7853615239e+000,2.5563741778e+000,2.7824166944e+000,2.3789346240e+000,4.2782461150e+000,2.3227166816e+000,3.2382866877e+000,2.4949096544e+000,2.7586063232e+000,2.3585463859e+000,1.4086088429e+000,2.6712065025e+000,2.9358723639e+000,
4.0875000000e+001,2.7434185267e+000,2.9204377075e+000,2.7144725203e+000,2.8833569072e+000,2.4564488390e+000,4.1047970139e+000,2.3632332776e+000,3.2415915060e+000,2.4997140074e+000,2.8439331375e+000,2.3509935163e+000,1.5694764767e+000,2.7260146800e+000,3.0136289201e+000,
4.0968750000e+001,2.7664683287e+000,2.8529927110e+000,2.7354540676e+000,2.9323794608e+000,2.5581033530e+000,4.1038643228e+000,2.4301199781e+000,3.3698381981e+000,2.5893827734e+000,2.9463355000e+000,2.3344051198e+000,1.5434223823e+000,2.6873743443e+000,3.0620394593e+000,
4.1062500000e+001,2.8053702408e+000,2.8847066679e+000,2.7550946290e+000,2.9890165844e+000,2.5594971765e+000,4.0191236104e+000,2.5395745323e+000,3.4843715471e+000,2.5995055812e+000,2.9725062899e+000,2.3446642810e+000,1.7937163554e+000,2.6474641967e+000,3.0661653217e+000,
4.1156250000e+001,2.9545425498e+000,2.8810294869e+000,2.8004885395e+000,3.0139926149e+000,2.6328234829e+000,3.8962016651e+000,2.6180732213e+000,3.4558342082e+000,2.6107986095e+000,2.9741616002e+000,2.2586833168e+000,1.8118647430e+000,2.6890344088e+000,3.0699461306e+000,
