Time (s),AF3,AF4,F3,F4,F7,F8,FC5,FC6,T7,T8,P7,P8,O1,O2,Sampling Rate
0.0000000000e+000,4.8920702533e+000,5.1323348683e+000,4.7817018649e+000,5.2390844343e+000,5.3807988741e+000,5.3151985165e+000,5.2805479419e+000,5.3939235164e+000,5.4210644783e+000,5.9985719925e+000,4.9115485651e+000,5.3933802083e+000,4.7205187014e+000,4.9931138676e+000,1
9.3750000000e-002,4.8631058143e+000,5.0954183365e+000,4.7913711832e+000,5.2255700026e+000,5.3137899565e+000,5.2993671144e+000,5.3017888269e+000,5.3177596994e+000,5.3971753647e+000,5.9785353392e+000,4.9029945218e+000,5.2656681627e+000,4.6334615371e+000,4.9612365929e+000,
1.8750000000e-001,4.8823322784e+000,5.1615711740e+000,4.8417181214e+000,5.2707287537e+000,5.2551600853e+000,5.3510873229e+000,5.3732541696e+000,5.3398215376e+000,5.4330213790e+000,6.0550086426e+000,5.0013137754e+000,5.3272803829e+000,4.7065376019e+000,5.0872668230e+000,
2.8125000000e-001,4.9313905082e+000,5.1908696279e+000,4.8705316878e+000,5.3099611158e+000,5.2011276883e+000,5.3633078657e+000,5.3947993120e+000,5.3506084065e+000,5.5199588469e+000,6.0075944924e+000,5.0287267411e+000,5.4105135695e+000,4.6867186878e+000,5.1467179038e+000,
3.7500000000e-001,4.9062372407e+000,5.1762422452e+000,4.8613216176e+000,5.3537714551e+000,5.2766629146e+000,5.3473038312e+000,5.3343688754e+000,5.2420785873e+000,5.5871790161e+000,6.0924835563e+000,4.9802487832e+000,5.4062275012e+000,4.6313945994e+000,5.0859981464e+000,
4.6875000000e-001,5.0072480659e+000,5.2358531844e+000,4.9577804587e+000,5.3796393815e+000,5.4290505853e+000,5.4804944330e+000,5.3967287221e+000,5.2989262753e+000,5.6688161280e+000,6.2479240798e+000,4.7256014020e+000,5.5468906509e+000,4.6046549787e+000,5.1549837956e+000,
5.6250000000e-001,5.0317488505e+000,5.2436058323e+000,5.0101384797e+000,5.4138002635e+000,5.5148794521e+000,5.4654877638e+000,5.4179183468e+000,5.2869443794e+000,5.6948350443e+000,6.2345066835e+000,4.7497533935e+000,5.6081208699e+000,4.6524431627e+000,5.2190470011e+000,
6.5625000000e-001,4.9628591921e+000,5.1663569218e+000,4.9545874761e+000,5.3610409766e+000,5.5448231045e+000,5.3285177363e+000,5.3801710943e+000,5.2059416576e+000,5.5073639006e+000,6.2715507763e+000,4.7455773116e+000,5.5403155179e+000,4.6037976038e+000,5.1606702748e+000,
7.5000000000e-001,5.0013695506e+000,5.1665836941e+000,4.9579425340e+000,5.3390257503e+000,5.6129917425e+000,5.3926856151e+000,5.4141138974e+000,5.2001737477e+000,5.5428033240e+000,6.2505391862e+000,4.7866601790e+000,5.5079481628e+000,4.5969681956e+000,5.1682400586e+000,
8.4375000000e-001,4.9145228975e+000,4.9812714610e+000,4.8355947288e+000,5.1905632499e+000,5.6056442444e+000,5.3117315632e+000,5.3063338058e+000,5.2013146978e+000,5.4561247474e+000,6.2908065541e+000,4.8285246563e+000,5.4937553905e+000,4.5272724250e+000,5.0864310732e+000,
9.3750000000e-001,4.8844374799e+000,4.9668831930e+000,4.8114907041e+000,5.1332557402e+000,5.6145283843e+000,5.3433764850e+000,5.3172160670e+000,5.1859018573e+000,5.4661380860e+000,6.2551833245e+000,4.7497277830e+000,5.4186488367e+000,4.4466838306e+000,5.0490976605e+000,
1.0312500000e+000,4.9354727663e+000,4.9836877279e+000,4.8649665782e+000,5.1628325691e+000,5.6314846061e+000,5.4040321203e+000,5.3958153453e+000,5.2180161189e+000,5.5493042939e+000,6.2559628269e+000,4.7602647630e+000,5.5060659132e+000,4.4972826168e+000,5.0875810179e+000,
1.1250000000e+000,4.8952098042e+000,4.9248499046e+000,4.8225969014e+000,5.1368408393e+000,5.6309229805e+000,5.3093755421e+000,5.3716027640e+000,5.1460400701e+000,5.5405520427e+000,6.2167585516e+000,4.6144296355e+000,5.4545744076e+000,4.4398676291e+000,4.9721898111e+000,
1.2187500000e+000,4.8588042775e+000,4.9211270343e+000,4.8041384428e+000,5.1230527718e+000,5.6576059751e+000,5.2828368400e+000,5.3279702273e+000,5.1094982454e+000,5.4542587565e+000,6.1808515441e+000,4.3919834218e+000,5.4220330054e+000,4.3889148606e+000,4.9294318990e+000,
1.3125000000e+000,4.8494824039e+000,4.9279675377e+000,4.8105669669e+000,5.1273215525e+000,5.6813409651e+000,5.2633816322e+000,5.3446048979e+000,5.0244554009e+000,5.3587132743e+000,6.2049052155e+000,4.4467115182e+000,5.4274025529e+000,4.4677013588e+000,4.9088589437e+000,
1.4062500000e+000,4.7466473372e+000,4.8475258737e+000,4.6084956633e+000,5.0156724621e+000,5.5718656375e+000,5.1496513028e+000,5.1973762261e+000,5.0227558624e+000,5.1957139772e+000,5.9577055172e+000,4.4641012182e+000,5.3512074142e+000,4.3718147958e+000,4.8207523142e+000,
1.5000000000e+000,4.7140684395e+000,4.8404934919e+000,4.5969628324e+000,4.9854866400e+000,5.5389577159e+000,5.1149782337e+000,5.2151715026e+000,5.0105000243e+000,5.2189420897e+000,5.8569059227e+000,4.4739654445e+000,5.3330311703e+000,4.3665840744e+000,4.8014464524e+000,
1.5937500000e+000,4.6082502891e+000,4.7500510929e+000,4.4782656061e+000,4.7998021951e+000,5.3833123881e+000,5.1933915187e+000,5.1792560200e+000,5.0851802025e+000,5.2873888935e+000,5.7814410582e+000,4.4586920024e+000,5.2388327452e+000,4.2823614509e+000,4.7172855271e+000,
1.6875000000e+000,4.5606766026e+000,4.7492072386e+000,4.4397342093e+000,4.7579270887e+000,5.3572178171e+000,5.2414041810e+000,5.1600208221e+000,5.0801133579e+000,5.2960494738e+000,5.7047501753e+000,4.4994320877e+000,5.1928979358e+000,4.2764798094e+000,4.6914033157e+000,
1.7812500000e+000,4.5180352651e+000,4.7706297005e+000,4.4227700133e+000,4.7945185363e+000,5.3168131893e+000,5.2041836006e+000,5.0817434453e+000,5.0474982857e+000,5.2618937829e+000,5.8304812449e+000,4.4182094753e+000,5.1923574620e+000,4.2921659001e+000,4.6584970212e+000,
1.8750000000e+000,4.5240713866e+000,4.7290398970e+000,4.4318289065e+000,4.8001912535e+000,5.1759960804e+000,5.1732345248e+000,5.0284207064e+000,5.0348277788e+000,5.2676637760e+000,5.8487220925e+000,4.4424270346e+000,5.2110261730e+000,4.2787059504e+000,4.6380608852e+000,
1.9687500000e+000,4.8101056315e+000,4.9912129977e+000,4.7324430621e+000,5.0777525819e+000,5.5030778941e+000,5.4075817102e+000,5.1762939506e+000,5.1481056597e+000,5.4154473972e+000,5.8948846366e+000,4.5014895200e+000,5.3507092064e+000,4.5217122217e+000,4.8067191062e+000,
2.0625000000e+000,4.8256196634e+000,5.0512801750e+000,4.8014052704e+000,5.1710608805e+000,5.5087992620e+000,5.4674851820e+000,5.2000004844e+000,5.1459405484e+000,5.3975598201e+000,5.9589597751e+000,4.5306039569e+000,5.3195061464e+000,4.5900743607e+000,4.8427275784e+000,
2.1562500000e+000,4.9071905192e+000,5.1107344262e+000,4.8360131341e+000,5.2745645322e+000,5.6388030064e+000,5.4949807736e+000,5.1408183162e+000,5.1075286874e+000,5.3965177559e+000,6.0232814363e+000,4.6231968076e+000,5.3201524729e+000,4.6743203433e+000,4.9271858645e+000,
2.2500000000e+000,4.9423061121e+000,5.1089314298e+000,4.8625671633e+000,5.3080419573e+000,5.6357320015e+000,5.5232261625e+000,5.1584924821e+000,5.1830116477e+000,5.4452153641e+000,6.1382937110e+000,4.5739036571e+000,5.4067698063e+000,4.7038769127e+000,4.9440503613e+000,
2.3437500000e+000,4.9528629161e+000,5.1458133283e+000,4.9220931424e+000,5.3273139221e+000,5.7062619395e+000,5.5760639928e+000,5.1741267932e+000,5.1188668201e+000,5.4392596490e+000,6.2793280468e+000,4.4501744910e+000,5.3938307328e+000,4.6630293539e+000,4.9706704681e+000,
2.4375000000e+000,4.8910856463e+000,5.0950626835e+000,4.9054843246e+000,5.3201814990e+000,5.6593759916e+000,5.4937337508e+000,5.1614662841e+000,5.0253781896e+000,5.3542675789e+000,6.2708388605e+000,4.5549885710e+000,5.3452556039e+000,4.6410200374e+000,4.9770444718e+000,
2.5312500000e+000,4.8763759182e+000,5.1058584026e+000,4.9127507342e+000,5.3321247264e+000,5.6937287740e+000,5.5160733539e+000,5.1538819081e+000,4.9651655851e+000,5.2426430358e+000,6.3144787696e+000,4.5763488038e+000,5.3206414051e+000,4.6189281512e+000,4.9950960393e+000,
2.6250000000e+000,4.9198153504e+000,5.1091664739e+000,4.9143535592e+000,5.3436148952e+000,5.7230850187e+000,5.4707510828e+000,5.1803888470e+000,4.9900201057e+000,5.2718653997e+000,6.4098707588e+000,4.5518539004e+000,5.4179860746e+000,4.6288760849e+000,5.0176498507e+000,
2.7187500000e+000,4.9144075729e+000,5.1153001873e+000,4.9051795325e+000,5.3630131163e+000,5.6930567908e+000,5.4684732071e+000,5.1358359714e+000,5.0017039241e+000,5.2895855501e+000,6.3942995930e+000,4.5137953047e+000,5.4147773478e+000,4.6677670513e+000,5.0242998927e+000,
2.8125000000e+000,4.9192250424e+000,5.0752855401e+000,4.9174399172e+000,5.3520307262e+000,5.7431894846e+000,5.4710546368e+000,5.1498825253e+000,4.9973063430e+000,5.3397552720e+000,6.3406777574e+000,4.5557169035e+000,5.4071932199e+000,4.7006486161e+000,5.0256490896e+000,
2.9062500000e+000,4.7772647547e+000,4.9461827280e+000,4.7679731852e+000,5.2596929637e+000,5.5361027224e+000,5.3270946875e+000,5.0309298366e+000,4.8851093053e+000,5.1965727569e+000,6.3042946194e+000,4.5496596410e+000,5.2649525277e+000,4.5747020881e+000,4.9141128530e+000,
3.0000000000e+000,4.8471706706e+000,4.9728935004e+000,4.7105667594e+000,5.2156510470e+000,5.5647249157e+000,5.3389361182e+000,5.1359640800e+000,4.9087439260e+000,5.2551454256e+000,6.2842843917e+000,4.7741120535e+000,5.4065824448e+000,4.6337413717e+000,4.9337222771e+000,
3.0937500000e+000,4.7422843647e+000,4.8555104197e+000,4.6121952208e+000,5.0803470733e+000,5.4444071582e+000,5.2130258822e+000,5.0699600068e+000,4.9684619637e+000,5.1656396750e+000,6.2253101677e+000,4.6476793782e+000,5.3754607962e+000,4.4681556644e+000,4.8575029128e+000,
3.1875000000e+000,4.7208793710e+000,4.8751726264e+000,4.5824375114e+000,5.0821457988e+000,5.3728760938e+000,5.2657012655e+000,5.1017489721e+000,5.0431034562e+000,5.1990578978e+000,6.1580004709e+000,4.7355322390e+000,5.3085213288e+000,4.4312093175e+000,4.8693737599e+000,
3.2812500000e+000,4.7646809697e+000,4.9004567607e+000,4.5883890863e+000,5.1316669514e+000,5.3434900429e+000,5.2321642005e+000,5.1040274723e+000,5.0201574233e+000,5.1871228332e+000,6.0076946087e+000,4.8241323245e+000,5.2758613053e+000,4.4735502103e+000,4.9120444726e+000,
3.3750000000e+000,4.8558569415e+000,4.9546273324e+000,4.6781703544e+000,5.1968969961e+000,5.4924722734e+000,5.3480863759e+000,5.1761233667e+000,5.0875880856e+000,5.2449152540e+000,6.0825571824e+000,4.8660550486e+000,5.3144872426e+000,4.5549707443e+000,4.9710535651e+000,
3.4687500000e+000,4.9413682979e+000,5.0675134366e+000,4.8370306303e+000,5.3032330452e+000,5.5696694644e+000,5.4439537582e+000,5.2692834527e+000,5.2235814643e+000,5.4126652590e+000,6.0909601012e+000,4.8635172216e+000,5.4453871735e+000,4.7188918871e+000,5.0475203849e+000,
3.5625000000e+000,4.8702196794e+000,5.0185130782e+000,4.8294563817e+000,5.2617432912e+000,5.5411906038e+000,5.3565273356e+000,5.2349394888e+000,5.4205117353e+000,5.3871122742e+000,6.0478794222e+000,4.9134018684e+000,5.3653737442e+000,4.7114260507e+000,5.0059858476e+000,
3.6562500000e+000,4.9631695537e+000,5.1435646679e+000,4.9221981395e+000,5.3578495927e+000,5.7043197519e+000,5.5801633932e+000,5.2839662888e+000,5.5138363258e+000,5.4400320709e+000,6.0495456377e+000,4.9110027205e+000,5.3842925113e+000,4.8361484951e+000,5.0611825400e+000,
3.7500000000e+000,5.0177716258e+000,5.1930462327e+000,4.9479095145e+000,5.3745270540e+000,5.7364780328e+000,5.6022048305e+000,5.3882113741e+000,5.5939010106e+000,5.4503480572e+000,6.1696893405e+000,4.9289480026e+000,5.4114169197e+000,4.8266105040e+000,5.1168747292e+000,
3.8437500000e+000,5.0692571629e+000,5.2331886968e+000,4.9775221721e+000,5.3883749820e+000,5.7743793260e+000,5.6154426654e+000,5.4148289717e+000,5.6288414112e+000,5.4891855078e+000,6.2392901843e+000,4.9048710232e+000,5.4375196694e+000,4.8308593680e+000,5.1684317246e+000,
3.9375000000e+000,5.0543558479e+000,5.1939062460e+000,4.9939379231e+000,5.3910646682e+000,5.7807670001e+000,5.6133763635e+000,5.4359451555e+000,5.6444839199e+000,5.4953370013e+000,6.2199326317e+000,4.9579995243e+000,5.4498138069e+000,4.8904416724e+000,5.1926138422e+000,
4.0312500000e+000,4.9410161966e+000,5.1188465544e+000,4.9315940481e+000,5.3700486811e+000,5.6631011528e+000,5.5278246622e+000,5.3641995473e+000,5.6128503972e+000,5.3862556797e+000,6.2087816593e+000,4.7396872685e+000,5.2695619913e+000,4.7795862311e+000,5.0932612156e+000,
4.1250000000e+000,4.9817285280e+000,5.1381701272e+000,4.9538555394e+000,5.3811886056e+000,5.6620882840e+000,5.5718631465e+000,5.4617633286e+000,5.5931917583e+000,5.3715260503e+000,6.2214923165e+000,4.7567031916e+000,5.3577005787e+000,4.7840476292e+000,5.1462509777e+000,
4.2187500000e+000,4.9979438784e+000,5.1218226256e+000,4.9829057925e+000,5.3579157057e+000,5.6734634321e+000,5.5286569062e+000,5.4806770586e+000,5.6465575203e+000,5.3638287151e+000,6.2292333448e+000,4.6174848137e+000,5.3686934501e+000,4.7575601975e+000,5.1196659809e+000,
4.3125000000e+000,4.9302063487e+000,5.0635868874e+000,4.8958480513e+000,5.2254946210e+000,5.6204150139e+000,5.5169779801e+000,5.4456017873e+000,5.6733035665e+000,5.3871066757e+000,6.2235078205e+000,4.5078343913e+000,5.3071489566e+000,4.6392828773e+000,5.0095368754e+000,
4.4062500000e+000,4.8817204142e+000,5.0330730644e+000,4.8583892298e+000,5.1761984946e+000,5.5505408848e+000,5.4582222293e+000,5.4318991905e+000,5.6605345882e+000,5.4566931234e+000,6.1181715955e+000,4.5326350610e+000,5.3620363822e+000,4.5836991881e+000,4.9840952783e+000,
4.5000000000e+000,4.9132464388e+000,5.0362174534e+000,4.8131372595e+000,5.1087877790e+000,5.5578287809e+000,5.4590536537e+000,5.4726296002e+000,5.6592345456e+000,5.5216879158e+000,6.1467145196e+000,4.4461016195e+000,5.4074413184e+000,4.4451233000e+000,4.9253764869e+000,
4.5937500000e+000,4.8983353011e+000,5.0111767229e+000,4.7749203186e+000,5.1000311676e+000,5.4541207422e+000,5.2745573820e+000,5.4371175252e+000,5.5662432074e+000,5.5249079500e+000,6.0429918795e+000,4.3532311773e+000,5.3867609121e+000,4.3722461580e+000,4.9190932249e+000,
4.6875000000e+000,4.8827508935e+000,5.0091512087e+000,4.7947484288e+000,5.0989834500e+000,5.5662806835e+000,5.2487905852e+000,5.3571555131e+000,5.5281928016e+000,5.4515200388e+000,5.9874148766e+000,4.2671012456e+000,5.4289806409e+000,4.3340768292e+000,4.9065450398e+000,
4.7812500000e+000,4.9389640998e+000,5.0207977150e+000,4.8126508833e+000,5.0892315858e+000,5.5921740926e+000,5.2758313961e+000,5.3492956296e+000,5.5525431093e+000,5.4773701235e+000,5.9682854292e+000,4.4442384429e+000,5.4607024523e+000,4.4062301692e+000,4.8934759043e+000,
4.8750000000e+000,4.9149300652e+000,5.0282906786e+000,4.7737843369e+000,5.1142300425e+000,5.5969992248e+000,5.2662317416e+000,5.2862043672e+000,5.5317443037e+000,5.4645902785e+000,6.0283271448e+000,4.6847640788e+000,5.4683731318e+000,4.4616661580e+000,4.8970671690e+000,
4.9687500000e+000,4.9320232425e+000,5.0613030629e+000,4.8195975014e+000,5.1725477967e+000,5.6485558153e+000,5.2867443066e+000,5.2375455971e+000,5.5055590275e+000,5.5299271606e+000,6.0451776006e+000,4.6184583068e+000,5.5195985959e+000,4.4675118102e+000,4.9244525845e+000,
5.0625000000e+000,4.9249667144e+000,5.0763561996e+000,4.8559054454e+000,5.1424452352e+000,5.6402666318e+000,5.3148746782e+000,5.1822427985e+000,5.4757448341e+000,5.5645658923e+000,6.0418064519e+000,4.6168870706e+000,5.4498173915e+000,4.4367820792e+000,4.8605327868e+000,
5.1562500000e+000,4.9916965433e+000,5.1632870741e+000,4.9842929737e+000,5.3118929973e+000,5.7137256706e+000,5.3261256380e+000,5.2304100449e+000,5.5466255859e+000,5.6916420253e+000,6.0632690865e+000,4.7234159543e+000,5.6450874591e+000,4.6545176785e+000,4.9824824386e+000,
5.2500000000e+000,5.0532619033e+000,5.1931547001e+000,5.0404386589e+000,5.4243605960e+000,5.7160170004e+000,5.3948052287e+000,5.3978279243e+000,5.5945408758e+000,5.7379940676e+000,6.1897858631e+000,4.7316765183e+000,5.7306846940e+000,4.6797058361e+000,5.0683326240e+000,
5.3437500000e+000,5.0806572421e+000,5.2276192449e+000,5.0565522034e+000,5.4767951636e+000,5.7749626209e+000,5.4830585675e+000,5.3988381144e+000,5.5491159464e+000,5.7509123312e+000,6.3402533442e+000,4.8145082834e+000,5.7242939318e+000,4.7277808305e+000,5.0813053123e+000,
5.4375000000e+000,5.0296477520e+000,5.1574576012e+000,4.9792168625e+000,5.4928735024e+000,5.7521320725e+000,5.3961187494e+000,5.2782773984e+000,5.4187486103e+000,5.5914742273e+000,6.4440918689e+000,4.8049304066e+000,5.5816702104e+000,4.7160946293e+000,5.0512084666e+000,
5.5312500000e+000,5.0886676355e+000,5.2126616903e+000,4.9881271774e+000,5.5374080052e+000,5.8218416814e+000,5.4238219288e+000,5.2930473959e+000,5.4111464088e+000,5.5974783045e+000,6.4186819182e+000,4.8564343747e+000,5.6123776714e+000,4.8392751249e+000,5.1277159049e+000,
5.6250000000e+000,5.0159996957e+000,5.1252951509e+000,4.9068942324e+000,5.4714827769e+000,5.7589874085e+000,5.3841945972e+000,5.3174251754e+000,5.4031668722e+000,5.5242987979e+000,6.4555566459e+000,4.9208800372e+000,5.5194425062e+000,4.8180219375e+000,5.0531819059e+000,
5.7187500000e+000,5.0114767938e+000,5.0744657102e+000,4.9024541161e+000,5.4390487763e+000,5.6848273288e+000,5.3510081132e+000,5.3672112117e+000,5.3223274172e+000,5.5550230922e+000,6.4526421500e+000,4.8975024026e+000,5.5226469896e+000,4.7510314116e+000,5.0643330257e+000,
5.8125000000e+000,5.0085756548e+000,5.0772524162e+000,4.9193066418e+000,5.4848880157e+000,5.6779778982e+000,5.3986501760e+000,5.3602998121e+000,5.3250355400e+000,5.5169559407e+000,6.4448048854e+000,4.7085344644e+000,5.5597257358e+000,4.7158716404e+000,5.1010536767e+000,
5.9062500000e+000,5.0459041495e+000,5.1692461502e+000,4.9507584857e+000,5.4269454940e+000,5.6900660966e+000,5.5663026270e+000,5.4385771599e+000,5.5059636541e+000,5.5136233934e+000,6.4283374790e+000,4.5327360941e+000,5.5999175600e+000,4.7145330314e+000,5.1539113700e+000,
6.0000000000e+000,5.1537286171e+000,5.2583146581e+000,5.0289764088e+000,5.5107155091e+000,5.7734952115e+000,5.5664745822e+000,5.5404500340e+000,5.5764815410e+000,5.5775646469e+000,6.4361230052e+000,4.5418892322e+000,5.5303678618e+000,4.7306024772e+000,5.1913325183e+000,
6.0937500000e+000,5.1580116216e+000,5.2424160404e+000,5.0227416318e+000,5.5148575679e+000,5.7674123514e+000,5.5489946373e+000,5.5018508680e+000,5.5923688468e+000,5.5015347029e+000,6.4415991640e+000,4.5526298466e+000,5.5160789209e+000,4.7541541641e+000,5.2107474407e+000,
6.1875000000e+000,4.9785263896e+000,5.0911982000e+000,4.8133375931e+000,5.2654750291e+000,5.6977178872e+000,5.5126964192e+000,5.3517827676e+000,5.5266720230e+000,5.3081767512e+000,6.4345262936e+000,4.4065625800e+000,5.1415617744e+000,4.4899949001e+000,5.0133613417e+000,
6.2812500000e+000,4.9342352916e+000,5.0263027704e+000,4.7716286677e+000,5.1860252798e+000,5.6730452798e+000,5.3778730485e+000,5.2577896316e+000,5.4074066129e+000,5.2508422790e+000,6.1807415535e+000,4.2712106355e+000,5.1924328284e+000,4.4692116871e+000,5.0172064317e+000,
6.3750000000e+000,4.9416699758e+000,5.0377361476e+000,4.8073234246e+000,5.1521467192e+000,5.7037890431e+000,5.3923564511e+000,5.2790291505e+000,5.4587710731e+000,5.2596332829e+000,6.1574415719e+000,4.2796732159e+000,5.2234100860e+000,4.4849967685e+000,5.0374700815e+000,
6.4687500000e+000,4.8681116210e+000,4.9571954825e+000,4.7598177737e+000,5.0416576878e+000,5.7011771837e+000,5.3176116762e+000,5.1517917815e+000,5.4684738396e+000,5.1430399211e+000,5.9803756274e+000,4.1933160971e+000,5.1484964273e+000,4.3514063205e+000,4.8989640640e+000,
6.5625000000e+000,4.9101880620e+000,4.9799526850e+000,4.8136619039e+000,5.0951691362e+000,5.7163189444e+000,5.3972594053e+000,5.1690544771e+000,5.5135623532e+000,5.1908664384e+000,6.1464225225e+000,4.2259472372e+000,5.2917459502e+000,4.4068596068e+000,5.0095036816e+000,
6.6562500000e+000,4.9531569634e+000,5.0559776945e+000,4.8163399012e+000,5.1663639355e+000,5.6915827844e+000,5.4004617784e+000,5.1391835315e+000,5.4522083620e+000,5.1864823873e+000,6.2083001966e+000,4.1077919341e+000,5.3635349978e+000,4.3301582351e+000,5.0380941120e+000,
6.7500000000e+000,4.9883939025e+000,5.1270503984e+000,4.8958758287e+000,5.2294701560e+000,5.7135525246e+000,5.4543984204e+000,5.1069755595e+000,5.4327075413e+000,5.2083286737e+000,6.1534788125e+000,4.1547185632e+000,5.4111367321e+000,4.4194080175e+000,4.9936631091e+000,
6.8437500000e+000,4.8922728785e+000,5.0008070642e+000,4.8016338974e+000,5.1269436670e+000,5.6744004397e+000,5.3919550915e+000,5.0494436277e+000,5.3665627667e+000,5.2091691982e+000,6.1402588114e+000,4.2466643308e+000,5.3721106330e+000,4.4224882829e+000,4.9315117264e+000,
6.9375000000e+000,4.7594237181e+000,4.8510627132e+000,4.6483619072e+000,4.9885110919e+000,5.5110954951e+000,5.2266959369e+000,4.9922089001e+000,5.1954456403e+000,5.2056101951e+000,6.1084874394e+000,4.2288792240e+000,5.3375347516e+000,4.2707495958e+000,4.7901869974e+000,
7.0312500000e+000,4.6394775247e+000,4.7498530294e+000,4.5634298124e+000,4.9077291088e+000,5.4227337656e+000,5.1755365744e+000,4.9326224362e+000,5.2000509253e+000,5.1677021515e+000,6.1155277334e+000,4.2700910939e+000,5.3349245312e+000,4.2471248751e+000,4.6913320174e+000,
7.1250000000e+000,4.6680382789e+000,4.7987948770e+000,4.5974728122e+000,4.9557493515e+000,5.4395021767e+000,5.2231434264e+000,4.9980641293e+000,5.1547380516e+000,5.2140761847e+000,6.1488911684e+000,4.2048141706e+000,5.3593596512e+000,4.4003544472e+000,4.7983747748e+000,
7.2187500000e+000,4.8298951578e+000,4.9960382003e+000,4.7785713017e+000,5.0884102169e+000,5.4781261208e+000,5.2557843095e+000,5.1911363031e+000,5.1451406045e+000,5.3563280934e+000,6.2213031052e+000,4.2932502244e+000,5.4146031579e+000,4.5857519432e+000,4.9122847014e+000,
7.3125000000e+000,4.8143412896e+000,5.0439271107e+000,4.7868056869e+000,5.1057757350e+000,5.5255523193e+000,5.2751239738e+000,5.2293236557e+000,5.2583440167e+000,5.3589049891e+000,6.3142805677e+000,4.3795062071e+000,5.4024729554e+000,4.6251772329e+000,4.9057659583e+000,
7.4062500000e+000,4.8591337782e+000,5.0347808576e+000,4.8162819546e+000,5.1461437692e+000,5.4935870308e+000,5.3856538893e+000,5.2259748721e+000,5.1952454587e+000,5.4179609207e+000,6.3243839215e+000,4.5051411360e+000,5.3385768133e+000,4.6472145124e+000,4.9466097359e+000,
7.5000000000e+000,4.8965345507e+000,5.0619328082e+000,4.8517108443e+000,5.1514516012e+000,5.4830494089e+000,5.4189651947e+000,5.2705448904e+000,5.1346019136e+000,5.3800209938e+000,6.3099388182e+000,4.4460822739e+000,5.2920835433e+000,4.6373979625e+000,4.8911514185e+000,
7.5937500000e+000,4.8815519493e+000,5.0355289253e+000,4.8511914210e+000,5.0662106553e+000,5.4274708432e+000,5.4458953312e+000,5.2731563345e+000,5.0902432986e+000,5.4038283480e+000,6.2346438102e+000,4.4800651185e+000,5.1641602340e+000,4.6917453324e+000,4.8218932736e+000,
7.6875000000e+000,4.8587969650e+000,5.0464193707e+000,4.8756236665e+000,5.0673767173e+000,5.3873091285e+000,5.4594627677e+000,5.2815323175e+000,5.1202708549e+000,5.3765617189e+000,6.3150529112e+000,4.4419265627e+000,5.1723060765e+000,4.6999224695e+000,4.8538245882e+000,
7.7812500000e+000,4.7697940220e+000,4.9525258736e+000,4.7730050778e+000,4.9743769050e+000,5.3481794889e+000,5.4347412775e+000,5.2408767465e+000,5.2097900904e+000,5.3336389098e+000,6.2946154888e+000,4.5391199499e+000,5.0937904564e+000,4.6502607743e+000,4.8104135587e+000,
7.8750000000e+000,4.7886708280e+000,4.9649411195e+000,4.7835195772e+000,4.9769668068e+000,5.3421675218e+000,5.3544183158e+000,5.2590026994e+000,5.1831309987e+000,5.3024023646e+000,6.3402837019e+000,4.5177384442e+000,5.1020623407e+000,4.6282997343e+000,4.7857817586e+000,
7.9687500000e+000,4.8461320562e+000,5.0141224786e+000,4.8231012668e+000,5.0265833080e+000,5.4210559240e+000,5.3524065148e+000,5.3163552034e+000,5.1744350311e+000,5.3010747129e+000,6.3467972523e+000,4.6479819984e+000,5.2029348407e+000,4.6740440821e+000,4.8175173514e+000,
8.0625000000e+000,4.7913498714e+000,4.9461371033e+000,4.7765277071e+000,4.9231567388e+000,5.4435586102e+000,5.2977735764e+000,5.1803380166e+000,5.1571425423e+000,5.1956891295e+000,6.4049448282e+000,4.6565550123e+000,5.1878235352e+000,4.6335266146e+000,4.7688032187e+000,
8.1562500000e+000,4.8566175267e+000,4.9370394721e+000,4.8466100301e+000,4.9773917957e+000,5.4753477232e+000,5.2966605254e+000,5.2315630384e+000,5.3321029693e+000,5.1987793923e+000,6.3821345997e+000,4.6822605990e+000,5.1853619592e+000,4.5482583896e+000,4.7040636557e+000,
8.2500000000e+000,4.7443439581e+000,4.8067519212e+000,4.7236067116e+000,4.8885953170e+000,5.3186042857e+000,5.2051414026e+000,5.0414372836e+000,5.1268602857e+000,5.0509550892e+000,6.3047911601e+000,4.6518068393e+000,5.1809573879e+000,4.4454752852e+000,4.6869197390e+000,
8.3437500000e+000,4.7703758045e+000,4.8342375385e+000,4.7075509338e+000,4.9058147108e+000,5.3432548315e+000,5.1910906418e+000,5.0003823796e+000,5.1977660671e+000,4.9718228814e+000,6.3087304431e+000,4.7262100665e+000,5.2886028577e+000,4.4860542729e+000,4.7542800686e+000,
8.4375000000e+000,4.8616780046e+000,4.9660259395e+000,4.7745024920e+000,5.0542504937e+000,5.4352232006e+000,5.1218063608e+000,5.1039662463e+000,5.2725721363e+000,5.0270765833e+000,6.3497870226e+000,4.6903837955e+000,5.3810971172e+000,4.4663503530e+000,4.8405327044e+000,
8.5312500000e+000,4.7716083776e+000,4.9086725756e+000,4.6842536212e+000,5.0220011177e+000,5.3617699132e+000,5.1317173436e+000,5.0677512890e+000,5.2806837706e+000,5.0067585349e+000,6.4442202335e+000,4.7294059031e+000,5.4282879841e+000,4.4277200014e+000,4.8545129916e+000,
8.6250000000e+000,4.7771453277e+000,4.9182659965e+000,4.6567838227e+000,5.0487052225e+000,5.3732953961e+000,5.0629807507e+000,5.1226180639e+000,5.3469739357e+000,4.9871644834e+000,6.4146790683e+000,4.7762796426e+000,5.4572358100e+000,4.5181148819e+000,4.8504576139e+000,
8.7187500000e+000,4.7653673022e+000,4.8621558423e+000,4.6034445252e+000,5.0265908409e+000,5.3761514828e+000,4.9852342641e+000,5.1110132819e+000,5.2680769828e+000,4.9937949453e+000,6.3503057181e+000,4.7772109916e+000,5.4264397995e+000,4.5446300983e+000,4.8415726583e+000,
8.8125000000e+000,4.8250706142e+000,4.8980054564e+000,4.6663360889e+000,5.0525141333e+000,5.4009030804e+000,5.0014439709e+000,5.0711071899e+000,5.2460574065e+000,5.0395574872e+000,6.2675596747e+000,4.7079808906e+000,5.4067388434e+000,4.5104289473e+000,4.8432822837e+000,
8.9062500000e+000,4.8302564460e+000,4.9379416140e+000,4.6974849144e+000,5.1248915764e+000,5.4913263598e+000,5.0878112481e+000,5.1231828984e+000,5.2254912588e+000,5.0632057378e+000,6.2632007380e+000,4.7067782941e+000,5.4802027188e+000,4.5361838035e+000,4.9255957259e+000,
9.0000000000e+000,4.7680779728e+000,4.8888083218e+000,4.6658557718e+000,5.1042129880e+000,5.5203808917e+000,5.1062812401e+000,5.0256476299e+000,5.2613600399e+000,4.9876392917e+000,6.1068597373e+000,4.6277433925e+000,5.4137021848e+000,4.4499394704e+000,4.9394577545e+000,
9.0937500000e+000,4.8110947595e+000,4.8989729218e+000,4.6475019611e+000,5.0874121601e+000,5.5640221212e+000,5.1473540895e+000,5.0940880253e+000,5.2822455043e+000,4.9845885286e+000,6.1058473397e+000,4.6410802823e+000,5.4517637748e+000,4.4501438281e+000,4.9201167303e+000,
9.1875000000e+000,4.8051289281e+000,4.9790187580e+000,4.5752439659e+000,5.0913958961e+000,5.6111930647e+000,5.2166420435e+000,5.0697936875e+000,5.2335613412e+000,5.0291095369e+000,6.1622191240e+000,4.7035698756e+000,5.5063242231e+000,4.4990614061e+000,4.8984697138e+000,
9.2812500000e+000,4.7905104747e+000,4.9606340833e+000,4.5236135985e+000,5.0699649893e+000,5.5947162101e+000,5.2511140267e+000,5.0687429904e+000,5.1786994428e+000,5.0460499931e+000,6.1643960896e+000,4.6693355202e+000,5.4261247223e+000,4.4208737726e+000,4.7007006907e+000,
9.3750000000e+000,4.6384227517e+000,4.8338325440e+000,4.4493338537e+000,4.9496492165e+000,5.4410447622e+000,5.1979074874e+000,5.1010066253e+000,5.2084042049e+000,5.0540329817e+000,6.1258453719e+000,4.6006953793e+000,5.3831498738e+000,4.3738097876e+000,4.6258519616e+000,
9.4687500000e+000,4.6189798243e+000,4.8610471959e+000,4.4461670460e+000,5.0492829797e+000,5.4387700103e+000,5.1277839959e+000,5.0917784069e+000,5.1271218218e+000,5.0400888787e+000,6.0768743978e+000,4.5217255231e+000,5.3942586378e+000,4.3480822038e+000,4.5490515588e+000,
9.5625000000e+000,4.7053825333e+000,4.8983869738e+000,4.4938299170e+000,5.1007360646e+000,5.4509776315e+000,5.1458514066e+000,5.1356410830e+000,5.1848259780e+000,5.0467440124e+000,5.9342652686e+000,4.6063685546e+000,5.3337307258e+000,4.4240801226e+000,4.5690486054e+000,
9.6562500000e+000,4.6594673504e+000,4.8025126402e+000,4.4762938087e+000,5.0258443886e+000,5.4186298023e+000,5.2000582717e+000,5.0553192170e+000,5.2024685167e+000,5.0923657370e+000,5.8807586947e+000,4.6256242375e+000,5.2829163784e+000,4.4029783189e+000,4.4701787743e+000,
9.7500000000e+000,4.5770232446e+000,4.8006792023e+000,4.4297747703e+000,4.9868158952e+000,5.4084346386e+000,5.2355870052e+000,5.0956573167e+000,5.1852147785e+000,5.0269971323e+000,5.9936588926e+000,4.5951813787e+000,5.2749922921e+000,4.3060090690e+000,4.4968998050e+000,
9.8437500000e+000,4.6954351845e+000,4.8498400297e+000,4.4606864093e+000,4.9788494572e+000,5.4584683094e+000,5.2860179185e+000,5.0976964687e+000,5.2486073039e+000,5.0103623641e+000,6.0836009370e+000,4.5710940407e+000,5.2364598217e+000,4.3777535666e+000,4.4959189344e+000,
9.9375000000e+000,4.6574104455e+000,4.8490836754e+000,4.3648538948e+000,4.9397435729e+000,5.3595038704e+000,5.2336797041e+000,5.1098689147e+000,5.2273559900e+000,4.9892798695e+000,6.1118741094e+000,4.5291758454e+000,5.1713983186e+000,4.4068612669e+000,4.3829759295e+000,
1.0031250000e+001,4.6702005734e+000,4.9122700359e+000,4.3674405768e+000,4.9720514594e+000,5.3775130289e+000,5.2386365412e+000,5.0253197252e+000,5.1391340725e+000,4.9879350297e+000,6.1256116353e+000,4.5511310816e+000,5.1172217154e+000,4.4289384120e+000,4.3881847017e+000,
1.0125000000e+001,4.5653320273e+000,4.8740583703e+000,4.3571376650e+000,4.9556884313e+000,5.2709500518e+000,5.2934029994e+000,4.9207097622e+000,5.1546975466e+000,4.9544979985e+000,6.0644179685e+000,4.4892213772e+000,5.0391724711e+000,4.3869843958e+000,4.3732681123e+000,
1.0218750000e+001,4.5183502893e+000,4.7149618341e+000,4.3238867701e+000,4.8755599908e+000,5.3178917503e+000,5.2547583091e+000,4.8502452420e+000,5.1468158163e+000,4.9033008334e+000,6.1045180920e+000,4.5560732227e+000,5.0068432723e+000,4.3845625863e+000,4.3704199592e+000,
1.0312500000e+001,4.5452696613e+000,4.7041702583e+000,4.3079333751e+000,4.8361012974e+000,5.3644654671e+000,5.2311245725e+000,4.8094124602e+000,5.2266688842e+000,4.8691394619e+000,6.1634291612e+000,4.4877577902e+000,4.8798560528e+000,4.4021003832e+000,4.3799756213e+000,
1.0406250000e+001,4.5593966768e+000,4.7325933968e+000,4.3327048928e+000,4.8574584831e+000,5.4173705468e+000,5.2239094715e+000,4.7873087625e+000,5.2003273881e+000,4.8368391755e+000,6.1626826845e+000,4.4738623414e+000,4.8740037399e+000,4.4203209107e+000,4.3914107761e+000,
1.0500000000e+001,4.4951932538e+000,4.6599808323e+000,4.2625012160e+000,4.7213044363e+000,6.4723135270e+000,5.1818550724e+000,4.7118368956e+000,5.1851884636e+000,4.7717334587e+000,6.1556412393e+000,4.4463555209e+000,4.9446517069e+000,4.4474374829e+000,4.4165405417e+000,
1.0593750000e+001,4.3888385347e+000,4.6708300590e+000,4.1694569185e+000,4.7436029902e+000,1.0296027993e+001,5.0641882574e+000,4.6353823552e+000,5.0007154161e+000,5.0445570764e+000,6.1617027607e+000,5.0486621992e+000,5.0587663177e+000,4.4027151772e+000,4.4329399392e+000,
1.0687500000e+001,4.4991953086e+000,4.7850827327e+000,4.2505041853e+000,4.8122569210e+000,1.0636798884e+001,5.0891138773e+000,4.5883101331e+000,5.3090360515e+000,5.2942354525e+000,6.2645803943e+000,5.2501519531e+000,5.1155242711e+000,4.3976166210e+000,4.4523914459e+000,
1.0781250000e+001,4.4986943430e+000,4.7521594524e+000,4.2838668873e+000,4.8097699151e+000,1.0644573924e+001,5.0164196812e+000,4.5905611304e+000,5.3289247821e+000,5.3163502465e+000,6.1184253193e+000,5.2504534393e+000,5.1542721365e+000,4.4080974980e+000,4.4665565700e+000,
1.0875000000e+001,4.3879986177e+000,4.6393227221e+000,4.1921833803e+000,4.7342224405e+000,1.0644885261e+001,4.9819561331e+000,4.5531453723e+000,5.3517527350e+000,5.2995471393e+000,6.0695790091e+000,5.2527835247e+000,5.2742924108e+000,4.3019394773e+000,4.4601727060e+000,
1.0968750000e+001,4.3903448499e+000,4.5983654452e+000,4.1729812272e+000,4.6965249477e+000,1.0644889174e+001,4.9714472583e+000,4.5995646809e+000,5.3840135264e+000,5.2717693949e+000,6.0338144243e+000,5.2257441915e+000,5.2565107801e+000,4.2472986573e+000,4.3819679188e+000,
1.1062500000e+001,4.5760448958e+000,4.6588221023e+000,4.3559664231e+000,4.8223746137e+000,1.0645267232e+001,5.0228170027e+000,4.7181020317e+000,5.4072647433e+000,5.2564706076e+000,6.0542654692e+000,5.2186777934e+000,5.2925117921e+000,4.2877475628e+000,4.3957130623e+000,
1.1156250000e+001,4.6027266871e+000,4.7742705307e+000,4.3922164956e+000,4.9599977608e+000,1.0645391367e+001,4.9030557552e+000,4.7598228666e+000,5.4215311023e+000,5.2388796727e+000,6.0221349392e+000,5.1752174892e+000,5.3176591583e+000,4.3065883817e+000,4.4634978518e+000,
1.1250000000e+001,4.5881933335e+000,4.8467735752e+000,4.4152369500e+000,4.9940991171e+000,1.0644784649e+001,4.9247878117e+000,4.7694542676e+000,5.4265187339e+000,5.1930973806e+000,5.9096390410e+000,5.1580920451e+000,5.2783016159e+000,4.2227744290e+000,4.4289310796e+000,
1.1343750000e+001,4.5431724752e+000,4.8050212757e+000,4.3821088088e+000,4.9435053649e+000,1.0644421567e+001,5.0128841538e+000,4.7174624303e+000,5.3645460378e+000,5.1561206205e+000,5.8145434585e+000,5.1353681478e+000,5.2427853835e+000,4.1561218834e+000,4.3503833082e+000,
1.1437500000e+001,4.5157296242e+000,4.7960227771e+000,4.3602951979e+000,4.9493288010e+000,1.0644388350e+001,4.9993988235e+000,4.7305939441e+000,5.4009413371e+000,5.1388224247e+000,5.8044406555e+000,5.0993637905e+000,5.2880735321e+000,4.1231658773e+000,4.3808417303e+000,
1.1531250000e+001,4.5537666731e+000,4.8522012401e+000,4.3491579554e+000,4.9578031749e+000,1.0367831786e+001,4.9890148246e+000,4.6604698306e+000,5.3964382590e+000,5.0493949332e+000,5.8042162789e+000,4.8404931272e+000,5.1777535856e+000,4.0991516673e+000,4.4266761177e+000,
1.1625000000e+001,4.5603488816e+000,4.8430508540e+000,4.3859266012e+000,4.9758180420e+000,8.3040976947e+000,5.0010894083e+000,4.6661632406e+000,5.3998795622e+000,4.7803038090e+000,5.7268066864e+000,3.9653586758e+000,5.1931415682e+000,4.0887390477e+000,4.5687453044e+000,
1.1718750000e+001,4.4522189657e+000,4.7848168622e+000,4.2988304716e+000,4.9311953579e+000,6.1143349686e+000,5.0454001645e+000,4.6941348401e+000,5.1791172383e+000,4.4502451692e+000,5.7397562073e+000,3.8601670076e+000,5.1458837852e+000,4.1239707594e+000,4.5385141295e+000,
1.1812500000e+001,4.4569576274e+000,4.7875892615e+000,4.2603921172e+000,4.9080602415e+000,5.5131834074e+000,5.0677838157e+000,4.6204744131e+000,5.1395939086e+000,4.3823744294e+000,5.7693154615e+000,3.8535904452e+000,5.0265776356e+000,4.1206370306e+000,4.4961355952e+000,
1.1906250000e+001,4.5037063915e+000,4.8229600706e+000,4.3200474768e+000,4.9178034410e+000,5.4338523383e+000,5.1632695507e+000,4.5486655174e+000,5.3317452107e+000,4.4941591671e+000,5.6807301631e+000,3.9619109154e+000,5.0146580247e+000,4.2359654797e+000,4.5218136173e+000,
1.2000000000e+001,4.4661934290e+000,4.7874372015e+000,4.2591679807e+000,4.8429160409e+000,5.2898773105e+000,5.1707275452e+000,4.5104323516e+000,5.3796635849e+000,4.4586354481e+000,5.7276960381e+000,3.9506696837e+000,5.0299008491e+000,4.2126953414e+000,4.5091667027e+000,
1.2093750000e+001,4.3207747125e+000,4.7244840095e+000,4.1368136798e+000,4.7916423398e+000,5.2023853041e+000,5.1596918975e+000,4.4762435325e+000,5.3653656379e+000,4.4269496458e+000,5.7121567903e+000,3.9623446351e+000,4.9764985581e+000,4.1444500424e+000,4.4798630307e+000,
1.2187500000e+001,4.2859179046e+000,4.6475228462e+000,4.0274826022e+000,4.6246261857e+000,5.1793968779e+000,5.1698379751e+000,4.4265179432e+000,5.3894602205e+000,4.4565017045e+000,5.7147846837e+000,4.0553305514e+000,4.9770276976e+000,4.1250565639e+000,4.3918445985e+000,
1.2281250000e+001,4.3274666474e+000,4.6677277266e+000,4.0987180124e+000,4.6943978621e+000,5.2299847932e+000,5.1890610621e+000,4.6195483922e+000,5.3753134996e+000,4.7040170518e+000,5.7266154981e+000,4.1501284821e+000,5.1003983180e+000,4.2136781918e+000,4.5046228472e+000,
1.2375000000e+001,4.3574807371e+000,4.6721414414e+000,4.1195264411e+000,4.7576975253e+000,5.2218560577e+000,5.1140927874e+000,4.7173915474e+000,5.3598288771e+000,4.8215580015e+000,5.8311226945e+000,4.1639404113e+000,5.1747546510e+000,4.2419101556e+000,4.5900458866e+000,
1.2468750000e+001,4.3940831476e+000,4.5656194698e+000,4.1576824511e+000,4.7344912630e+000,5.1163812121e+000,5.0762470602e+000,4.6764176515e+000,5.3140008246e+000,4.8300946146e+000,5.8271962771e+000,4.2590818973e+000,5.1252575024e+000,4.2012458928e+000,4.5063100273e+000,
1.2562500000e+001,4.3782685543e+000,4.5544483102e+000,4.2030679778e+000,4.6874698636e+000,5.0637440457e+000,5.1374000749e+000,4.8139764640e+000,5.3538788531e+000,4.8124303373e+000,5.9089284170e+000,4.1994457201e+000,5.0365937164e+000,4.1663503892e+000,4.3413710189e+000,
1.2656250000e+001,4.3875526166e+000,4.5893705788e+000,4.1828283961e+000,4.6367191337e+000,4.8675072013e+000,5.1682797840e+000,4.8411127314e+000,5.4854954892e+000,4.7830671490e+000,6.0538974349e+000,4.2123187298e+000,5.0855913803e+000,4.1644740242e+000,4.3745282400e+000,
1.2750000000e+001,4.3699656827e+000,4.5756556702e+000,4.2165786520e+000,4.6610027494e+000,4.8913399880e+000,5.1747655245e+000,4.8072699505e+000,5.5528135559e+000,4.8542618696e+000,6.1113063909e+000,4.2168982267e+000,5.1492968807e+000,4.1422600105e+000,4.3442726581e+000,
1.2843750000e+001,4.3955235638e+000,4.5955908686e+000,4.2291497895e+000,4.7040984807e+000,4.8704501101e+000,5.1985178475e+000,4.8477615438e+000,5.5303807694e+000,4.9124778571e+000,6.1178204825e+000,4.2964784163e+000,5.1622226972e+000,4.1750408319e+000,4.4150995125e+000,
1.2937500000e+001,4.3644295537e+000,4.5533664728e+000,4.2499764758e+000,4.7582008254e+000,4.9406162816e+000,5.0231951547e+000,4.8675318858e+000,5.4136491784e+000,4.9310781705e+000,6.1848346039e+000,4.2838652722e+000,5.1978942943e+000,4.1844486190e+000,4.4320988820e+000,
1.3031250000e+001,4.2525871589e+000,4.4726003099e+000,4.2064293908e+000,4.7423046053e+000,4.9238198253e+000,4.9314746304e+000,4.8879212177e+000,5.3714001082e+000,4.9332304195e+000,6.1039538215e+000,4.2885313595e+000,5.1177803231e+000,4.1282152166e+000,4.4189570098e+000,
1.3125000000e+001,4.2571635978e+000,4.4588057896e+000,4.1978113168e+000,4.7718299120e+000,4.9279931983e+000,4.8644769342e+000,4.8594798877e+000,5.3078737783e+000,4.9693197803e+000,6.1203506502e+000,4.2414448144e+000,5.1252360617e+000,4.2076581225e+000,4.4945188998e+000,
1.3218750000e+001,4.2219156623e+000,4.3697607124e+000,4.1218565787e+000,4.7138831113e+000,7.8077262686e+000,4.8982300521e+000,4.7868918048e+000,5.2753937902e+000,4.8839085277e+000,6.1391300828e+000,4.2097247914e+000,5.0948105558e+000,4.1239930948e+000,4.4864120039e+000,
1.3312500000e+001,4.1365581407e+000,4.1939160275e+000,4.0521160515e+000,4.5741472451e+000,1.0387651761e+001,4.8528662075e+000,4.8837593642e+000,5.2660377972e+000,5.1081408108e+000,6.1503803564e+000,4.8337398431e+000,4.9407162581e+000,4.0512677479e+000,4.3414836010e+000,
1.3406250000e+001,4.4298553615e+000,4.4029373264e+000,4.2212558126e+000,4.7391515316e+000,1.0581461745e+001,4.9133693730e+000,5.1295759985e+000,5.3457114810e+000,5.1703207014e+000,6.2210333957e+000,5.0089969551e+000,5.0635281375e+000,4.1316172536e+000,4.4680313090e+000,
1.3500000000e+001,4.4157963940e+000,4.4477502595e+000,4.1469030790e+000,4.7113458042e+000,1.0592177837e+001,4.9046842928e+000,5.1363022636e+000,5.3576131671e+000,5.1724581058e+000,6.2076739010e+000,5.0112487326e+000,5.0384645058e+000,4.1527883135e+000,4.4682935855e+000,
1.3593750000e+001,4.4356442634e+000,4.4310919238e+000,4.1849475335e+000,4.7449098801e+000,1.0592181673e+001,4.8554934218e+000,5.0700085150e+000,5.2613067434e+000,5.1640632922e+000,6.1364048099e+000,4.9961247700e+000,5.0656238668e+000,4.0879398286e+000,4.5453545572e+000,
1.3687500000e+001,4.3425730140e+000,4.3128920748e+000,4.0923827005e+000,4.6453104449e+000,1.0592765496e+001,4.7491179251e+000,5.0535261696e+000,4.9914122154e+000,5.0891213179e+000,5.9653000671e+000,5.0202696660e+000,5.0441639417e+000,4.0372523406e+000,4.5322882494e+000,
1.3781250000e+001,4.3663857555e+000,4.3408286533e+000,4.1336421555e+000,4.6688374781e+000,1.0592867885e+001,4.7697385529e+000,5.0830326870e+000,5.1149713409e+000,5.1669735373e+000,6.0063833178e+000,5.0307294439e+000,5.1534683084e+000,4.0730357871e+000,4.5254482747e+000,
1.3875000000e+001,4.4069013421e+000,4.4100264272e+000,4.1490957409e+000,4.6633326917e+000,1.0593529805e+001,4.8283612455e+000,5.1116351185e+000,5.0903829188e+000,5.1228072446e+000,6.1045284476e+000,4.9796528107e+000,5.1271968223e+000,3.9627817458e+000,4.5845610867e+000,
1.3968750000e+001,4.4168211807e+000,4.4349100071e+000,4.1515299925e+000,4.6261298135e+000,1.0593318884e+001,4.9011766823e+000,5.1156903898e+000,5.0366160068e+000,5.1039635368e+000,6.0455910587e+000,4.9799922598e+000,5.1069517663e+000,3.9158535203e+000,4.5609264914e+000,
1.4062500000e+001,4.5223758225e+000,4.5244280238e+000,4.2255460064e+000,4.7516981640e+000,1.0593859612e+001,4.9663965559e+000,5.1786980022e+000,5.0281086948e+000,5.1317132015e+000,6.1610220201e+000,5.0926007019e+000,5.1787716330e+000,4.0657495974e+000,4.6094845656e+000,
1.4156250000e+001,4.5108822893e+000,4.5032459990e+000,4.2510895340e+000,4.6964321108e+000,1.0594107553e+001,4.9590354705e+000,5.1850192145e+000,5.0489972351e+000,5.1231186830e+000,6.1590122188e+000,5.1262868901e+000,5.1407583118e+000,4.0698602844e+000,4.5820821899e+000,
1.4250000000e+001,4.5504372575e+000,4.5516773291e+000,4.3368116048e+000,4.7248935821e+000,1.0362554944e+001,4.9721041090e+000,5.2222924422e+000,5.0822424518e+000,5.1324299075e+000,6.2406972681e+000,4.9919532876e+000,5.2029589508e+000,4.0994623769e+000,4.6292233615e+000,
1.4343750000e+001,4.5388033402e+000,4.5251868088e+000,4.2306142712e+000,4.7009659864e+000,8.5207861992e+000,4.9533498641e+000,4.8990212460e+000,5.0713750448e+000,4.8063561746e+000,6.2668363825e+000,4.5108023863e+000,5.2981888032e+000,4.0340390232e+000,4.6562223058e+000,
1.4437500000e+001,4.2864787698e+000,4.3414417532e+000,4.0993041901e+000,4.5155240765e+000,6.0139649595e+000,4.9076325279e+000,4.8410271383e+000,4.9859660347e+000,4.7440520836e+000,6.1334612743e+000,4.3773694677e+000,5.2258388849e+000,3.9556830465e+000,4.5676507153e+000,
1.4531250000e+001,4.3633903607e+000,4.4256276004e+000,4.1311061296e+000,4.6128143846e+000,5.3818060609e+000,4.9352979857e+000,4.8811606685e+000,4.9718429020e+000,4.7417931117e+000,6.1559472752e+000,4.3928319069e+000,5.3082949004e+000,3.9125875977e+000,4.5666110681e+000,
1.4625000000e+001,4.3525121757e+000,4.3480295701e+000,4.0890868930e+000,4.5514823303e+000,5.3583639418e+000,4.9570802912e+000,4.8831625437e+000,4.9909602988e+000,4.8591501534e+000,6.1793047246e+000,4.4439341461e+000,5.3450287677e+000,3.9311842332e+000,4.5232023475e+000,
1.4718750000e+001,4.3901598086e+000,4.3689842923e+000,4.0987696309e+000,4.5847521250e+000,5.2750946204e+000,4.9472219452e+000,4.9986776116e+000,5.1616417592e+000,4.8853173095e+000,6.2458665560e+000,4.4969386089e+000,5.2735384562e+000,4.0163044341e+000,4.5533733602e+000,
1.4812500000e+001,4.3498639072e+000,4.3036017126e+000,4.0405790647e+000,4.5258112732e+000,5.2365693004e+000,4.9128728744e+000,5.0500371009e+000,5.0340077929e+000,4.8637291517e+000,6.2008699997e+000,4.4645997952e+000,5.1531001148e+000,3.9482085920e+000,4.4958887403e+000,
1.4906250000e+001,4.1981498815e+000,4.1386201018e+000,3.8867087781e+000,4.4487578882e+000,5.0375239881e+000,4.7792897886e+000,4.9327144857e+000,5.0319183929e+000,4.7464688019e+000,6.0805041269e+000,4.4726907750e+000,5.1671450478e+000,3.9086828238e+000,4.3651758712e+000,
1.5000000000e+001,4.2081262822e+000,4.1702250085e+000,3.9193142496e+000,4.5004541149e+000,4.9542419458e+000,4.8131509061e+000,4.9044622802e+000,5.0424955613e+000,4.8342170709e+000,6.1643186092e+000,4.3862213752e+000,5.1374961742e+000,3.9595047183e+000,4.3986866765e+000,
1.5093750000e+001,4.1389376810e+000,4.0626699443e+000,3.9219857520e+000,4.4054441762e+000,4.8637746426e+000,4.7101063352e+000,4.8617886789e+000,5.0712764526e+000,4.8606628808e+000,6.0921473580e+000,4.4002123837e+000,5.1093229408e+000,3.9427279781e+000,4.3412809778e+000,
1.5187500000e+001,4.2202862768e+000,4.1885885569e+000,3.9538020837e+000,4.4447973949e+000,4.9481711056e+000,4.7763888500e+000,4.9715426450e+000,5.1050933067e+000,4.9239218113e+000,6.0108772911e+000,4.3569505891e+000,5.1340135083e+000,4.0279015015e+000,4.4258785286e+000,
1.5281250000e+001,4.1544065323e+000,4.1540984346e+000,3.8857584649e+000,4.3751027657e+000,4.9969937280e+000,4.7195726933e+000,4.9453733644e+000,5.0537398386e+000,4.8155289301e+000,5.8664628706e+000,4.3021772801e+000,5.1181035224e+000,4.0063815574e+000,4.4006551123e+000,
1.5375000000e+001,4.1397226130e+000,4.1641957430e+000,3.9357944503e+000,4.3341289808e+000,4.9688446502e+000,4.8042649079e+000,4.9129971934e+000,5.1631211212e+000,4.8402084542e+000,5.8835425637e+000,4.3313865544e+000,5.0760950250e+000,3.9875625147e+000,4.3284567935e+000,
1.5468750000e+001,4.1750850895e+000,4.1999256974e+000,4.0271434783e+000,4.2745828014e+000,4.9370795904e+000,4.8566894111e+000,4.8882663990e+000,5.2135117149e+000,4.8753677712e+000,5.8390815559e+000,4.2918521611e+000,4.9551809994e+000,4.0472118311e+000,4.3891739344e+000,
1.5562500000e+001,4.1880337179e+000,4.2049439820e+000,4.0597214525e+000,4.3215591507e+000,4.8780357929e+000,4.8583206153e+000,5.0417117759e+000,5.2116654613e+000,4.9803732381e+000,5.7790211120e+000,4.3660243825e+000,5.0271644505e+000,4.1544263894e+000,4.3927961508e+000,
1.5656250000e+001,4.1243803761e+000,4.1551459501e+000,3.9913296900e+000,4.3157165686e+000,4.8515069299e+000,4.7633121613e+000,4.9634836761e+000,5.1824191271e+000,4.9775707007e+000,5.7984222512e+000,4.3648470874e+000,4.9493261305e+000,4.1055830432e+000,4.2848943865e+000,
1.5750000000e+001,4.1900310229e+000,4.2725574981e+000,4.0075851236e+000,4.3520481124e+000,4.9219686921e+000,4.8678840085e+000,4.9911241511e+000,5.2087905144e+000,5.0046553578e+000,5.7521106363e+000,4.2574398587e+000,4.9984046009e+000,4.0810919084e+000,4.2848392650e+000,
1.5843750000e+001,4.3354221590e+000,4.4012249557e+000,4.0505104794e+000,4.3721415125e+000,5.0927040339e+000,4.9257809005e+000,4.9850181579e+000,5.2535383151e+000,5.0515465448e+000,5.7714246759e+000,4.4025116024e+000,5.1135069963e+000,4.1956226669e+000,4.4379852973e+000,
1.5937500000e+001,4.3997161833e+000,4.3896504664e+000,4.0752888928e+000,4.3433213795e+000,5.2623162768e+000,4.9621121863e+000,4.9555106177e+000,5.2083290415e+000,5.1043272806e+000,5.7787785382e+000,4.4430002050e+000,5.1018774511e+000,4.2171294008e+000,4.4129065952e+000,
1.6031250000e+001,4.3566040715e+000,4.4628093266e+000,4.0265654224e+000,4.3219386496e+000,5.2977192874e+000,4.9607758004e+000,4.9619969105e+000,5.2191374824e+000,5.0157282344e+000,5.6388318728e+000,4.3470060364e+000,5.1377131125e+000,4.1862043396e+000,4.5501068043e+000,
1.6125000000e+001,4.2922699709e+000,4.4063225524e+000,3.9562407544e+000,4.2419659234e+000,5.3472384934e+000,4.8913582908e+000,5.0038009868e+000,5.2441326769e+000,4.9850604499e+000,5.6076490583e+000,4.3558636961e+000,5.0459968382e+000,4.1013817722e+000,4.5065686408e+000,
1.6218750000e+001,4.2433653725e+000,4.3666871039e+000,3.9227818215e+000,4.2672450634e+000,5.3040791269e+000,4.9333838009e+000,4.9465900964e+000,5.1855941454e+000,4.9886495334e+000,5.5757475714e+000,4.5430003062e+000,5.0344626566e+000,4.1433879917e+000,4.5085498604e+000,
1.6312500000e+001,4.2383060844e+000,4.4264028146e+000,3.8537561423e+000,4.3288481482e+000,5.2600798289e+000,4.9527711997e+000,4.9422684100e+000,5.2289377462e+000,4.9739027251e+000,5.6441074093e+000,4.5602987932e+000,5.0212191351e+000,4.1312150855e+000,4.5237246621e+000,
1.6406250000e+001,4.2738159947e+000,4.6116243866e+000,3.9366333034e+000,4.5491770746e+000,5.4364674165e+000,5.0494131705e+000,5.0811994659e+000,5.3166471874e+000,4.9837012204e+000,5.7377936223e+000,4.6049501083e+000,5.2172357375e+000,4.2407154212e+000,4.5997129146e+000,
1.6500000000e+001,4.3117250091e+000,4.7278676989e+000,3.9661097524e+000,4.7326736513e+000,5.4914080582e+000,5.0120096628e+000,5.0987264282e+000,5.3018457610e+000,5.0218112443e+000,5.8447237799e+000,4.6313255673e+000,5.2830955963e+000,4.3017809630e+000,4.7029510736e+000,
1.6593750000e+001,4.2782649619e+000,4.6737370111e+000,3.9385184496e+000,4.7072029790e+000,5.4513047377e+000,5.0228457659e+000,4.9546873688e+000,5.4325960661e+000,4.8403140488e+000,5.8906500928e+000,4.5579883336e+000,5.2667688038e+000,4.2397440869e+000,4.7086550924e+000,
1.6687500000e+001,4.3738461038e+000,4.7342387064e+000,4.0577543656e+000,4.7236612349e+000,5.5132838723e+000,5.0813507025e+000,5.0211032947e+000,5.4772628090e+000,4.8176840855e+000,5.8619674783e+000,4.5436503229e+000,5.3084130520e+000,4.2562554828e+000,4.8176166986e+000,
1.6781250000e+001,4.3609344385e+000,4.6992348540e+000,4.1878386680e+000,4.7618197749e+000,5.5196032141e+000,5.0916230363e+000,4.9861917712e+000,5.4126481884e+000,4.9676193415e+000,5.8670882581e+000,4.5173721471e+000,5.2630648567e+000,4.3424772104e+000,4.8093959424e+000,
1.6875000000e+001,4.3102614848e+000,4.7169911332e+000,4.2303337414e+000,4.7738823281e+000,5.4298070901e+000,5.0387293460e+000,4.9793827601e+000,5.4034265329e+000,4.9999330484e+000,5.8935591166e+000,4.5210824253e+000,5.2657478717e+000,4.3187021114e+000,4.7824194555e+000,
1.6968750000e+001,4.3037898419e+000,4.7561391468e+000,4.2266926332e+000,4.8091484957e+000,5.4733887707e+000,5.0677835039e+000,5.0246286753e+000,5.4006616640e+000,4.9612057152e+000,5.9592354702e+000,4.5052109647e+000,5.2282406219e+000,4.3322401413e+000,4.7691508779e+000,
1.7062500000e+001,4.3063854414e+000,4.7037688173e+000,4.2236930725e+000,4.8217821370e+000,5.4339850044e+000,5.0457162778e+000,4.9299600412e+000,5.4372521529e+000,4.9645434259e+000,6.0040702994e+000,4.5452598750e+000,5.2026165363e+000,4.4285774618e+000,4.7142981470e+000,
1.7156250000e+001,4.3549258788e+000,4.8110522813e+000,4.3383302953e+000,4.9103336747e+000,5.4317764993e+000,5.1583449008e+000,4.9899461164e+000,5.4236948405e+000,5.0429503783e+000,6.0893886672e+000,4.5361776868e+000,5.2948769824e+000,4.5073957874e+000,4.7147460710e+000,
1.7250000000e+001,4.4563104123e+000,4.9046003894e+000,4.4641620095e+000,5.0050238903e+000,5.5133453206e+000,5.2501236851e+000,5.0306435392e+000,5.4732371664e+000,5.1369438340e+000,6.1158831947e+000,4.4740076673e+000,5.4104001215e+000,4.5307545591e+000,4.7531842570e+000,
1.7343750000e+001,4.4828302137e+000,4.9142709564e+000,4.5346139806e+000,5.0129478402e+000,5.6197377672e+000,5.2182923834e+000,4.9979863767e+000,5.3208253085e+000,5.2248195984e+000,6.1769855845e+000,4.5800007117e+000,5.4595159620e+000,4.6627046523e+000,4.8049762328e+000,
1.7437500000e+001,4.5886272176e+000,4.8024805843e+000,4.4967200844e+000,4.8939213626e+000,5.5185222678e+000,5.1577300659e+000,4.9097952968e+000,5.2731072659e+000,5.2789148276e+000,6.1552831916e+000,4.5670372232e+000,5.3104549131e+000,4.5901950752e+000,4.6795793789e+000,
1.7531250000e+001,4.6159672067e+000,4.7537879207e+000,4.4913955212e+000,4.8051524209e+000,5.5548196099e+000,5.1901965143e+000,5.0015308580e+000,5.1993099589e+000,5.2620940848e+000,6.1474261975e+000,4.6134988159e+000,5.2788088446e+000,4.6123183583e+000,4.6315372747e+000,
1.7625000000e+001,4.6747582820e+000,4.7964359594e+000,4.5575425048e+000,4.8567062482e+000,5.6056233980e+000,5.2305511182e+000,5.1377807628e+000,5.1160609546e+000,5.3666006623e+000,6.0707408979e+000,4.7225441670e+000,5.2379213872e+000,4.5710676062e+000,4.6591318928e+000,
1.7718750000e+001,4.6650925653e+000,4.7619903711e+000,4.5659110492e+000,4.8707301580e+000,5.6809942753e+000,5.2766309387e+000,5.2091547013e+000,5.1171545393e+000,5.3873614145e+000,6.1807669359e+000,4.7596477798e+000,5.1790215209e+000,4.6002785131e+000,4.6440499174e+000,
1.7812500000e+001,4.5993275909e+000,4.7016991075e+000,4.4951190264e+000,4.9154560479e+000,5.6158621187e+000,5.1410415599e+000,5.2283542939e+000,5.1288128799e+000,5.2855228775e+000,6.2334785742e+000,4.9152264805e+000,5.1638000525e+000,4.6205653914e+000,4.6800608712e+000,
1.7906250000e+001,4.7699829620e+000,4.8645602297e+000,4.6561726742e+000,5.1326500527e+000,5.7237922667e+000,5.3436981411e+000,5.3058211516e+000,5.3088610214e+000,5.4604113365e+000,6.2828284989e+000,4.9605091688e+000,5.3569611099e+000,4.7798178052e+000,4.8677213709e+000,
1.8000000000e+001,4.8433658225e+000,4.9972628426e+000,4.7697268764e+000,5.2506534004e+000,5.7848773529e+000,5.3946274457e+000,5.4280708276e+000,5.4962657057e+000,5.5925471824e+000,6.3195877790e+000,5.1649956520e+000,5.4029830313e+000,4.8618464485e+000,4.9439977068e+000,
1.8093750000e+001,4.9201475101e+000,5.0143434933e+000,4.8140493759e+000,5.2229488323e+000,5.8410388624e+000,5.5080347848e+000,5.4882547362e+000,5.4654854504e+000,5.6634171090e+000,6.4731239826e+000,5.1394495679e+000,5.4230274129e+000,4.8423458741e+000,5.0274740740e+000,
1.8187500000e+001,5.0317231653e+000,5.1014729585e+000,4.8728240259e+000,5.3503045316e+000,5.8814515360e+000,5.4545034231e+000,5.5802625013e+000,5.4840961645e+000,5.6964707109e+000,6.4873470668e+000,5.2412172559e+000,5.3380568478e+000,4.9615867237e+000,5.1355446941e+000,
1.8281250000e+001,5.0126844327e+000,5.0658053043e+000,4.8385840961e+000,5.3122545890e+000,5.8518887150e+000,5.4448474008e+000,5.6562129814e+000,5.4805692719e+000,5.6880530646e+000,6.5300475243e+000,5.2004521973e+000,5.2512525439e+000,4.8976343737e+000,5.1074564962e+000,
1.8375000000e+001,4.9794170561e+000,5.0739831957e+000,4.8016431996e+000,5.3146133617e+000,5.7840665922e+000,5.4371228603e+000,5.6899730215e+000,5.4806252004e+000,5.6596751652e+000,6.5614895489e+000,5.2088255233e+000,5.2906635755e+000,4.8842484733e+000,5.1350749570e+000,
1.8468750000e+001,4.8777651852e+000,5.0126405757e+000,4.7903923572e+000,5.2803669251e+000,5.7644086386e+000,5.4392091711e+000,5.7164645116e+000,5.4826813160e+000,5.6235145746e+000,6.6317903749e+000,5.1933483210e+000,5.2845162343e+000,4.8546369549e+000,5.1196715174e+000,
1.8562500000e+001,4.9337465053e+000,5.0648805066e+000,4.8237277218e+000,5.2853405210e+000,5.7646366951e+000,5.4398429587e+000,5.7450934433e+000,5.5041378629e+000,5.6327890132e+000,6.6189538422e+000,5.1484453692e+000,5.3233215936e+000,4.8198678321e+000,5.1146063162e+000,
1.8656250000e+001,4.8451528550e+000,5.0140508896e+000,4.7036165034e+000,5.1777008331e+000,5.6797983668e+000,5.3216079254e+000,5.6257022270e+000,5.4466205627e+000,5.4793349713e+000,6.5423120254e+000,5.1147231505e+000,5.2663745147e+000,4.8217953707e+000,5.0207996795e+000,
1.8750000000e+001,4.8588960769e+000,5.0242596557e+000,4.6680330743e+000,5.1517959734e+000,5.7609975930e+000,5.4773335122e+000,5.5422146700e+000,5.5667702358e+000,5.4893191749e+000,6.5254604350e+000,5.0792514672e+000,5.3180368790e+000,4.7999406015e+000,5.0128784288e+000,
1.8843750000e+001,4.9738589423e+000,5.1674188945e+000,4.6903621778e+000,5.1923203101e+000,5.8058430467e+000,5.5441693316e+000,5.5694536838e+000,5.4663190320e+000,5.5029460468e+000,6.5403274030e+000,4.9827460970e+000,5.2936647348e+000,4.7480741049e+000,4.9732992523e+000,
1.8937500000e+001,4.8392818286e+000,5.0907727915e+000,4.5341577115e+000,5.0787903472e+000,5.7101189245e+000,5.4126422333e+000,5.4839275982e+000,5.3847685617e+000,5.3315822593e+000,6.4366412657e+000,4.8599835316e+000,5.1827978652e+000,4.6088190838e+000,4.9087711448e+000,
1.9031250000e+001,4.8991765638e+000,5.0592628276e+000,4.5161966209e+000,5.0400997332e+000,5.7422351292e+000,5.4110583166e+000,5.4243738427e+000,5.2336646724e+000,5.2742377482e+000,6.4740983447e+000,4.6556393754e+000,5.1853393003e+000,4.5620754852e+000,4.8811896728e+000,
1.9125000000e+001,4.6999690789e+000,4.9188793499e+000,4.2929311036e+000,4.9259964490e+000,5.5710386789e+000,5.2504485511e+000,5.2376076730e+000,5.1656159475e+000,5.0224042742e+000,6.2480581940e+000,4.3581297923e+000,5.0898699532e+000,4.2119973605e+000,4.6174207416e+000,
1.9218750000e+001,4.6336654174e+000,4.9241323289e+000,4.2212206891e+000,4.8624629915e+000,5.5405503959e+000,5.3078213560e+000,5.1080163386e+000,5.1795501487e+000,4.8972947984e+000,6.2671107560e+000,4.3768871787e+000,5.1700347801e+000,4.1790785661e+000,4.6200718237e+000,
1.9312500000e+001,4.7211253231e+000,5.0049891075e+000,4.3400129314e+000,4.9908274523e+000,5.6330224461e+000,5.3759263382e+000,5.0726239277e+000,5.2793914215e+000,5.0276842308e+000,6.1423051652e+000,4.3792326552e+000,5.2429923768e+000,4.2659991460e+000,4.7229531096e+000,
1.9406250000e+001,4.7372772143e+000,5.0325801428e+000,4.3794657530e+000,5.0131443556e+000,5.6770656562e+000,5.4042507152e+000,4.9901854509e+000,5.4206969209e+000,5.0953316546e+000,5.9811989982e+000,4.5200110276e+000,5.3944163730e+000,4.3678373648e+000,4.7364319544e+000,
1.9500000000e+001,4.6557183506e+000,4.9965657199e+000,4.3504344815e+000,5.0725824031e+000,5.6475668634e+000,5.3914237978e+000,4.8234064615e+000,5.4359092454e+000,5.0916445630e+000,5.9781705792e+000,4.5550922317e+000,5.4677516792e+000,4.4101220248e+000,4.7520838648e+000,
1.9593750000e+001,4.6511471989e+000,5.0217427972e+000,4.3678855791e+000,5.1397436397e+000,5.6174456368e+000,5.3822170526e+000,4.7789980452e+000,5.4523082206e+000,5.1075040948e+000,6.0851490023e+000,4.5502848320e+000,5.4065323592e+000,4.4159665895e+000,4.7261587949e+000,
1.9687500000e+001,4.6716138899e+000,5.0038484487e+000,4.3879760685e+000,5.1367530346e+000,5.5829242400e+000,5.3441147389e+000,4.7861795960e+000,5.4472400722e+000,5.1030905571e+000,6.0983603069e+000,4.5674422782e+000,5.4107845788e+000,4.3540032432e+000,4.7117158987e+000,
1.9781250000e+001,4.6700618411e+000,5.0160512277e+000,4.4516373376e+000,5.1538769380e+000,5.5984187312e+000,5.2444832508e+000,4.8796694321e+000,5.4892043662e+000,5.2111907448e+000,6.1641666115e+000,4.6539874533e+000,5.4826509043e+000,4.5091532417e+000,4.8108180477e+000,
1.9875000000e+001,4.5043598621e+000,4.8343480286e+000,4.3670823029e+000,5.0134963727e+000,5.5815752555e+000,5.2301959985e+000,4.8071120525e+000,5.5608336213e+000,5.1583664097e+000,6.1553917666e+000,4.6448662936e+000,5.4588690704e+000,4.5201712153e+000,4.7776528561e+000,
1.9968750000e+001,4.5241772981e+000,4.8167984769e+000,4.4168361344e+000,4.9786614511e+000,5.5029433212e+000,5.2591665768e+000,4.8932399863e+000,5.5760238813e+000,5.1519514625e+000,6.2142663234e+000,4.6420052505e+000,5.4160956942e+000,4.5072223701e+000,4.6760380583e+000,
2.0062500000e+001,4.4685973084e+000,4.7682922810e+000,4.3199239619e+000,4.8591250209e+000,5.4430717432e+000,5.2529634111e+000,4.8750702523e+000,5.5446688764e+000,5.1213293461e+000,6.1428653064e+000,4.6506426952e+000,5.3747040705e+000,4.4382845335e+000,4.6548283553e+000,
2.0156250000e+001,4.5095006665e+000,4.8451574683e+000,4.2816672561e+000,4.8372992790e+000,5.5218084735e+000,5.2446541728e+000,4.8623514038e+000,5.6599663415e+000,5.1958481179e+000,6.1114729024e+000,4.7418645483e+000,5.3556165838e+000,4.4900754666e+000,4.6836015487e+000,
2.0250000000e+001,4.5854551792e+000,4.9014945731e+000,4.3219489599e+000,4.9381238753e+000,5.5753136249e+000,5.3250501592e+000,5.0215146237e+000,5.6469460109e+000,5.2803757314e+000,6.0250472976e+000,4.8089326002e+000,5.3602715002e+000,4.5631276748e+000,4.6678878268e+000,
2.0343750000e+001,4.5775327272e+000,4.8384458340e+000,4.2785406504e+000,4.7922545674e+000,5.4775951742e+000,5.2962466668e+000,4.9666849323e+000,5.7600624716e+000,5.3226714982e+000,6.0594115512e+000,4.8829773362e+000,5.4300964637e+000,4.5776070894e+000,4.6826274310e+000,
2.0437500000e+001,4.6317290831e+000,4.8806129209e+000,4.3497132275e+000,4.8511274842e+000,5.5579086680e+000,5.3329751065e+000,5.1020818051e+000,5.6734348558e+000,5.3099666452e+000,6.0711601447e+000,4.8788408016e+000,5.2987305990e+000,4.5817057945e+000,4.6957171943e+000,
2.0531250000e+001,4.7198090164e+000,5.0367741556e+000,4.4290514894e+000,5.0240286952e+000,5.6646893792e+000,5.3791277999e+000,5.2300619579e+000,5.6750449698e+000,5.4775384787e+000,6.0815432849e+000,4.9509297319e+000,5.3013029688e+000,4.7024795840e+000,4.7127140177e+000,
2.0625000000e+001,4.8457652581e+000,5.1249111421e+000,4.5528535696e+000,5.1338463671e+000,5.6924299795e+000,5.4817957422e+000,5.3238786890e+000,5.6717825398e+000,5.5824159629e+000,6.0234038202e+000,5.0429408596e+000,5.4559309905e+000,4.8569339876e+000,4.9646337023e+000,
2.0718750000e+001,4.8535219066e+000,5.1241087130e+000,4.5584975518e+000,5.1357805515e+000,5.6294752649e+000,5.4774856691e+000,5.3539185820e+000,5.6543580969e+000,5.6028417617e+000,6.0919876743e+000,5.1022068793e+000,5.3488996771e+000,4.8806025609e+000,4.9400825656e+000,
2.0812500000e+001,4.8888151089e+000,5.1496328914e+000,4.5778721468e+000,5.1946801497e+000,5.6974106427e+000,5.5683893498e+000,5.3115689884e+000,5.6839540429e+000,5.5944056361e+000,6.1422394105e+000,5.1578031081e+000,5.3064091577e+000,4.8121031598e+000,4.8931643444e+000,
2.0906250000e+001,4.8375577467e+000,5.0866915972e+000,4.5701260956e+000,5.1881308366e+000,5.6568714161e+000,5.4907331271e+000,5.2822651324e+000,5.6307969242e+000,5.5905480057e+000,6.0647176887e+000,5.2191272478e+000,5.3463326335e+000,4.8438505612e+000,4.9250260938e+000,
2.1000000000e+001,4.8502037365e+000,5.1034478883e+000,4.6502901637e+000,5.2248525109e+000,5.6597528045e+000,5.5679155714e+000,5.2619225209e+000,5.6561631756e+000,5.6181794023e+000,6.2507148446e+000,5.2248611007e+000,5.4016491129e+000,4.8906232758e+000,4.9730483133e+000,
2.1093750000e+001,4.8099530084e+000,5.0490055445e+000,4.6476908283e+000,5.2156693134e+000,5.6801379156e+000,5.5918093635e+000,5.2968332616e+000,5.6275903586e+000,5.6538860101e+000,6.2744508158e+000,5.1838933932e+000,5.3889532619e+000,4.8631912308e+000,4.9616663669e+000,
2.1187500000e+001,4.8691836010e+000,5.0427595543e+000,4.7337770504e+000,5.2729656696e+000,5.6945821959e+000,5.5366949580e+000,5.2901962123e+000,5.6499513738e+000,5.5870961239e+000,6.2853889042e+000,5.1362441114e+000,5.3778504481e+000,4.8816855498e+000,4.9904800915e+000,
2.1281250000e+001,4.8551690374e+000,4.9764142603e+000,4.7248805964e+000,5.2664913053e+000,5.6335853574e+000,5.4213655475e+000,5.2742308164e+000,5.5319495900e+000,5.5009406104e+000,6.4276354835e+000,5.0594673940e+000,5.2141134917e+000,4.8040084619e+000,4.9357920283e+000,
2.1375000000e+001,4.9019831942e+000,5.0360783245e+000,4.7773499405e+000,5.3278265263e+000,5.6735040922e+000,5.4161378205e+000,5.3062736256e+000,5.5007568093e+000,5.4413543053e+000,6.4497636958e+000,5.0514505362e+000,5.1520866788e+000,4.8361411380e+000,4.9872781254e+000,
2.1468750000e+001,4.9084841561e+000,5.1284005256e+000,4.8150533781e+000,5.3705031473e+000,5.7320288733e+000,5.4478798884e+000,5.3746649199e+000,5.5081773352e+000,5.5177578353e+000,6.4350090867e+000,5.1893604506e+000,5.2433162147e+000,4.9020513268e+000,5.1053138756e+000,
2.1562500000e+001,4.8894599493e+000,5.0756993739e+000,4.7954669777e+000,5.3066653114e+000,5.9383036930e+000,5.4385536941e+000,5.5517398848e+000,5.5156020066e+000,5.6170875302e+000,6.4779125135e+000,5.2180995615e+000,5.2701225808e+000,4.9180595776e+000,5.1169108666e+000,
2.1656250000e+001,4.9758191348e+000,5.1696442954e+000,4.8977815136e+000,5.3113541779e+000,5.9728259105e+000,5.4765689257e+000,5.6401801149e+000,5.6025733457e+000,5.5629809166e+000,6.5050276487e+000,5.2943997823e+000,5.2914830187e+000,4.9329277367e+000,5.1418856603e+000,
2.1750000000e+001,5.1455607786e+000,5.3797109648e+000,5.0117877048e+000,5.4413144118e+000,6.1275890558e+000,5.5865055662e+000,5.7460839717e+000,5.6159464770e+000,5.6874960911e+000,6.3800699711e+000,5.2581893105e+000,5.3975169570e+000,4.9880109595e+000,5.2395489540e+000,
2.1843750000e+001,5.2273348612e+000,5.4867847238e+000,5.0809898534e+000,5.4658139061e+000,6.1436726336e+000,5.6256764970e+000,5.8146856426e+000,5.6129113087e+000,5.7662749800e+000,6.4112110257e+000,5.1843554973e+000,5.5335403384e+000,4.9913622922e+000,5.2688624503e+000,
2.1937500000e+001,5.2970743891e+000,5.5390286202e+000,5.0989876133e+000,5.4864069452e+000,6.2158155798e+000,5.7167793739e+000,5.8920848718e+000,5.5813696410e+000,5.7479231836e+000,6.4695259109e+000,5.3383366884e+000,5.4763085114e+000,4.9639289111e+000,5.2839234040e+000,
2.2031250000e+001,5.2519963823e+000,5.5032695049e+000,5.0515627181e+000,5.4500262041e+000,6.1589244535e+000,5.6187769021e+000,5.8902016042e+000,5.5624528289e+000,5.7112406644e+000,6.3582163132e+000,5.3506280279e+000,5.4712689706e+000,4.9400646465e+000,5.2421903086e+000,
2.2125000000e+001,5.2441674790e+000,5.4949386021e+000,5.0718152274e+000,5.5094839955e+000,6.1373382479e+000,5.5788267857e+000,5.9262156357e+000,5.5486427584e+000,5.7781753313e+000,6.3784490929e+000,5.4078138228e+000,5.5271165903e+000,4.9823769497e+000,5.2549126040e+000,
2.2218750000e+001,5.2193414786e+000,5.4811071206e+000,5.0687596953e+000,5.4885707805e+000,6.1212059847e+000,5.6223753914e+000,5.9354084624e+000,5.4472851636e+000,5.8564443646e+000,6.4123252471e+000,5.4258861128e+000,5.6205226225e+000,5.0146488982e+000,5.2569081228e+000,
2.2312500000e+001,5.1695327049e+000,5.4846349257e+000,5.0501873767e+000,5.4926367511e+000,6.1792438609e+000,5.6662708300e+000,5.9161992157e+000,5.3916434645e+000,5.8836075887e+000,6.2500353719e+000,5.4042139280e+000,5.6528875321e+000,5.0093725116e+000,5.2589408209e+000,
2.2406250000e+001,5.1768871747e+000,5.4560866382e+000,5.0450431443e+000,5.4519859888e+000,6.1688123347e+000,5.7063408600e+000,5.9361392477e+000,5.4507053669e+000,5.9087058192e+000,6.4656174081e+000,5.3770350951e+000,5.6554256310e+000,5.0223373691e+000,5.2287940038e+000,
2.2500000000e+001,5.2632551375e+000,5.4355003474e+000,5.0508048377e+000,5.4261624758e+000,6.0685628512e+000,5.7315520341e+000,5.9273552681e+000,5.4954089491e+000,5.8903477361e+000,6.5444321493e+000,5.1411313789e+000,5.7276689489e+000,4.9432585501e+000,5.2604566606e+000,
2.2593750000e+001,5.2458940097e+000,5.3968534382e+000,5.0805285970e+000,5.3259823610e+000,5.9389411764e+000,5.6957415835e+000,5.7059823145e+000,5.5382315754e+000,5.7769204129e+000,6.6510386216e+000,5.0911972095e+000,5.6728676102e+000,4.8241504899e+000,5.1618924564e+000,
2.2687500000e+001,5.1295448752e+000,5.2980689728e+000,4.9789183417e+000,5.2718436683e+000,5.8622122452e+000,5.6321466238e+000,5.6212694905e+000,5.5446023325e+000,5.7230865749e+000,6.6070590581e+000,5.0143510229e+000,5.6903612514e+000,4.7412860459e+000,5.0968868442e+000,
2.2781250000e+001,4.8990817953e+000,4.9874111795e+000,4.8288343911e+000,5.1202708070e+000,5.6214532978e+000,5.4877290611e+000,5.5231726961e+000,5.4795108270e+000,5.5650887283e+000,6.6839903973e+000,5.0751563497e+000,5.5380549020e+000,4.7420847396e+000,5.0447432342e+000,
2.2875000000e+001,4.8941514250e+000,4.9947002625e+000,4.8264356064e+000,5.1335459868e+000,5.5388267083e+000,5.4206379549e+000,5.5029067207e+000,5.5668176059e+000,5.5541509728e+000,6.5801323178e+000,5.1317412932e+000,5.5880579641e+000,4.7894421576e+000,5.0785429642e+000,
2.2968750000e+001,4.8932569128e+000,4.9931632997e+000,4.8588880241e+000,5.1761310273e+000,5.5665001645e+000,5.3887768333e+000,5.4939206635e+000,5.5617429721e+000,5.5458112463e+000,6.5843138496e+000,4.9516351682e+000,5.6462919125e+000,4.8342968957e+000,5.1553263336e+000,
2.3062500000e+001,4.8983129985e+000,4.9803487652e+000,4.8691755898e+000,5.1505400015e+000,5.6160840842e+000,5.4001363799e+000,5.4358884452e+000,5.5954097705e+000,5.5700517946e+000,6.6862154157e+000,4.9864672522e+000,5.6832951540e+000,4.8375102278e+000,5.1936993884e+000,
2.3156250000e+001,4.8593401379e+000,4.9859741780e+000,4.8214685190e+000,5.0834942302e+000,5.6541678036e+000,5.3830611478e+000,5.3476876717e+000,5.5846644223e+000,5.4899513763e+000,6.6097916568e+000,4.9779985558e+000,5.6954049453e+000,4.7630552303e+000,5.2082386564e+000,
2.3250000000e+001,5.0575066216e+000,5.1710137949e+000,4.8948817751e+000,5.1059956779e+000,5.6344016524e+000,5.4702537183e+000,5.4869622259e+000,5.7101865425e+000,5.4241859300e+000,6.5892802668e+000,4.9863833918e+000,5.6453959147e+000,4.7469554685e+000,5.2407646827e+000,
2.3343750000e+001,5.0822591193e+000,5.1851275544e+000,4.8526877942e+000,5.0005473303e+000,5.6384045152e+000,5.5236764729e+000,5.4570855788e+000,5.7414867622e+000,5.3501695788e+000,6.5268925008e+000,5.0085673661e+000,5.6012741015e+000,4.7137879239e+000,5.2105614654e+000,
2.3437500000e+001,5.0763811612e+000,5.1763756889e+000,4.8623616668e+000,5.0154350452e+000,5.6096064006e+000,5.5529014838e+000,5.4956313291e+000,5.7286533722e+000,5.4397293355e+000,6.5261830481e+000,5.0406754433e+000,5.6521014770e+000,4.7051650987e+000,5.2093668506e+000,
2.3531250000e+001,4.9050338303e+000,5.0648134447e+000,4.6854847314e+000,4.9007600261e+000,5.4598643933e+000,5.4194013827e+000,5.3448979158e+000,5.5958199507e+000,5.2858193146e+000,6.4295633868e+000,5.0506486500e+000,5.6406935998e+000,4.6240483140e+000,5.0967481226e+000,
2.3625000000e+001,4.8927303680e+000,5.0709920989e+000,4.6560855338e+000,4.8598905914e+000,5.5110302121e+000,5.5294905278e+000,5.3603420689e+000,5.6383321350e+000,5.3623314142e+000,6.4225628931e+000,5.1140540092e+000,5.5362441179e+000,4.6339996898e+000,5.0881353830e+000,
2.3718750000e+001,5.0519955904e+000,5.2402584219e+000,4.8041371964e+000,5.1525219385e+000,5.6808231684e+000,5.5366514951e+000,5.4943909718e+000,5.5975178891e+000,5.4634884028e+000,6.4195997641e+000,5.0496292330e+000,5.6151966309e+000,4.7320467926e+000,5.1700550663e+000,
2.3812500000e+001,5.0608521914e+000,5.2491183930e+000,4.8344694671e+000,5.1702891815e+000,5.6565424870e+000,5.5731625302e+000,5.5010307076e+000,5.5926271932e+000,5.4171853114e+000,6.3719486620e+000,4.9572998522e+000,5.5863280988e+000,4.6459630028e+000,5.1094098700e+000,
2.3906250000e+001,4.9756818180e+000,5.1752250275e+000,4.7719785329e+000,5.1119989575e+000,5.6426034374e+000,5.5242782644e+000,5.3798170405e+000,5.4842616868e+000,5.4360818821e+000,6.3806922256e+000,4.8523699191e+000,5.4472138763e+000,4.4704643075e+000,4.9419753026e+000,
2.4000000000e+001,5.0260811256e+000,5.2822459837e+000,4.8564553486e+000,5.1762358396e+000,5.7522471209e+000,5.5992343868e+000,5.4571520767e+000,5.6139946240e+000,5.6338707689e+000,6.4231849722e+000,4.9951233208e+000,5.4557247618e+000,4.6488593362e+000,4.9639391658e+000,
2.4093750000e+001,5.0488940431e+000,5.3377540149e+000,4.8864534136e+000,5.2266292474e+000,5.7615160566e+000,5.6312755150e+000,5.4903580303e+000,5.6673636198e+000,5.5912360708e+000,6.2877639763e+000,5.0143695665e+000,5.5059484391e+000,4.6712322480e+000,5.0014858659e+000,
2.4187500000e+001,5.0361649094e+000,5.3201752573e+000,4.8808055971e+000,5.2205919907e+000,5.7491485494e+000,5.6227715185e+000,5.4618461932e+000,5.6198386015e+000,5.5895395378e+000,6.3860794934e+000,5.0311069818e+000,5.5094606671e+000,4.6794141999e+000,4.9557449859e+000,
2.4281250000e+001,4.7766990732e+000,5.1254185981e+000,4.7912995332e+000,5.1694897291e+000,5.6281045874e+000,5.4457982949e+000,5.3202471370e+000,5.4867823331e+000,5.5656723813e+000,6.3535162085e+000,4.9826882957e+000,5.5256135705e+000,4.6351708479e+000,4.9158458211e+000,
2.4375000000e+001,4.7990248119e+000,5.1575808680e+000,4.8520714650e+000,5.2705842725e+000,5.6180072595e+000,5.4047420212e+000,5.4168981552e+000,5.5594152328e+000,5.6042215638e+000,6.3154166530e+000,4.9892052895e+000,5.5308619605e+000,4.7118558354e+000,4.9991374111e+000,
2.4468750000e+001,4.7435965365e+000,5.0797091754e+000,4.8110230890e+000,5.2160220352e+000,5.6193581910e+000,5.3793157442e+000,5.2862196159e+000,5.5273719204e+000,5.4942636375e+000,6.1980449404e+000,5.0141981995e+000,5.4211252573e+000,4.6864364822e+000,4.9489717014e+000,
2.4562500000e+001,4.6448857951e+000,5.0327082532e+000,4.7538080761e+000,5.1620140549e+000,5.5575772359e+000,5.2827423259e+000,5.2374915318e+000,5.5279105771e+000,5.4542816168e+000,6.0532170997e+000,4.9948952986e+000,5.4370405911e+000,4.6708072333e+000,4.8732679998e+000,
2.4656250000e+001,4.6352957384e+000,5.0015425361e+000,4.7072631642e+000,5.1771287847e+000,5.5459911312e+000,5.2797908062e+000,5.2209450788e+000,5.4287187120e+000,5.4406440967e+000,5.9697843674e+000,4.9980165598e+000,5.4682812626e+000,4.7437696098e+000,4.8704307753e+000,
2.4750000000e+001,4.3752510626e+000,4.7757560249e+000,4.5095229207e+000,4.9284002662e+000,5.3899676553e+000,5.2448738342e+000,5.0398889743e+000,5.3809410369e+000,5.3725024539e+000,5.9568549381e+000,5.0409650865e+000,5.4479111757e+000,4.6137474819e+000,4.7472716261e+000,
2.4843750000e+001,4.5336383381e+000,4.9025126585e+000,4.6302234887e+000,5.1053318815e+000,5.5768415237e+000,5.3379147385e+000,5.1508900928e+000,5.3910706218e+000,5.4822640070e+000,5.9427047979e+000,5.0346434018e+000,5.6337140789e+000,4.7548638612e+000,4.9904079745e+000,
2.4937500000e+001,4.4088498483e+000,4.7762235210e+000,4.4452826115e+000,4.9819691988e+000,5.4049273045e+000,5.2774681402e+000,5.0557184512e+000,5.3376970006e+000,5.3269234705e+000,5.8901869209e+000,5.0093477465e+000,5.6736438677e+000,4.6201107859e+000,4.9145928584e+000,
2.5031250000e+001,4.3532604479e+000,4.7225279638e+000,4.4196917840e+000,4.9488856201e+000,5.3766330621e+000,5.2496037243e+000,5.0180560463e+000,5.2334917593e+000,5.2338454130e+000,5.9497560449e+000,4.9750517354e+000,5.6247546255e+000,4.6354733223e+000,4.9491524200e+000,
2.5125000000e+001,4.6484542474e+000,4.9421805841e+000,4.6229733390e+000,5.1647890642e+000,5.5122257630e+000,5.3153832470e+000,5.0925273957e+000,5.2998698748e+000,5.4439673889e+000,5.9045204311e+000,4.9427572529e+000,5.7116458788e+000,4.7128090429e+000,5.0879715949e+000,
2.5218750000e+001,4.8025786641e+000,5.0457977684e+000,4.8268218932e+000,5.3051998935e+000,5.5844520171e+000,5.4583724614e+000,5.2643726024e+000,5.4591801690e+000,5.5539804892e+000,6.0094812858e+000,4.9242461852e+000,5.8873653867e+000,4.9084154529e+000,5.2933150929e+000,
2.5312500000e+001,4.8109404703e+000,5.0659898795e+000,4.8464342501e+000,5.3101314002e+000,5.6669310084e+000,5.4598291279e+000,5.2383462395e+000,5.4510586752e+000,5.5454178338e+000,6.0232070754e+000,4.9505444620e+000,5.8939997487e+000,4.9402286470e+000,5.2734152617e+000,
2.5406250000e+001,4.9005291233e+000,5.1414424990e+000,4.8702501988e+000,5.3782818538e+000,5.6952331451e+000,5.5692767580e+000,5.2436731017e+000,5.3453211622e+000,5.6270118102e+000,6.0463655852e+000,4.8891475306e+000,5.8786625343e+000,4.8631161610e+000,5.2621609730e+000,
2.5500000000e+001,4.9349820677e+000,5.2004362679e+000,4.8641109307e+000,5.4458581270e+000,5.7510443177e+000,5.5989716763e+000,5.3222994933e+000,5.3491372777e+000,5.7083678699e+000,6.0961437932e+000,4.9461155220e+000,5.8353820477e+000,4.9324634424e+000,5.3099273379e+000,
2.5593750000e+001,5.0804058465e+000,5.2888405111e+000,4.9717949421e+000,5.5220536892e+000,5.9067986661e+000,5.7364376675e+000,5.5152329179e+000,5.3839561354e+000,5.7783253327e+000,6.2547797826e+000,4.9673020034e+000,5.8916452678e+000,4.9851810019e+000,5.4425007963e+000,
2.5687500000e+001,5.1743760868e+000,5.3360002950e+000,5.0341617066e+000,5.5244743668e+000,5.9690442028e+000,5.7091994242e+000,5.5231974850e+000,5.4032787353e+000,5.6994363011e+000,6.3887908246e+000,4.9028739394e+000,5.8454786411e+000,4.9461513213e+000,5.4450005568e+000,
2.5781250000e+001,5.2481436637e+000,5.4406380811e+000,5.0685323818e+000,5.5255982908e+000,6.0041017818e+000,5.7374702232e+000,5.5598641797e+000,5.5542127226e+000,5.7329082427e+000,6.4225270715e+000,4.8511728252e+000,5.8412502760e+000,4.9665804973e+000,5.4657970177e+000,
2.5875000000e+001,5.2127766053e+000,5.3831511294e+000,4.9901667866e+000,5.4516293691e+000,5.9634669592e+000,5.6778848908e+000,5.5827313970e+000,5.5827201206e+000,5.6997112368e+000,6.3869984572e+000,4.9657817389e+000,5.6793103943e+000,4.8982290245e+000,5.3707518817e+000,
2.5968750000e+001,5.2511794051e+000,5.3812195323e+000,5.0314807715e+000,5.4586362835e+000,5.9953280171e+000,5.7864160439e+000,5.6457721793e+000,5.6535354087e+000,5.7203462012e+000,6.4530781041e+000,5.0182360486e+000,5.7730995178e+000,4.9624311782e+000,5.4103694305e+000,
2.6062500000e+001,5.2517094278e+000,5.3850086673e+000,5.0132990210e+000,5.4834904589e+000,5.9971415596e+000,5.7724870815e+000,5.6711651594e+000,5.6452181662e+000,5.7367516608e+000,6.4077525276e+000,4.9817156584e+000,5.8196033350e+000,4.9445998356e+000,5.4129207172e+000,
2.6156250000e+001,5.1630199405e+000,5.3109358142e+000,4.9451294167e+000,5.3415647395e+000,5.9461821023e+000,5.8042555236e+000,5.7347953813e+000,5.6192878991e+000,5.6731680506e+000,6.3759800118e+000,4.9825304191e+000,5.7296562058e+000,4.9250821611e+000,5.3232215279e+000,
2.6250000000e+001,5.1300547914e+000,5.2576566144e+000,4.8572717760e+000,5.2734870254e+000,5.8978431867e+000,5.7341547453e+000,5.6746728197e+000,5.5516579686e+000,5.5765467187e+000,6.3048902829e+000,5.0185469559e+000,5.5576653264e+000,4.7437571091e+000,5.1881145070e+000,
2.6343750000e+001,5.1728576980e+000,5.2829143440e+000,4.8749305911e+000,5.2422071728e+000,5.8650496102e+000,5.8137046651e+000,5.7352769383e+000,5.6169879585e+000,5.6014204243e+000,6.3782121812e+000,5.0758743185e+000,5.6230111973e+000,4.8131579731e+000,5.2115223141e+000,
2.6437500000e+001,5.1411449104e+000,5.2191341842e+000,4.8612316759e+000,5.1551380217e+000,5.8859920990e+000,5.7156030933e+000,5.6831915993e+000,5.6814304001e+000,5.4979809565e+000,6.3459055241e+000,5.0963398598e+000,5.6178998722e+000,4.8337346036e+000,5.1789183401e+000,
2.6531250000e+001,5.1656385708e+000,5.1785803218e+000,4.8952487739e+000,5.1285265176e+000,5.8847488710e+000,5.6701885853e+000,5.6674739724e+000,5.7193928789e+000,5.5017663840e+000,6.3537849886e+000,5.1095833468e+000,5.6084649608e+000,4.8125865943e+000,5.1353722974e+000,
2.6625000000e+001,5.1382001773e+000,5.1713328838e+000,4.8740391263e+000,5.1141505422e+000,5.8358486957e+000,5.6179644871e+000,5.6165094978e+000,5.6771366175e+000,5.4899581379e+000,6.1822545582e+000,5.0950360081e+000,5.5421590151e+000,4.8151780510e+000,5.0775047205e+000,
2.6718750000e+001,4.9817923798e+000,5.0369232387e+000,4.8096102045e+000,5.1460183620e+000,5.6925690453e+000,5.6129793328e+000,5.6028522139e+000,5.6688731177e+000,5.5431362441e+000,6.0380258737e+000,5.1651601381e+000,5.5645144397e+000,4.8108678635e+000,5.0457472013e+000,
2.6812500000e+001,4.9500643942e+000,5.0261608655e+000,4.7968093406e+000,5.1347929349e+000,5.7531800278e+000,5.5984617586e+000,5.6014757011e+000,5.6096830613e+000,5.5292137990e+000,6.1838854810e+000,5.1614372402e+000,5.5466659197e+000,4.7839314938e+000,4.9674487453e+000,
2.6906250000e+001,4.9413693802e+000,5.0761076389e+000,4.8592087650e+000,5.2341125396e+000,5.7854158557e+000,5.5251649957e+000,5.5396941089e+000,5.5376726620e+000,5.6387913039e+000,6.1091896295e+000,5.0895393970e+000,5.5432979734e+000,4.7949793501e+000,4.9993347868e+000,
2.7000000000e+001,4.9905147291e+000,5.0957854800e+000,4.9181702457e+000,5.2876099056e+000,5.7695798046e+000,5.5496705936e+000,5.6253894585e+000,5.4956784356e+000,5.6989928674e+000,6.2651625540e+000,5.1917765923e+000,5.5057197430e+000,4.8672902590e+000,5.0327367985e+000,
2.7093750000e+001,5.0081954952e+000,5.0987520121e+000,4.8941838516e+000,5.2882403646e+000,5.8183485442e+000,5.5417316159e+000,5.5695073067e+000,5.4631903387e+000,5.6158284738e+000,6.3748940994e+000,5.1619055763e+000,5.4090718866e+000,4.8283764274e+000,4.9629710299e+000,
2.7187500000e+001,5.0370285870e+000,5.2028408528e+000,4.9599653388e+000,5.4065651709e+000,5.8374230570e+000,5.5706992677e+000,5.6166128242e+000,5.3895122227e+000,5.6382006741e+000,6.4214064704e+000,5.3078078427e+000,5.5003952896e+000,4.8828876303e+000,4.9915702533e+000,
2.7281250000e+001,5.0015285264e+000,5.1653754277e+000,4.9305817643e+000,5.4160945781e+000,5.8493383518e+000,5.4753277480e+000,5.5807040721e+000,5.3783258287e+000,5.7053225453e+000,6.3293231097e+000,5.3105689890e+000,5.5752833812e+000,4.9413556067e+000,5.0852658797e+000,
2.7375000000e+001,4.9844053392e+000,5.1620272288e+000,4.9161782531e+000,5.4287841217e+000,5.8276540288e+000,5.4638812382e+000,5.5934278595e+000,5.2783262728e+000,5.7798628641e+000,6.3786461268e+000,5.3226882920e+000,5.6125367861e+000,4.9751866928e+000,5.1430257810e+000,
2.7468750000e+001,5.0422037631e+000,5.2226166202e+000,4.9963466694e+000,5.4795951348e+000,5.8704291239e+000,5.5436141643e+000,5.6157339070e+000,5.2767477074e+000,5.8025018594e+000,6.6007706698e+000,5.2048490660e+000,5.6630130241e+000,4.9698269590e+000,5.1866085742e+000,
2.7562500000e+001,5.0808903803e+000,5.3268884515e+000,4.9624356479e+000,5.4899143737e+000,5.8999328988e+000,5.5589155880e+000,5.5680836123e+000,5.3179694846e+000,5.7694120887e+000,6.5945377066e+000,5.3084772501e+000,5.6841341102e+000,4.8890487063e+000,5.1484574248e+000,
2.7656250000e+001,5.0992066664e+000,5.3104426813e+000,4.9560496315e+000,5.4482613098e+000,5.8484926016e+000,5.5638178440e+000,5.5137042401e+000,5.3622466879e+000,5.7283453057e+000,6.7120559630e+000,5.3174773166e+000,5.7412775750e+000,4.7862031950e+000,5.0939241491e+000,
2.7750000000e+001,5.0916819035e+000,5.2797908004e+000,4.9661070914e+000,5.4184691257e+000,5.8387778927e+000,5.5557060681e+000,5.4903451131e+000,5.3761499057e+000,5.7269059956e+000,6.6703260130e+000,5.2764915108e+000,5.7914413766e+000,4.8131306672e+000,5.1666895941e+000,
2.7843750000e+001,5.1186761117e+000,5.3177845587e+000,4.9892161988e+000,5.4674441572e+000,5.7619305166e+000,5.5564961902e+000,5.5692605773e+000,5.3504741390e+000,5.7581027115e+000,6.6165988321e+000,5.2879362578e+000,5.8129464647e+000,4.7959740895e+000,5.1844084837e+000,
2.7937500000e+001,5.1249612260e+000,5.3446463269e+000,4.9922245293e+000,5.4674664056e+000,5.7406552148e+000,5.5564926578e+000,5.4442630334e+000,5.3544541866e+000,5.6507095433e+000,6.5780900606e+000,5.3125767102e+000,5.8088747970e+000,4.7447349483e+000,5.1991934166e+000,
2.8031250000e+001,5.1488056638e+000,5.3672014098e+000,5.0221330575e+000,5.4824053367e+000,5.7212836715e+000,5.6431869761e+000,5.4896975876e+000,5.4242024362e+000,5.7244329008e+000,6.5160785886e+000,5.3122428188e+000,5.8169550453e+000,4.8441095707e+000,5.2634135098e+000,
2.8125000000e+001,5.1156820239e+000,5.3143553258e+000,5.0094026439e+000,5.4207239845e+000,5.7060102055e+000,5.6346700690e+000,5.4721752408e+000,5.4630827283e+000,5.7463097499e+000,6.4508056753e+000,5.3393586302e+000,5.7865722194e+000,4.9172607380e+000,5.2702820160e+000,
2.8218750000e+001,5.0067269100e+000,5.1523071533e+000,4.8449850452e+000,5.2225992921e+000,5.6257300797e+000,5.6603024355e+000,5.2856014962e+000,5.5650911786e+000,5.6279065234e+000,6.4756317992e+000,5.1369450597e+000,5.7529556995e+000,4.7074801912e+000,5.1308968486e+000,
2.8312500000e+001,5.0570272682e+000,5.2301530549e+000,4.9070080535e+000,5.2810391614e+000,5.6652420598e+000,5.6905345423e+000,5.4015798518e+000,5.6345157342e+000,5.6623909496e+000,6.5526586831e+000,5.1477255852e+000,5.8247118106e+000,4.7420897943e+000,5.2001532453e+000,
2.8406250000e+001,4.9994713290e+000,5.2589032451e+000,4.8954724666e+000,5.3375169341e+000,5.6248267035e+000,5.6034278498e+000,5.3599708206e+000,5.6047350491e+000,5.5545535863e+000,6.4453683224e+000,5.1773113975e+000,5.7003361217e+000,4.6682188858e+000,5.1137808286e+000,
2.8500000000e+001,4.8996730284e+000,5.2220441139e+000,4.8315993047e+000,5.3151644865e+000,5.5138909243e+000,5.6237456279e+000,5.3449956653e+000,5.6102248215e+000,5.5449431032e+000,6.3063525775e+000,5.2204544362e+000,5.6759811426e+000,4.7121685817e+000,5.1345291629e+000,
2.8593750000e+001,4.7306408773e+000,5.0752928903e+000,4.7575362456e+000,5.2745355726e+000,5.3525232877e+000,5.5548582789e+000,5.2920252737e+000,5.6043902163e+000,5.5079124987e+000,6.1375795372e+000,5.0982311644e+000,5.5569146164e+000,4.6734835409e+000,5.0640969535e+000,
2.8687500000e+001,4.6747407286e+000,5.0669663412e+000,4.7284722924e+000,5.2589500289e+000,5.2804203021e+000,5.5406084717e+000,5.3051156788e+000,5.6240869827e+000,5.5063095652e+000,6.1705580960e+000,5.0625463813e+000,5.5354332980e+000,4.6687470256e+000,5.0836990515e+000,
2.8781250000e+001,4.8029665930e+000,5.2267177639e+000,4.8574431241e+000,5.3240626715e+000,5.3614294487e+000,5.6006970022e+000,5.4587986113e+000,5.7153936762e+000,5.6549389156e+000,6.3634261127e+000,5.1808304646e+000,5.5960869606e+000,4.8626819539e+000,5.1801036601e+000,
2.8875000000e+001,4.8206774959e+000,5.2163173329e+000,4.8398744513e+000,5.2786901880e+000,5.3693333188e+000,5.6345592554e+000,5.4265108095e+000,5.7046714989e+000,5.6111014834e+000,6.3756452310e+000,5.1596145147e+000,5.5853553494e+000,4.8915776922e+000,5.1942787931e+000,
2.8968750000e+001,4.7419627493e+000,5.1395454854e+000,4.7236168903e+000,5.1295677030e+000,5.3598274688e+000,5.6290851277e+000,5.4040233641e+000,5.8138118907e+000,5.5189809696e+000,6.3780955077e+000,5.1794516994e+000,5.5626318984e+000,4.8493814270e+000,5.1369338989e+000,
2.9062500000e+001,4.8094149386e+000,5.2009260508e+000,4.7343423660e+000,5.1793934414e+000,5.4142325280e+000,5.5875977387e+000,5.4115797020e+000,5.8233700976e+000,5.4994491815e+000,6.4643231747e+000,5.2017822687e+000,5.5303137023e+000,4.7949369886e+000,5.1254968233e+000,
2.9156250000e+001,4.6861823023e+000,5.1473054154e+000,4.6397331027e+000,5.1269895561e+000,5.2435534526e+000,5.3587433091e+000,5.3487261925e+000,5.7565386171e+000,5.4288140407e+000,6.4302087437e+000,5.2180364521e+000,5.4948653174e+000,4.7249635606e+000,5.0695043474e+000,
2.9250000000e+001,4.7793002991e+000,5.2704186673e+000,4.7399449015e+000,5.2842501903e+000,5.2830899336e+000,5.4017946991e+000,5.2947594316e+000,5.8505931085e+000,5.4124632779e+000,6.4484612490e+000,5.2046479175e+000,5.4804774095e+000,4.7309604938e+000,5.1046683965e+000,
2.9343750000e+001,4.7606582946e+000,5.2271070062e+000,4.7433510341e+000,5.2441891196e+000,5.3590157289e+000,5.4305825463e+000,5.2939104354e+000,5.8683433493e+000,5.5398879408e+000,6.4357650426e+000,5.1697829616e+000,5.4894517652e+000,4.7706297420e+000,5.0775699302e+000,
2.9437500000e+001,4.7939953358e+000,5.2006935816e+000,4.7511431146e+000,5.1845080672e+000,5.4691738034e+000,5.4554980993e+000,5.3362674584e+000,5.8437955046e+000,5.5801657282e+000,6.4454135806e+000,5.0795665538e+000,5.5313437937e+000,4.8110283224e+000,5.0832904758e+000,
2.9531250000e+001,4.8414267888e+000,5.2389777624e+000,4.7873500622e+000,5.2585934942e+000,5.4943576688e+000,5.3937525085e+000,5.3662841350e+000,5.8500210513e+000,5.6013701504e+000,6.4787019168e+000,5.1867547809e+000,5.5521287828e+000,4.8333759575e+000,5.1057723235e+000,
2.9625000000e+001,4.8149122667e+000,5.2119279324e+000,4.7623084649e+000,5.2273885825e+000,5.4841291792e+000,5.3455047018e+000,5.3871810279e+000,5.8251930196e+000,5.5807207145e+000,6.4217555184e+000,5.1557972956e+000,5.5743876657e+000,4.8222667725e+000,5.0718025607e+000,
2.9718750000e+001,4.8742072876e+000,5.2521259181e+000,4.8196363484e+000,5.2648182974e+000,5.5987726910e+000,5.3309792045e+000,5.4033278602e+000,5.7709650735e+000,5.5938808685e+000,6.3813973937e+000,5.1455235721e+000,5.5475686258e+000,4.9104635576e+000,5.0565748346e+000,
2.9812500000e+001,4.7305952631e+000,5.0652240680e+000,4.6118150631e+000,5.1652451834e+000,5.5215470688e+000,5.1450827181e+000,5.1646631174e+000,5.6244380865e+000,5.4260066005e+000,6.2018310930e+000,5.0920363923e+000,5.3993316924e+000,4.6993785476e+000,4.9398231175e+000,
2.9906250000e+001,4.7618417233e+000,5.1480850358e+000,4.6561995061e+000,5.2717470902e+000,5.5463618730e+000,5.2161430193e+000,5.2104353756e+000,5.6356214094e+000,5.4271199441e+000,6.2817216744e+000,5.0780117744e+000,5.4228845699e+000,4.6553030372e+000,4.8945611412e+000,
3.0000000000e+001,4.6394775412e+000,5.0387137567e+000,4.6156419655e+000,5.2369793365e+000,5.5042016525e+000,5.0412983553e+000,5.1635128134e+000,5.4340381918e+000,5.4204075658e+000,6.1229481765e+000,4.9829124205e+000,5.4824156111e+000,4.6952939713e+000,4.8576085213e+000,
3.0093750000e+001,4.7361786521e+000,5.1241857358e+000,4.7286281232e+000,5.3642168930e+000,5.6102709074e+000,5.1294365757e+000,5.2451680451e+000,5.4503338222e+000,5.5092047617e+000,6.2189467502e+000,4.9401746741e+000,5.5546903430e+000,4.6914792100e+000,4.9992763294e+000,
3.0187500000e+001,4.7866082442e+000,5.1652560732e+000,4.7619610385e+000,5.3340859432e+000,5.6453660362e+000,5.4337543063e+000,5.2774337012e+000,5.3969864647e+000,5.5559012392e+000,6.2131482750e+000,5.0156292811e+000,5.5639067665e+000,4.7987287311e+000,4.9938796955e+000,
3.0281250000e+001,4.9218374002e+000,5.2376210624e+000,4.8871121811e+000,5.3744463023e+000,5.7992689157e+000,5.4832067542e+000,5.4595176924e+000,5.5184956827e+000,5.6394978743e+000,6.2825946885e+000,5.0732311653e+000,5.6539565873e+000,4.8965124787e+000,5.0775875086e+000,
3.0375000000e+001,5.0359330840e+000,5.3052977763e+000,4.9919812177e+000,5.4169907608e+000,5.8455241312e+000,5.6150781639e+000,5.4919580792e+000,5.6883668443e+000,5.6908658374e+000,6.4437442910e+000,5.2313113470e+000,5.5983101020e+000,5.0211744066e+000,5.1778606732e+000,
3.0468750000e+001,5.1702445043e+000,5.4064957550e+000,5.1270298467e+000,5.4887586931e+000,5.8934636204e+000,5.8258910284e+000,5.7172633917e+000,5.9419094302e+000,5.7855212874e+000,6.5083511772e+000,5.1811735554e+000,5.6657588869e+000,5.0756688804e+000,5.2294315119e+000,
3.0562500000e+001,5.2040543950e+000,5.4165163335e+000,5.1461824949e+000,5.4985154998e+000,5.9335283780e+000,5.8508363486e+000,5.7240610401e+000,5.9255393120e+000,5.7817480687e+000,6.5484556474e+000,5.1565895491e+000,5.7754946704e+000,5.0805965162e+000,5.2515594525e+000,
3.0656250000e+001,5.2265224156e+000,5.4437312994e+000,5.1870108817e+000,5.5185662097e+000,5.9940151677e+000,5.9236827635e+000,5.7884121268e+000,6.0226549051e+000,5.8012301487e+000,6.6014113623e+000,5.1848579993e+000,5.8462041968e+000,5.0853597822e+000,5.3025483431e+000,
3.0750000000e+001,5.2695798959e+000,5.4491554748e+000,5.2174488374e+000,5.5466347347e+000,6.0011810172e+000,5.9979730115e+000,5.7982521067e+000,6.0192964275e+000,5.8197319427e+000,6.6479337495e+000,5.1406394522e+000,5.9139967790e+000,5.0749093487e+000,5.3914979092e+000,
3.0843750000e+001,5.3010133232e+000,5.4931456382e+000,5.2743640745e+000,5.5757733727e+000,6.0187022610e+000,6.0524659961e+000,5.8791254716e+000,6.0629509707e+000,5.8629303624e+000,6.8070559616e+000,5.1711671430e+000,5.8832338227e+000,5.0781021141e+000,5.3690649907e+000,
3.0937500000e+001,5.2757168076e+000,5.4053896146e+000,5.2438291096e+000,5.4718392263e+000,6.0105411072e+000,6.0285868949e+000,5.8390285076e+000,6.0611938915e+000,5.8483690374e+000,6.7626372344e+000,5.1221062449e+000,5.8311266488e+000,5.0625714416e+000,5.3304108544e+000,
3.1031250000e+001,5.3793940114e+000,5.5126033684e+000,5.3112830885e+000,5.5263207188e+000,6.1379737276e+000,6.1156684353e+000,5.9535059536e+000,6.1536859762e+000,5.9468338448e+000,6.7540042582e+000,4.9913575664e+000,5.8687156720e+000,5.0851485388e+000,5.3594806454e+000,
3.1125000000e+001,5.3301197433e+000,5.4797357858e+000,5.2601618211e+000,5.4614717603e+000,6.0964234632e+000,6.1213910054e+000,5.9146982515e+000,6.1499702113e+000,5.8864307448e+000,6.8066000399e+000,5.0343125206e+000,5.8420165851e+000,5.0122647132e+000,5.2713321080e+000,
3.1218750000e+001,5.3598808616e+000,5.4855659957e+000,5.2927508543e+000,5.5408046475e+000,6.1116716766e+000,6.0812691227e+000,5.9704482017e+000,6.1465486429e+000,5.9200422997e+000,6.8347027455e+000,5.1790891730e+000,5.9341399092e+000,5.0930749729e+000,5.3501207572e+000,
3.1312500000e+001,5.2199802149e+000,5.3960678568e+000,5.1901632573e+000,5.4775029376e+000,5.9751972058e+000,6.0535307496e+000,5.8622060407e+000,6.0279443383e+000,5.7722485642e+000,6.7735486677e+000,5.0556417280e+000,5.8863409981e+000,4.9375527301e+000,5.2566225956e+000,
3.1406250000e+001,5.1287987222e+000,5.3077561447e+000,5.0893356095e+000,5.3858010573e+000,5.8985417055e+000,5.9117555128e+000,5.7310129199e+000,5.9607908700e+000,5.7050073684e+000,6.5590224414e+000,4.9673121930e+000,5.8002006419e+000,4.8476850538e+000,5.2322060506e+000,
3.1500000000e+001,5.1585342085e+000,5.3935833330e+000,5.1744550772e+000,5.5046420786e+000,5.9649717997e+000,5.8631447907e+000,5.7155322546e+000,5.8541942325e+000,5.7284850799e+000,6.5913384306e+000,4.8925194773e+000,5.8447410482e+000,4.8708117539e+000,5.3304153774e+000,
3.1593750000e+001,5.1598096143e+000,5.4140130848e+000,5.1727450432e+000,5.5461419990e+000,5.9889518485e+000,5.8422010110e+000,5.7216212999e+000,5.7255793860e+000,5.7826074211e+000,6.5254754415e+000,4.9026809821e+000,5.7234253828e+000,4.8559699571e+000,5.3675620610e+000,
3.1687500000e+001,5.2000317352e+000,5.4794555382e+000,5.2188086964e+000,5.6241046507e+000,5.9853668928e+000,5.8525033532e+000,5.6915116454e+000,5.7300306114e+000,5.7792680020e+000,6.6245526753e+000,4.9359248271e+000,5.7438400347e+000,4.9113559684e+000,5.3712650274e+000,
3.1781250000e+001,5.1760914825e+000,5.5087176813e+000,5.1830165178e+000,5.6335658763e+000,5.9719801785e+000,5.8476892664e+000,5.6774958021e+000,5.7475794166e+000,5.7058171139e+000,6.6205364418e+000,4.8594887473e+000,5.7208915144e+000,4.9109517213e+000,5.3150536128e+000,
3.1875000000e+001,5.1522755084e+000,5.5033385171e+000,5.1809976659e+000,5.6331721101e+000,6.0182142966e+000,5.8029919824e+000,5.6233668978e+000,5.7421179036e+000,5.6567069280e+000,6.5409771508e+000,4.8755853080e+000,5.7550715720e+000,4.9089174150e+000,5.3855185388e+000,
3.1968750000e+001,5.1476576672e+000,5.5129678830e+000,5.1361732198e+000,5.6089050318e+000,5.9519757446e+000,5.7367397991e+000,5.5626315605e+000,5.6968466355e+000,5.5704436638e+000,6.7430691103e+000,4.9453535181e+000,5.7806907152e+000,4.9212282754e+000,5.4044128130e+000,
3.2062500000e+001,5.1560656103e+000,5.4673631132e+000,5.1145481866e+000,5.5975563607e+000,5.8881906939e+000,5.6688911911e+000,5.4672801465e+000,5.7573386749e+000,5.5164777770e+000,6.7197965931e+000,4.9635486940e+000,5.7461638062e+000,4.9053478097e+000,5.4439616302e+000,
3.2156250000e+001,5.2031844637e+000,5.4927679062e+000,5.1280320360e+000,5.5793265400e+000,5.9280469214e+000,5.6191057748e+000,5.5378606227e+000,5.7517717627e+000,5.4876982858e+000,6.7295815538e+000,4.8654623798e+000,5.7671922604e+000,4.9422558640e+000,5.4789459796e+000,
3.2250000000e+001,5.2753008254e+000,5.5703252673e+000,5.1783872350e+000,5.6145523972e+000,6.0276607422e+000,5.6256997539e+000,5.6177621611e+000,5.8000879306e+000,5.5884175099e+000,6.8268556870e+000,4.6498038000e+000,5.8152428910e+000,4.9285918340e+000,5.4620857375e+000,
3.2343750000e+001,5.3054503808e+000,5.5757325456e+000,5.1852134207e+000,5.6153521650e+000,6.0651968847e+000,5.6109206029e+000,5.6618079680e+000,5.7067447271e+000,5.6788490717e+000,6.8242817028e+000,4.7549829096e+000,5.7424214288e+000,4.9657589366e+000,5.4212206546e+000,
3.2437500000e+001,5.1965468188e+000,5.4422902408e+000,5.0209381600e+000,5.4620373613e+000,5.9286643468e+000,5.6098386895e+000,5.5699623445e+000,5.5884688145e+000,5.5261464321e+000,6.8256761192e+000,4.7335674873e+000,5.6976543812e+000,4.8407560023e+000,5.2762174520e+000,
3.2531250000e+001,5.1856922993e+000,5.4225120341e+000,4.9789416639e+000,5.4067797544e+000,5.8846695031e+000,5.6046665113e+000,5.5112330346e+000,5.6967123942e+000,5.5014925509e+000,6.8472910394e+000,4.6881756026e+000,5.6448249650e+000,4.8404362104e+000,5.2235335627e+000,
3.2625000000e+001,5.1599489971e+000,5.3902772889e+000,4.9715841160e+000,5.3155412227e+000,5.8787828770e+000,5.6419639955e+000,5.5485944440e+000,5.6917460557e+000,5.4645725961e+000,6.8280856940e+000,4.7101879465e+000,5.6168160429e+000,4.8096637249e+000,5.1362787151e+000,
3.2718750000e+001,5.1296475769e+000,5.3212639577e+000,4.9083959391e+000,5.2393452596e+000,5.8164598190e+000,5.6069365406e+000,5.5738921584e+000,5.6885210000e+000,5.5676364575e+000,6.7632538157e+000,4.7280394519e+000,5.5726840637e+000,4.8716233921e+000,5.1447941842e+000,
3.2812500000e+001,5.0798408743e+000,5.2805701528e+000,4.9055074719e+000,5.2199834426e+000,5.7658863062e+000,5.5785708014e+000,5.5859894414e+000,5.6555448406e+000,5.5532533031e+000,6.7143452213e+000,4.7590168446e+000,5.5567508476e+000,4.9040464035e+000,5.1897564439e+000,
3.2906250000e+001,5.0811578587e+000,5.2602732693e+000,4.9102424052e+000,5.2648925558e+000,5.7594370098e+000,5.6539397906e+000,5.5767663942e+000,5.6938590249e+000,5.5514387659e+000,6.6247199501e+000,4.7317066786e+000,5.5455144413e+000,4.8810230049e+000,5.1245851206e+000,
3.3000000000e+001,5.0215422956e+000,5.2060616886e+000,4.9106546554e+000,5.2555162344e+000,5.8005005612e+000,5.7324853409e+000,5.5175624450e+000,5.6347334478e+000,5.4956819689e+000,6.5156417604e+000,4.7693697440e+000,5.4481459485e+000,4.8140337690e+000,5.0303734005e+000,
3.3093750000e+001,5.0057199514e+000,5.2180795901e+000,4.9443240979e+000,5.3016555769e+000,5.7760220313e+000,5.7268028325e+000,5.4935458771e+000,5.5797401482e+000,5.5648327033e+000,6.5303802934e+000,4.8837599503e+000,5.4703288595e+000,4.8788992223e+000,4.9963449575e+000,
3.3187500000e+001,4.9729661612e+000,5.1246971795e+000,4.9672650972e+000,5.2555367489e+000,5.6586043806e+000,5.6879800624e+000,5.5621366560e+000,5.5778365625e+000,5.5385888811e+000,6.3913985157e+000,4.9052180893e+000,5.4095463611e+000,4.8744925434e+000,4.9156125730e+000,
3.3281250000e+001,4.8736412058e+000,4.9888584039e+000,4.8422976272e+000,5.1749575993e+000,5.4695372367e+000,5.5728554423e+000,5.2992908139e+000,5.4789846152e+000,5.2562811646e+000,6.3459004684e+000,4.8791265748e+000,5.3196364943e+000,4.7691017487e+000,4.8084791451e+000,
3.3375000000e+001,4.9675075085e+000,5.0972160341e+000,4.9806935279e+000,5.2696482149e+000,5.5398018949e+000,5.6429230434e+000,5.3550232739e+000,5.5461835672e+000,5.3407386414e+000,6.3609689554e+000,4.8610202194e+000,5.3572471867e+000,4.7762651145e+000,4.8717786020e+000,
3.3468750000e+001,4.9695956204e+000,5.0932485359e+000,4.9625863065e+000,5.3033938907e+000,5.5709042420e+000,5.5867791080e+000,5.3569474761e+000,5.5550388254e+000,5.3134336821e+000,6.4136351622e+000,4.8967500687e+000,5.3088957590e+000,4.8194206998e+000,4.7983708281e+000,
3.3562500000e+001,5.0751239266e+000,5.1942969768e+000,4.9950487292e+000,5.3896154858e+000,5.7475495269e+000,5.6096765181e+000,5.4581514700e+000,5.4851388573e+000,5.2731503550e+000,6.4194534239e+000,5.0261684345e+000,5.4487645818e+000,4.8041306018e+000,4.9097795698e+000,
3.3656250000e+001,5.0786964834e+000,5.1851481237e+000,5.0107874809e+000,5.4319876444e+000,5.8199111316e+000,5.5720339524e+000,5.4019470818e+000,5.4495389189e+000,5.2280820279e+000,6.4168519415e+000,5.0352568252e+000,5.4987681428e+000,4.8276841111e+000,4.9776068184e+000,
3.3750000000e+001,5.1135388954e+000,5.2203892903e+000,5.0208857328e+000,5.4311384288e+000,5.8365586577e+000,5.5807883650e+000,5.4745973397e+000,5.5006522371e+000,5.2544441678e+000,6.5307654037e+000,5.0902293429e+000,5.4812523004e+000,4.7747669824e+000,4.9212252105e+000,
3.3843750000e+001,5.1266599891e+000,5.1535843152e+000,4.9872375422e+000,5.3864989169e+000,5.8589565717e+000,5.5324440795e+000,5.4467694752e+000,5.6021759603e+000,5.2859277395e+000,6.5620197410e+000,5.1750992196e+000,5.4713278837e+000,4.8222112119e+000,4.9019076506e+000,
3.3937500000e+001,5.0206688529e+000,5.0776985119e+000,4.8408678105e+000,5.2867555669e+000,5.6829715766e+000,5.3044974766e+000,5.3814189621e+000,5.5218354555e+000,5.2999031052e+000,6.5057340953e+000,5.1579627616e+000,5.3772615279e+000,4.7612983175e+000,4.7616700614e+000,
3.4031250000e+001,4.9784906263e+000,5.0445193014e+000,4.7822626079e+000,5.2480476415e+000,5.6723364263e+000,5.2669552057e+000,5.3469716756e+000,5.5428066454e+000,5.3652841350e+000,6.4732837324e+000,5.1237786619e+000,5.4081649861e+000,4.7395801121e+000,4.7561646101e+000,
3.4125000000e+001,4.8544759256e+000,4.9335955218e+000,4.6381771868e+000,5.1487646724e+000,5.6232512895e+000,5.2655930632e+000,5.2454771879e+000,5.5612708342e+000,5.2860246537e+000,6.3696761964e+000,4.9845438475e+000,5.3223953388e+000,4.5550892708e+000,4.6468577085e+000,
3.4218750000e+001,4.8297219586e+000,4.9307080614e+000,4.6483670702e+000,5.1587446247e+000,5.6449777434e+000,5.2858330510e+000,5.1687332957e+000,5.5319018423e+000,5.4510660669e+000,6.3829497858e+000,4.9477231816e+000,5.4248696889e+000,4.5885474264e+000,4.7540062588e+000,
3.4312500000e+001,4.7826298027e+000,4.8766833499e+000,4.5954350924e+000,5.1003747044e+000,5.6020303758e+000,5.3435439728e+000,5.1272246406e+000,5.5517108361e+000,5.4159434722e+000,6.4313759279e+000,4.8840916811e+000,5.4008062872e+000,4.5724919638e+000,4.7528583800e+000,
3.4406250000e+001,4.6922462989e+000,4.7891544251e+000,4.4011649136e+000,5.0218728037e+000,5.5515155265e+000,5.3514268685e+000,5.0703938720e+000,5.4865953669e+000,5.3199517523e+000,6.3749012710e+000,4.8362666913e+000,5.4045829774e+000,4.5148208561e+000,4.7977809266e+000,
3.4500000000e+001,4.6448915353e+000,4.7520172608e+000,4.3845434332e+000,4.9382502962e+000,5.5337279215e+000,5.3650689148e+000,5.0360838189e+000,5.4599972223e+000,5.3357855211e+000,6.2941825613e+000,4.8699326021e+000,5.4089917302e+000,4.5360298461e+000,4.7903309719e+000,
3.4593750000e+001,4.3830188205e+000,4.4463403479e+000,4.2209434087e+000,4.7426545916e+000,5.1713033070e+000,5.2253944975e+000,4.8364326651e+000,5.4508158964e+000,5.2116575358e+000,6.1687558210e+000,4.6305667318e+000,5.2521530981e+000,4.3670708436e+000,4.6463482072e+000,
3.4687500000e+001,4.4395837173e+000,4.5491277283e+000,4.3461914419e+000,4.7886047207e+000,5.2510373796e+000,5.2965797898e+000,4.9113837617e+000,5.4957994673e+000,5.2912519074e+000,6.1808714015e+000,4.5246324173e+000,5.3361253528e+000,4.4011492172e+000,4.7721101444e+000,
3.4781250000e+001,4.3836113986e+000,4.4956563758e+000,4.3218995746e+000,4.6975842094e+000,5.2512867990e+000,5.2471641879e+000,4.7216388677e+000,5.3815068335e+000,5.2844089749e+000,6.0331796943e+000,4.4533901734e+000,5.3695948417e+000,4.3288079854e+000,4.7498118742e+000,
3.4875000000e+001,4.2969516997e+000,4.4983528794e+000,4.3373348933e+000,4.6779714742e+000,5.2027770591e+000,5.1929401675e+000,4.6657425541e+000,5.3349128564e+000,5.2040799492e+000,6.0326158179e+000,4.2820222111e+000,5.3538487347e+000,4.1707473733e+000,4.6863313021e+000,
3.4968750000e+001,4.3249270803e+000,4.5082456291e+000,4.3758649637e+000,4.6508629978e+000,5.2474678035e+000,5.2519085270e+000,4.7671274862e+000,5.5104639497e+000,5.1743237299e+000,6.0194140854e+000,4.1491827145e+000,5.3198128392e+000,4.1636342463e+000,4.7087885375e+000,
3.5062500000e+001,4.2313946189e+000,4.4915207058e+000,4.3540898471e+000,4.6106933320e+000,5.2206761909e+000,5.1932187911e+000,4.8681988178e+000,5.3503761114e+000,5.0453655683e+000,6.0002673255e+000,4.1380037679e+000,5.2264384433e+000,4.1609114674e+000,4.7317901557e+000,
3.5156250000e+001,4.3156734992e+000,4.5292184406e+000,4.3441678859e+000,4.6572530506e+000,5.2800814549e+000,5.2106376486e+000,4.8790290734e+000,5.2968817594e+000,5.0292115285e+000,5.9730823313e+000,4.0491373605e+000,5.0819794683e+000,4.1453833700e+000,4.7024855037e+000,
3.5250000000e+001,4.5740376315e+000,4.7219094583e+000,4.3999609702e+000,4.6254070194e+000,5.3935603506e+000,5.2276290568e+000,5.0277867088e+000,5.2911151818e+000,4.8610061867e+000,5.9223416728e+000,4.1466151346e+000,4.9836206884e+000,4.1021421093e+000,4.6422471152e+000,
3.5343750000e+001,4.6213724922e+000,4.7507963138e+000,4.4251032931e+000,4.6488254596e+000,5.4132123189e+000,5.1409794832e+000,5.0093995101e+000,5.3305823974e+000,4.8645460822e+000,5.9267132134e+000,4.2887578111e+000,5.0373720151e+000,4.0869439316e+000,4.6104541384e+000,
3.5437500000e+001,4.6764205792e+000,4.8094911727e+000,4.5409252026e+000,4.6965101030e+000,5.4433735791e+000,5.0958421461e+000,5.1103604534e+000,5.3801919815e+000,4.9494162510e+000,5.9033843683e+000,4.2554545533e+000,5.2124728714e+000,4.0547837292e+000,4.7402144769e+000,
3.5531250000e+001,4.7263466352e+000,4.8337853088e+000,4.5494544126e+000,4.7455432033e+000,5.4364646690e+000,5.1384813445e+000,5.1730757401e+000,5.4009261897e+000,4.9954250560e+000,5.9518288688e+000,4.3136329642e+000,5.1656970404e+000,4.0821698624e+000,4.7418738341e+000,
3.5625000000e+001,4.6700961636e+000,4.8304686088e+000,4.4770533539e+000,4.7358233783e+000,5.3694336096e+000,5.0511056146e+000,5.0971975443e+000,5.3632678596e+000,5.0529842760e+000,6.0905867830e+000,4.4496973250e+000,5.0882846942e+000,3.9765568739e+000,4.6869538645e+000,
3.5718750000e+001,4.6937464476e+000,4.8280095369e+000,4.4401535923e+000,4.6847394074e+000,5.3834130812e+000,5.0868827581e+000,5.0718871343e+000,5.3806757446e+000,4.9777470423e+000,6.1296080782e+000,4.5740420977e+000,5.0925011064e+000,3.9700572886e+000,4.6695666501e+000,
3.5812500000e+001,4.7775742656e+000,4.9012807844e+000,4.5432561314e+000,4.8064758390e+000,5.4696639557e+000,5.2135284884e+000,5.1072747985e+000,5.3063801288e+000,5.0930967755e+000,6.1252067723e+000,4.6307096256e+000,5.0930463262e+000,4.1164468078e+000,4.7389082251e+000,
3.5906250000e+001,4.8444427076e+000,4.9180822421e+000,4.6172748908e+000,4.8683045559e+000,5.5113776570e+000,5.1992816022e+000,5.1537784623e+000,5.1589307047e+000,5.1960506980e+000,6.1564035098e+000,4.7049008927e+000,5.1392383753e+000,4.1908428658e+000,4.7847429963e+000,
3.6000000000e+001,4.8529593840e+000,4.9276267783e+000,4.6600678974e+000,4.9178514544e+000,5.4686428879e+000,5.2226373764e+000,5.1086103405e+000,5.1475977002e+000,5.2396256958e+000,6.1986057817e+000,4.8486467259e+000,5.2148014815e+000,4.2595089092e+000,4.8749522529e+000,
3.6093750000e+001,4.8852737859e+000,4.9661614681e+000,4.6714516839e+000,4.9528944556e+000,5.4616168813e+000,5.2948624373e+000,5.0720609987e+000,5.1419101174e+000,5.2818145534e+000,6.1897764839e+000,4.8247328279e+000,5.2939889066e+000,4.3409069720e+000,4.9120705096e+000,
3.6187500000e+001,4.8302003598e+000,4.8824474213e+000,4.6796554727e+000,4.9771775992e+000,5.4552565610e+000,5.3006446613e+000,4.9477679982e+000,5.2298194861e+000,5.3138285806e+000,6.2651079384e+000,4.8292092924e+000,5.3999191102e+000,4.4228443160e+000,5.0161990166e+000,
3.6281250000e+001,4.7633033721e+000,4.8656784249e+000,4.7522746524e+000,5.0065473674e+000,5.4884144582e+000,5.3189614636e+000,4.9887383365e+000,5.3225771571e+000,5.3759710315e+000,6.2234827949e+000,4.8371916991e+000,5.4432923284e+000,4.5592849518e+000,5.0325565362e+000,
3.6375000000e+001,4.7707899530e+000,4.9569709684e+000,4.7606701288e+000,5.0031814033e+000,5.5395721028e+000,5.4361031695e+000,5.0482798492e+000,5.3849847033e+000,5.4398730221e+000,6.2302409289e+000,4.8128890703e+000,5.4463039487e+000,4.6243826848e+000,5.0553402138e+000,
3.6468750000e+001,4.8102066726e+000,4.9267955353e+000,4.7547136095e+000,5.0070208306e+000,5.5688956527e+000,5.4320379146e+000,4.9816256471e+000,5.3359688459e+000,5.4387911141e+000,6.2452732706e+000,4.8166096498e+000,5.3916979473e+000,4.6265748183e+000,4.9875950490e+000,
3.6562500000e+001,4.7862185877e+000,4.9287372788e+000,4.7296632589e+000,4.9854868284e+000,5.5846120683e+000,5.4755626102e+000,4.9070337789e+000,5.3887722273e+000,5.3553639667e+000,6.2151289959e+000,4.6968575317e+000,5.3217212229e+000,4.6228047771e+000,4.9175314083e+000,
3.6656250000e+001,4.7984270456e+000,4.9193478126e+000,4.7517486670e+000,4.9994530903e+000,5.5729385866e+000,5.5481903916e+000,5.0381850299e+000,5.3691152732e+000,5.3923634303e+000,6.1930117259e+000,4.6216564758e+000,5.3664293016e+000,4.6338149105e+000,4.9318969967e+000,
3.6750000000e+001,4.7462395961e+000,4.8699557856e+000,4.6942836615e+000,4.9644461859e+000,5.5642320674e+000,5.4780032419e+000,4.9868548622e+000,5.4079981598e+000,5.3586605629e+000,6.1292125175e+000,4.6022436495e+000,5.3627008032e+000,4.6321267475e+000,4.9187372242e+000,
3.6843750000e+001,4.6480927588e+000,4.7951063005e+000,4.5607097846e+000,4.8548007507e+000,5.5257595021e+000,5.3856017728e+000,5.0062877097e+000,5.3571329356e+000,5.3089849025e+000,6.1537274497e+000,4.5267299966e+000,5.2961885445e+000,4.5672897608e+000,4.8239895532e+000,
3.6937500000e+001,4.5859464735e+000,4.7440799113e+000,4.4848386694e+000,4.7790076966e+000,5.4935057994e+000,5.3256875756e+000,4.9718944225e+000,5.3957460957e+000,5.2268661462e+000,6.1461113729e+000,4.4650166908e+000,5.2735347781e+000,4.5522925439e+000,4.7155997817e+000,
3.7031250000e+001,4.5742369424e+000,4.7640700418e+000,4.4456441409e+000,4.7427784823e+000,5.5058839591e+000,5.3171221543e+000,4.9729114429e+000,5.4773463669e+000,5.2251881561e+000,6.1384669250e+000,4.3851147874e+000,5.2254063466e+000,4.5210704410e+000,4.6901828621e+000,
3.7125000000e+001,4.6009761783e+000,4.7834978613e+000,4.5383191969e+000,4.7303621892e+000,5.4634481207e+000,5.2247203447e+000,4.9984508371e+000,5.5693942889e+000,5.2411671684e+000,6.1414231359e+000,4.5310974630e+000,5.3581686289e+000,4.5101019047e+000,4.7233601167e+000,
3.7218750000e+001,4.5769127237e+000,4.8122895847e+000,4.4735850326e+000,4.8076246629e+000,5.3876736183e+000,5.2031370279e+000,5.1174558646e+000,5.4901829998e+000,5.1441433001e+000,6.0451707232e+000,4.6230326652e+000,5.3531859664e+000,4.4851496127e+000,4.6364380948e+000,
3.7312500000e+001,4.5351571244e+000,4.8168693321e+000,4.3901466787e+000,4.9395192731e+000,5.3926475401e+000,5.0458536797e+000,5.0421710301e+000,5.3256655875e+000,5.0530542671e+000,5.9832451754e+000,4.5279433084e+000,5.3677102833e+000,4.3790404749e+000,4.6158822425e+000,
3.7406250000e+001,4.3537722131e+000,4.7582483131e+000,4.2539409333e+000,4.8547768616e+000,5.2479669189e+000,4.9844751128e+000,5.0012356376e+000,5.2206063680e+000,4.9251842985e+000,5.9635209621e+000,4.5132786313e+000,5.2453710705e+000,4.3281991565e+000,4.5754217668e+000,
3.7500000000e+001,4.2791903552e+000,4.7157851882e+000,4.1956410683e+000,4.8007609202e+000,5.1850960317e+000,4.9693114400e+000,5.0946922992e+000,5.2236232379e+000,4.9521435969e+000,5.9610338867e+000,4.4678021909e+000,5.2071858373e+000,4.2628569773e+000,4.5555073710e+000,
3.7593750000e+001,4.2965870140e+000,4.7884345177e+000,4.2285951809e+000,4.8893732571e+000,5.2931206098e+000,5.0333237784e+000,5.0529199187e+000,5.3195202156e+000,4.9044706518e+000,5.9070505697e+000,4.4383150557e+000,5.1715775254e+000,4.3353374659e+000,4.6215317825e+000,
3.7687500000e+001,4.4426472897e+000,4.8445494365e+000,4.3106746323e+000,4.9328876656e+000,5.3917127470e+000,5.0257591207e+000,5.0373728704e+000,5.3133998324e+000,5.0385376735e+000,6.0312814826e+000,4.4414263527e+000,5.3186651111e+000,4.4643529408e+000,4.7251064971e+000,
3.7781250000e+001,4.4134824540e+000,4.8450110584e+000,4.3451787313e+000,4.9530811792e+000,5.3062710344e+000,5.1057162378e+000,5.0182859264e+000,5.3100868802e+000,5.0101271800e+000,6.0338501363e+000,4.4704141622e+000,5.2788309067e+000,4.4932015254e+000,4.7212091116e+000,
3.7875000000e+001,4.4978361876e+000,4.8889657109e+000,4.4388067030e+000,5.0071941848e+000,5.2741971553e+000,5.1271109772e+000,5.0699304856e+000,5.3139197894e+000,5.0382020786e+000,6.0302345480e+000,4.5236480095e+000,5.3077439718e+000,4.5533785047e+000,4.7631178854e+000,
3.7968750000e+001,4.5759008635e+000,4.9571520248e+000,4.5260513568e+000,5.0552686253e+000,5.3316749640e+000,5.1446169028e+000,5.0903341282e+000,5.2115750273e+000,5.0560867300e+000,6.0492296868e+000,4.4863528852e+000,5.3262997872e+000,4.5939498853e+000,4.7457746633e+000,
3.8062500000e+001,4.7305210469e+000,5.0370781851e+000,4.6052375420e+000,5.1437999924e+000,5.3917762610e+000,5.2305162780e+000,5.1070101184e+000,5.4851107564e+000,5.0559839223e+000,6.1435513726e+000,4.5280650057e+000,5.3187998026e+000,4.6611827470e+000,4.7411425940e+000,
3.8156250000e+001,4.7835560601e+000,5.0510243801e+000,4.6134834741e+000,5.1435530142e+000,5.5915988415e+000,5.3533078978e+000,5.1783466544e+000,5.4697318798e+000,5.1763570569e+000,6.2491010746e+000,4.4285814123e+000,5.1346435903e+000,4.6521433474e+000,4.7568838296e+000,
3.8250000000e+001,4.7704526691e+000,5.1176296778e+000,4.6910158873e+000,5.2200530556e+000,5.6300198781e+000,5.3186560946e+000,5.1886860720e+000,5.6081243216e+000,5.3166911576e+000,6.2447616681e+000,4.4675967015e+000,5.1376573038e+000,4.6699330853e+000,4.7736919407e+000,
3.8343750000e+001,4.7665396636e+000,5.0702902414e+000,4.6652709336e+000,5.1666047907e+000,5.5861331837e+000,5.3807762377e+000,5.1105144077e+000,5.7128135189e+000,5.3023995443e+000,6.2918361672e+000,4.5056129799e+000,5.1157008966e+000,4.6673373033e+000,4.7627320566e+000,
3.8437500000e+001,4.8995470109e+000,5.1770064385e+000,4.7707738697e+000,5.2768285201e+000,5.6740933121e+000,5.4136961241e+000,5.2351402878e+000,5.7394924005e+000,5.4344462834e+000,6.3101053922e+000,4.7460124418e+000,5.3107864739e+000,4.7861364668e+000,4.8718872744e+000,
3.8531250000e+001,4.9480640102e+000,5.1854251621e+000,4.7593991969e+000,5.2334904088e+000,5.7805161709e+000,5.4041926114e+000,5.1928834336e+000,5.6713405449e+000,5.4219116054e+000,6.3152385034e+000,4.8025790998e+000,5.3168736168e+000,4.7605540406e+000,4.8250638037e+000,
3.8625000000e+001,4.8977733690e+000,5.1404676020e+000,4.6979617584e+000,5.1723128605e+000,5.6969840941e+000,5.3511835841e+000,5.2007170623e+000,5.6013777447e+000,5.4069785058e+000,6.2310164222e+000,4.8446445157e+000,5.2863356670e+000,4.7676742774e+000,4.7626962437e+000,
3.8718750000e+001,4.8374947106e+000,5.0894464535e+000,4.6313980250e+000,5.1348148688e+000,5.7327518289e+000,5.3233557811e+000,5.1285581412e+000,5.6103267359e+000,5.2329435286e+000,6.1865474099e+000,4.8353208517e+000,5.1743783037e+000,4.6826122696e+000,4.7290361280e+000,
3.8812500000e+001,4.8279203620e+000,5.0983528533e+000,4.6386615675e+000,5.1652680310e+000,5.7578907823e+000,5.3169611875e+000,5.1756343316e+000,5.6690853179e+000,5.2818566004e+000,6.2441000385e+000,4.7833150028e+000,5.3220030733e+000,4.6875669591e+000,4.7996603129e+000,
3.8906250000e+001,4.9331780893e+000,5.1390421623e+000,4.6548872066e+000,5.2043753506e+000,5.8208637776e+000,5.4908349825e+000,5.1865110750e+000,5.7463012378e+000,5.2756049447e+000,6.2659891120e+000,4.6990380873e+000,5.3045622744e+000,4.6664529811e+000,4.8628732525e+000,
3.9000000000e+001,4.9203427286e+000,5.1416985259e+000,4.6957903001e+000,5.2493477353e+000,5.7831699771e+000,5.5959783075e+000,5.2028666810e+000,5.7371654631e+000,5.2924564012e+000,6.2393999348e+000,4.7240264553e+000,5.2980168676e+000,4.6651350476e+000,4.9253925093e+000,
3.9093750000e+001,4.8073098141e+000,5.0354391590e+000,4.5960854899e+000,5.1897431670e+000,5.7529058898e+000,5.5386710606e+000,5.1713503636e+000,5.5183328728e+000,5.2705810876e+000,6.1867910866e+000,4.6833959504e+000,5.3063146204e+000,4.6096042382e+000,4.9138262907e+000,
3.9187500000e+001,4.7343618233e+000,4.8977791122e+000,4.5064348784e+000,5.0623904773e+000,5.5833951833e+000,5.5105809492e+000,5.0944016774e+000,5.4558845318e+000,5.1048526705e+000,6.2358084845e+000,4.6823570710e+000,5.3299791770e+000,4.5567699544e+000,4.8561009575e+000,
3.9281250000e+001,4.6966097741e+000,4.8428569605e+000,4.4357271855e+000,4.9684327654e+000,5.5115461463e+000,5.4919366347e+000,5.0342125584e+000,5.3818135403e+000,5.0137924983e+000,6.3153358796e+000,4.6607300806e+000,5.2454395931e+000,4.4907677142e+000,4.8134125842e+000,
3.9375000000e+001,4.6422876544e+000,4.6953247982e+000,4.3867227129e+000,4.8285923292e+000,5.4782064463e+000,5.4675679966e+000,5.0076311295e+000,5.3173017252e+000,4.9412106487e+000,6.3399466995e+000,4.5859547353e+000,5.1360654093e+000,4.3832594324e+000,4.7569965676e+000,
3.9468750000e+001,4.5547237252e+000,4.6501137604e+000,4.3490455969e+000,4.7743251749e+000,5.4288623749e+000,5.5013133725e+000,4.9410313149e+000,5.3866160090e+000,5.0136138913e+000,6.3399252144e+000,4.5987975797e+000,5.1368020085e+000,4.4179142021e+000,4.7195893512e+000,
3.9562500000e+001,4.6109475339e+000,4.6648886638e+000,4.4854957003e+000,4.9071854999e+000,5.3535310833e+000,5.5010756625e+000,5.1435318191e+000,5.4424211067e+000,5.2001278896e+000,6.4963601958e+000,4.5972796161e+000,5.2676969546e+000,4.5556933306e+000,4.8707784828e+000,
3.9656250000e+001,4.6690035235e+000,4.6920444697e+000,4.4944130388e+000,4.9076738482e+000,5.3840077857e+000,5.5644178930e+000,5.1706823202e+000,5.4569954891e+000,5.2576320472e+000,6.5720111462e+000,4.6073452452e+000,5.2723361238e+000,4.5393203297e+000,4.8584165624e+000,
3.9750000000e+001,4.7156813775e+000,4.7436376689e+000,4.5324088816e+000,4.9505950481e+000,5.4107506815e+000,5.5235234337e+000,5.1590771945e+000,5.4156327712e+000,5.2563817157e+000,6.6068106024e+000,4.6277391401e+000,5.2197230709e+000,4.5748592944e+000,4.8483073335e+000,
3.9843750000e+001,4.8480227104e+000,4.9449604429e+000,4.7298279466e+000,5.1042643078e+000,5.6246688002e+000,5.5827355035e+000,5.3374180782e+000,5.5173136498e+000,5.4225878753e+000,6.6005730725e+000,4.7286312880e+000,5.2646802160e+000,4.7102976429e+000,5.0001501991e+000,
3.9937500000e+001,4.6896194317e+000,4.8232849883e+000,4.6408727743e+000,4.9726838061e+000,5.5912062847e+000,5.4286672214e+000,5.3143492844e+000,5.4100219175e+000,5.3336128110e+000,6.5302985773e+000,4.7576543524e+000,5.2284712279e+000,4.6394012665e+000,4.8660729895e+000,
4.0031250000e+001,4.6851767667e+000,4.8456727464e+000,4.6058064038e+000,4.9618199558e+000,5.5843479523e+000,5.3555076662e+000,5.3067040577e+000,5.4530648069e+000,5.3327451660e+000,6.4404169820e+000,4.7546560036e+000,5.2197790595e+000,4.6166293060e+000,4.8497901366e+000,
4.0125000000e+001,4.6212989781e+000,4.8658792540e+000,4.5101817678e+000,4.9254012367e+000,5.5555382063e+000,5.3314814418e+000,5.1945077064e+000,5.4669341534e+000,5.2364346179e+000,6.3860767648e+000,4.8212753457e+000,5.1387025894e+000,4.5637134993e+000,4.7725683660e+000,
4.0218750000e+001,4.6286011589e+000,4.8766657953e+000,4.5152783366e+000,4.9092289606e+000,5.6556564014e+000,5.3736945061e+000,5.1916169279e+000,5.4309584373e+000,5.2532757619e+000,6.3027886117e+000,4.8864462970e+000,5.1611717148e+000,4.5699848703e+000,4.8177454923e+000,
4.0312500000e+001,4.6107907596e+000,4.8322582621e+000,4.4831294684e+000,4.8903190406e+000,5.6509543798e+000,5.4021654587e+000,5.1871868846e+000,5.4727893206e+000,5.2657175322e+000,6.1974572664e+000,4.9048122168e+000,5.2138162813e+000,4.6034078103e+000,4.8177556693e+000,
4.0406250000e+001,4.6345404776e+000,4.8912146937e+000,4.5056508288e+000,4.9423677467e+000,5.6755384957e+000,5.4964527013e+000,5.2262415577e+000,5.4501794725e+000,5.3236847518e+000,6.2363291276e+000,4.8191713119e+000,5.2036651799e+000,4.6007701089e+000,4.8467915662e+000,
4.0500000000e+001,4.6053182139e+000,4.8573426054e+000,4.4665411304e+000,4.8842975636e+000,5.6411034605e+000,5.5070932866e+000,5.2424930512e+000,5.3730883206e+000,5.2706559494e+000,6.0532639591e+000,4.7480547986e+000,5.1451571321e+000,4.5112576851e+000,4.8489456483e+000,
4.0593750000e+001,4.5510606217e+000,4.8414082267e+000,4.4072242848e+000,4.8214120358e+000,5.6126728653e+000,5.5436045132e+000,5.0054720207e+000,5.3987031555e+000,5.1734428197e+000,5.9184363937e+000,4.8092393479e+000,5.2190252321e+000,4.5054068208e+000,4.8220129310e+000,
4.0687500000e+001,4.4450545276e+000,4.7739090508e+000,4.3711594226e+000,4.7998703969e+000,5.4942552472e+000,5.4329384941e+000,5.0414534676e+000,5.3807390489e+000,5.1085321163e+000,5.8879497535e+000,4.8723867516e+000,5.2244483331e+000,4.4865073701e+000,4.7994903837e+000,
4.0781250000e+001,4.5722799954e+000,4.9176834438e+000,4.5684370706e+000,4.9344728746e+000,5.4267326584e+000,5.4176799729e+000,5.1659960255e+000,5.4176530299e+000,5.1742453605e+000,5.8631773209e+000,4.7999201166e+000,5.2394936457e+000,4.4969173104e+000,4.7408596434e+000,
4.0875000000e+001,4.4570178397e+000,4.7923599637e+000,4.4341115002e+000,4.8212561483e+000,5.1765611070e+000,5.3051609018e+000,5.0137241242e+000,5.2386377986e+000,5.0053002695e+000,5.8502686874e+000,4.8029859489e+000,5.1625185103e+000,4.4387835627e+000,4.6408746660e+000,
4.0968750000e+001,4.4057283713e+000,4.8439282197e+000,4.4908879744e+000,4.9244206423e+000,5.1475516352e+000,5.3421983241e+000,5.0908734887e+000,5.2654546996e+000,5.0171744534e+000,5.8665512454e+000,4.8399676947e+000,5.2851843894e+000,4.5131788467e+000,4.7442896060e+000,
4.1062500000e+001,4.5028513732e+000,4.8480780770e+000,4.5474549271e+000,4.8749767857e+000,5.3256687778e+000,5.4276390926e+000,5.0724050687e+000,5.2724443206e+000,5.1361290869e+000,6.0823527072e+000,4.8307446690e+000,5.3038510455e+000,4.6149607506e+000,4.8640912937e+000,
4.1156250000e+001,4.4771960884e+000,4.7484562344e+000,4.5935616079e+000,4.8561206426e+000,5.3494444065e+000,5.4394679632e+000,5.1218885679e+000,5.2351036579e+000,5.1657054672e+000,6.1788672573e+000,4.7891016824e+000,5.3588085202e+000,4.6209397039e+000,4.8645814914e+000,
