Time (s),AF3,AF4,F3,F4,F7,F8,FC5,FC6,T7,T8,P7,P8,O1,O2,Sampling Rate
0.0000000000e+000,4.0976059329e+000,4.5072601686e+000,3.3901621209e+000,3.2488985409e+000,4.2839068748e+000,4.2331480166e+000,3.3429237309e+000,4.2467380256e+000,3.0037169588e+000,3.7440366487e+000,2.4339056928e+000,3.7383845381e+000,3.0152445139e+000,3.5114511012e+000,1
9.3750000000e-002,4.1560735962e+000,4.5911264520e+000,3.4282653115e+000,3.4066058804e+000,4.2862753626e+000,4.3546554758e+000,3.4839404119e+000,4.3520180287e+000,2.8600578334e+000,3.8832145430e+000,2.4512433254e+000,3.8193644471e+000,3.0187787181e+000,3.6231147495e+000,
1.8750000000e-001,4.1267118270e+000,4.5153141674e+000,3.4905911805e+000,3.2518736588e+000,4.0914191734e+000,4.1391286913e+000,3.5040893424e+000,4.2233035900e+000,2.8759984889e+000,3.7179741179e+000,2.4440119358e+000,3.7655785172e+000,3.2056983159e+000,3.6277960433e+000,
2.8125000000e-001,3.7901618837e+000,4.3128141884e+000,3.3134722481e+000,3.2728155109e+000,3.7318378768e+000,4.0860285828e+000,3.2868870004e+000,4.1737159818e+000,2.8755561161e+000,3.7513488279e+000,2.1924013445e+000,3.8047025793e+000,3.0791736661e+000,3.5899465575e+000,
3.7500000000e-001,3.6762113200e+000,4.2708797643e+000,3.3136551043e+000,3.2697744004e+000,3.7374278654e+000,4.0949797424e+000,3.2409571049e+000,4.1628577714e+000,2.8460999012e+000,3.7464584407e+000,2.1681087511e+000,3.8009648946e+000,3.0338610587e+000,3.5206125379e+000,
4.6875000000e-001,3.6650900519e+000,4.3543800521e+000,3.3404782488e+000,3.4429779920e+000,3.5003518198e+000,4.1819690785e+000,3.2767109596e+000,4.3097042047e+000,2.8237661945e+000,3.9544122875e+000,2.3150149405e+000,3.9378204511e+000,3.0444375800e+000,3.6681862063e+000,
5.6250000000e-001,3.7092736985e+000,4.3653921854e+000,3.3761628894e+000,3.4884027244e+000,3.6537886896e+000,4.1758077509e+000,3.3762378235e+000,4.2941800938e+000,2.7057096826e+000,4.0093960984e+000,2.3817449668e+000,3.9508268870e+000,3.2627465143e+000,3.6600813387e+000,
6.5625000000e-001,3.7085002865e+000,4.3033117932e+000,3.4938694417e+000,3.4363332886e+000,3.6767669920e+000,4.0456578260e+000,3.4708686820e+000,4.1965069507e+000,2.8338493195e+000,3.9449877669e+000,2.3704964857e+000,3.9507314648e+000,3.3667770824e+000,3.6990435983e+000,
7.5000000000e-001,3.6330847716e+000,4.1264128626e+000,3.4120290813e+000,3.4387987324e+000,3.7081256239e+000,4.0394496061e+000,3.4771185677e+000,4.1431426441e+000,2.7942543494e+000,3.9430763825e+000,2.3618638217e+000,3.9239959458e+000,3.3744356479e+000,3.7291787425e+000,
8.4375000000e-001,3.6867364058e+000,4.0380436037e+000,3.4031186790e+000,3.4343430573e+000,3.8765834382e+000,4.0482214443e+000,3.5298094943e+000,4.0248936432e+000,2.7022714441e+000,3.9609891663e+000,2.3915817288e+000,3.9205539865e+000,3.4413919739e+000,3.7309201421e+000,
9.3750000000e-001,3.6396635206e+000,3.9482959231e+000,3.3608267782e+000,3.4360271038e+000,3.7589768562e+000,4.0060610688e+000,3.4455797497e+000,3.9469151895e+000,2.8124577739e+000,3.8941335616e+000,2.3651163921e+000,3.8784356024e+000,3.4250931378e+000,3.7250269386e+000,
1.0312500000e+000,3.6198548234e+000,3.8346434581e+000,3.2978157194e+000,3.4058915604e+000,3.6993344176e+000,3.9238676987e+000,3.2858746876e+000,3.8291737184e+000,2.8255759690e+000,3.7342995543e+000,2.3588128508e+000,3.7183974889e+000,3.4883291691e+000,3.6849862598e+000,
1.1250000000e+000,3.5650691928e+000,3.7223220791e+000,3.2192351168e+000,3.3399885836e+000,3.7429830182e+000,3.8737414929e+000,3.2026662106e+000,3.8163812583e+000,2.9217761725e+000,3.7354089475e+000,2.2681701353e+000,3.6807252825e+000,3.3295413273e+000,3.6471170989e+000,
1.2187500000e+000,3.4997493894e+000,3.8219122259e+000,3.2090215539e+000,3.4833342052e+000,3.7147079955e+000,4.0917233631e+000,3.1875949581e+000,4.0390655283e+000,2.8851499876e+000,3.9690849665e+000,2.2747870813e+000,3.8800846223e+000,3.3391277857e+000,3.8383644778e+000,
1.3125000000e+000,3.6746117471e+000,3.9529243064e+000,3.3008797715e+000,3.5863254033e+000,3.8988302020e+000,4.2627655539e+000,3.2660972216e+000,4.1594106156e+000,2.8289052465e+000,4.0839774329e+000,2.3332620601e+000,3.8266179481e+000,3.4289369713e+000,4.0451367556e+000,
1.4062500000e+000,3.8603558235e+000,4.0921271317e+000,3.5111457998e+000,3.5577166625e+000,3.9620897120e+000,4.2556805167e+000,3.3372973018e+000,4.1766624608e+000,2.9075260340e+000,3.9941597853e+000,2.4624816124e+000,3.7733576678e+000,3.6053027241e+000,4.0701755658e+000,
1.5000000000e+000,3.8808612439e+000,4.0476930492e+000,3.5830044991e+000,3.4575473075e+000,3.9802705444e+000,4.2372670758e+000,3.3183412465e+000,4.1038941491e+000,3.0283323855e+000,3.9499123918e+000,2.5619849869e+000,3.8551065171e+000,3.6909894790e+000,4.0679784901e+000,
1.5937500000e+000,3.8566951203e+000,4.0974519486e+000,3.5085805158e+000,3.4915007630e+000,3.8786261067e+000,4.3410547180e+000,3.1726827185e+000,4.1822717103e+000,2.9961001056e+000,3.9829485822e+000,2.5406371942e+000,3.8564028393e+000,3.5829875794e+000,4.1197984029e+000,
1.6875000000e+000,3.9366519639e+000,4.2082145023e+000,3.5450744673e+000,3.5519176602e+000,3.8971709898e+000,4.3872351913e+000,3.2094951198e+000,4.2794918199e+000,3.0428070450e+000,4.0624267319e+000,2.6010911114e+000,3.8531878924e+000,3.5396408237e+000,4.1087018987e+000,
1.7812500000e+000,3.9443611049e+000,4.2514457691e+000,3.5605032504e+000,3.6010739023e+000,3.8777653196e+000,4.4282675961e+000,3.2782408133e+000,4.3468583060e+000,3.0184370778e+000,4.1344120801e+000,2.6680272781e+000,3.9234355250e+000,3.5312941096e+000,4.1064226742e+000,
1.8750000000e+000,3.8659000384e+000,4.2148799444e+000,3.4843602185e+000,3.6145553406e+000,3.7731754068e+000,4.4752621626e+000,3.2305127701e+000,4.4348956163e+000,2.8982084027e+000,4.1565737600e+000,2.6948226595e+000,3.9873320426e+000,3.6212996874e+000,4.1973843027e+000,
1.9687500000e+000,3.8457856357e+000,4.2128646599e+000,3.4579039775e+000,3.6337451531e+000,3.7932940627e+000,4.5343672925e+000,3.2344651164e+000,4.4668628510e+000,2.8481571468e+000,4.2345236743e+000,2.6573703063e+000,4.0030109088e+000,3.6522808642e+000,4.2202559747e+000,
2.0625000000e+000,3.8984858632e+000,4.2537207145e+000,3.5156928931e+000,3.6414749072e+000,3.8939087412e+000,4.5361903015e+000,3.2745331745e+000,4.4409550816e+000,2.8274996932e+000,4.2421597814e+000,2.6765343443e+000,3.9792482694e+000,3.7075244358e+000,4.2267145947e+000,
2.1562500000e+000,3.8641652723e+000,4.2375080101e+000,3.5034114446e+000,3.7008086383e+000,3.9561371077e+000,4.5489885194e+000,3.2103430439e+000,4.4023285721e+000,2.6588959822e+000,4.2705498659e+000,2.7892139818e+000,3.9806390117e+000,3.7074822779e+000,4.2403851126e+000,
2.2500000000e+000,3.8012028605e+000,4.1959008218e+000,3.4370208267e+000,3.5834224729e+000,3.8676455441e+000,4.4244591592e+000,3.2480717659e+000,4.3220269623e+000,2.6116673374e+000,4.1350623927e+000,2.8695027168e+000,3.8935899514e+000,3.8823142838e+000,4.2883273235e+000,
2.3437500000e+000,3.5592777773e+000,4.0424038608e+000,3.1990579768e+000,3.5019623393e+000,3.6953220369e+000,4.4028949160e+000,3.2034211472e+000,4.2789051153e+000,2.5166785626e+000,4.0757684137e+000,2.8284425386e+000,3.9020808493e+000,3.8995110646e+000,4.1653081774e+000,
2.4375000000e+000,3.4950092620e+000,3.9417562905e+000,3.1280222414e+000,3.4810116693e+000,3.6036541456e+000,4.3546403647e+000,3.2992929777e+000,4.2650959039e+000,2.2638854132e+000,4.0467705025e+000,2.7081822000e+000,3.8618926333e+000,3.7666505180e+000,4.0912247175e+000,
2.5312500000e+000,3.5155148466e+000,3.9472265118e+000,3.0447673603e+000,3.5359306592e+000,3.5755636227e+000,4.4236680170e+000,3.3005264467e+000,4.3544437020e+000,2.1728263321e+000,4.0372212974e+000,2.5879439063e+000,3.7284454455e+000,3.7088850407e+000,4.0423513179e+000,
2.6250000000e+000,3.4419300868e+000,3.8438051477e+000,2.9065713273e+000,3.5169211899e+000,3.5717277607e+000,4.4214436442e+000,3.2531899065e+000,4.3445236597e+000,1.8501433544e+000,4.0573164732e+000,2.6332428894e+000,3.7169707903e+000,3.7819270003e+000,3.9743137092e+000,
2.7187500000e+000,3.3654574854e+000,3.7062995671e+000,2.8598022133e+000,3.4837224869e+000,3.5749813579e+000,4.4298819407e+000,3.1717503493e+000,4.3653931770e+000,1.9625780426e+000,4.0961042371e+000,2.6175179659e+000,3.8200625124e+000,3.8241268958e+000,4.0595591695e+000,
2.8125000000e+000,3.3754535718e+000,3.6643191709e+000,2.8968120174e+000,3.3368967410e+000,3.5481768800e+000,4.2954895382e+000,3.0378611066e+000,4.2795620057e+000,1.9728342119e+000,4.0076489247e+000,2.5423792901e+000,3.6964699737e+000,3.8220885899e+000,4.0258533515e+000,
2.9062500000e+000,3.4167559852e+000,3.7952295854e+000,2.9827502339e+000,3.4409455780e+000,3.5858427905e+000,4.3531557379e+000,3.1377493076e+000,4.3522847972e+000,2.0227382463e+000,4.0729788668e+000,2.5385769923e+000,3.5917041950e+000,3.7314365142e+000,3.9142005083e+000,
3.0000000000e+000,3.2590622587e+000,3.7280134118e+000,2.9148084913e+000,3.4670573701e+000,3.5138018773e+000,4.3781546694e+000,3.1720836945e+000,4.4360296086e+000,1.8937039505e+000,4.1534560360e+000,2.5356623039e+000,3.6572534135e+000,3.6409344239e+000,3.9563755418e+000,
3.0937500000e+000,3.3010046248e+000,3.6619331886e+000,2.8965455560e+000,3.4160694547e+000,3.2492356129e+000,4.3133411240e+000,3.1649022501e+000,4.3860784891e+000,1.9089823738e+000,4.1319155243e+000,2.4953835699e+000,3.7422778545e+000,3.6114302359e+000,3.9297459023e+000,
3.1875000000e+000,3.2790271035e+000,3.6415203859e+000,2.8737241866e+000,3.3115943881e+000,3.0439046473e+000,4.2453463559e+000,3.1662852519e+000,4.3664871603e+000,1.9468976107e+000,4.0843303738e+000,2.4063451629e+000,3.6353688124e+000,3.8001100249e+000,3.8313417611e+000,
3.2812500000e+000,3.3127966438e+000,3.6122946461e+000,2.9139323899e+000,3.3638111804e+000,3.1095882931e+000,4.2630222024e+000,3.0405732665e+000,4.3590427009e+000,2.0462151184e+000,4.0914375340e+000,2.3555036996e+000,3.6917762656e+000,3.7337642169e+000,3.7867447268e+000,
3.3750000000e+000,3.3277276007e+000,3.6205827104e+000,2.9541447385e+000,3.4161858016e+000,3.2679802119e+000,4.2527287205e+000,2.9571450390e+000,4.3412183020e+000,2.0744248754e+000,4.1081476642e+000,2.3277286773e+000,3.7774916968e+000,3.6973068609e+000,3.8876314716e+000,
3.4687500000e+000,3.3508150808e+000,3.7001616283e+000,2.9174754701e+000,3.4545303043e+000,3.2789864287e+000,4.2732642746e+000,2.8145427559e+000,4.3384511907e+000,2.1972100652e+000,4.1557756513e+000,2.3549957542e+000,3.7815054708e+000,3.6657880983e+000,3.9109119118e+000,
3.5625000000e+000,3.4033287697e+000,3.6392713126e+000,2.9718672267e+000,3.4206863083e+000,3.3017067928e+000,4.1462908127e+000,2.8130944282e+000,4.2341071788e+000,2.2699173612e+000,4.1453355388e+000,2.4279697171e+000,3.8894312005e+000,3.6753171773e+000,4.0466037712e+000,
3.6562500000e+000,3.3988581559e+000,3.6083825435e+000,3.0193027593e+000,3.4423619654e+000,3.3126083968e+000,4.1451262571e+000,3.0221915539e+000,4.2025334038e+000,2.3722675490e+000,4.1079226734e+000,2.3706837206e+000,3.9201543959e+000,3.5466292330e+000,4.1008462158e+000,
3.7500000000e+000,3.4018667397e+000,3.6438331234e+000,3.0096647820e+000,3.4442380078e+000,3.2611975467e+000,4.1443464402e+000,2.9880057466e+000,4.1582554989e+000,2.2171027736e+000,4.0421717185e+000,2.4275213200e+000,3.8510550936e+000,3.5818521243e+000,4.0755295442e+000,
3.8437500000e+000,3.5511426829e+000,3.7533874038e+000,3.1502269265e+000,3.5218955433e+000,3.3711466323e+000,4.1928605217e+000,2.9632303544e+000,4.1776079537e+000,2.4132795999e+000,4.0680527725e+000,2.5858800897e+000,3.9028354048e+000,3.5855021661e+000,4.0715981791e+000,
3.9375000000e+000,3.5414647360e+000,3.6375360990e+000,3.0891880770e+000,3.3586396664e+000,3.3371746567e+000,3.9953864562e+000,2.8870700997e+000,3.9473367413e+000,2.4612672123e+000,3.9061233601e+000,2.5838506496e+000,3.9602206527e+000,3.5554791748e+000,4.1182116402e+000,
4.0312500000e+000,3.4965684830e+000,3.6253002529e+000,3.0576958865e+000,3.2766653199e+000,3.3652824053e+000,3.9167829408e+000,2.8821250122e+000,3.8641658779e+000,2.5442137152e+000,3.8298402295e+000,2.6444983418e+000,3.9361487120e+000,3.5444607670e+000,4.1270082720e+000,
4.1250000000e+000,3.5421353018e+000,3.7300100897e+000,3.0523766301e+000,3.5978600552e+000,3.6349683386e+000,4.3401102391e+000,3.0376826120e+000,4.1323275919e+000,2.6139829471e+000,4.1138795553e+000,2.6841260804e+000,4.0970393345e+000,3.5006733802e+000,4.1925501856e+000,
4.2187500000e+000,3.6040921869e+000,3.8186490843e+000,3.0506794172e+000,3.7520202652e+000,3.7001808937e+000,4.5145423587e+000,3.1207287118e+000,4.2407139644e+000,2.7489045957e+000,4.2816544913e+000,2.7105306150e+000,4.1562656909e+000,3.1675573394e+000,4.1806313857e+000,
4.3125000000e+000,3.5585821207e+000,3.8285878081e+000,3.0188869210e+000,3.7357714192e+000,3.6293537717e+000,4.4991044080e+000,3.2853773849e+000,4.2472371870e+000,2.7741828534e+000,4.2909798664e+000,2.6832899555e+000,4.1875544366e+000,3.0338089171e+000,4.1001643505e+000,
4.4062500000e+000,3.5158812551e+000,3.8431354870e+000,2.9579374447e+000,3.7760711683e+000,3.5996903222e+000,4.5381078410e+000,3.3265118275e+000,4.3045986065e+000,2.7187910533e+000,4.3188011431e+000,2.7024924668e+000,4.1733272321e+000,3.2102522948e+000,4.1824563731e+000,
4.5000000000e+000,3.4452462073e+000,3.8600324156e+000,2.9029259040e+000,3.7871383040e+000,3.5831404854e+000,4.6052888606e+000,3.3124304469e+000,4.2954261201e+000,2.6939240382e+000,4.3208215805e+000,2.7703216759e+000,4.1879357510e+000,3.2694555401e+000,4.2452744188e+000,
4.5937500000e+000,3.3828543632e+000,3.9075719355e+000,2.9029313215e+000,3.7608022070e+000,3.5162355336e+000,4.5907671824e+000,3.2958485238e+000,4.2937445760e+000,2.6388511269e+000,4.2881858095e+000,2.7447220239e+000,4.1014020469e+000,3.2307105032e+000,4.1599494191e+000,
4.6875000000e+000,3.2652709554e+000,3.8493048671e+000,2.7664591257e+000,3.7597958433e+000,3.5152723868e+000,4.5450650810e+000,3.2167970429e+000,4.2586159806e+000,2.7100331034e+000,4.2711154577e+000,2.7334436397e+000,4.0611041021e+000,3.1268607245e+000,4.0855581804e+000,
4.7812500000e+000,3.2427665083e+000,3.8201480979e+000,2.6515613682e+000,3.8076229265e+000,3.5281986771e+000,4.5674259886e+000,3.2402890323e+000,4.2601091767e+000,2.7211894790e+000,4.3081950943e+000,2.7239584123e+000,4.1008083078e+000,3.1625248483e+000,4.1551305366e+000,
4.8750000000e+000,3.1829448201e+000,3.8362947971e+000,2.6708290801e+000,3.7900230004e+000,3.4174255069e+000,4.5449202819e+000,3.2804314227e+000,4.2696429636e+000,2.6621234232e+000,4.3518571770e+000,2.5832770118e+000,4.1036712402e+000,3.1930564490e+000,4.1842973853e+000,
4.9687500000e+000,3.1977070807e+000,3.9091366212e+000,2.7027499487e+000,3.9157220365e+000,3.4378605608e+000,4.6301788549e+000,3.2759677364e+000,4.3276288710e+000,2.6528440101e+000,4.4290658385e+000,2.6668399713e+000,4.1442834232e+000,3.2541822280e+000,4.1697130707e+000,
5.0625000000e+000,3.1822363074e+000,4.0055730054e+000,2.7109707940e+000,3.9962439845e+000,3.4331501337e+000,4.7174255595e+000,3.1482016359e+000,4.3840915163e+000,2.6266263499e+000,4.4544329522e+000,2.7293470127e+000,4.1343575642e+000,3.3088755699e+000,4.1215143343e+000,
5.1562500000e+000,3.1298318980e+000,3.9066712295e+000,2.7323016647e+000,3.7332822667e+000,3.1699053142e+000,4.3484314631e+000,3.0485557091e+000,4.0764107532e+000,2.6257725367e+000,4.1361131811e+000,2.7083014015e+000,3.8559132166e+000,3.3401654076e+000,3.9626304301e+000,
5.2500000000e+000,3.0750884728e+000,3.8896118325e+000,2.8041782826e+000,3.7053685991e+000,3.2003610912e+000,4.2824580900e+000,2.9842048469e+000,4.0389398199e+000,2.5941879190e+000,4.1239662186e+000,2.7492678368e+000,3.8019034777e+000,3.4402498181e+000,3.9724283460e+000,
5.3437500000e+000,3.1250209050e+000,3.9137190295e+000,2.9292719789e+000,3.7121019962e+000,3.3086170124e+000,4.3041235321e+000,2.8396586542e+000,4.0555583633e+000,2.7379093028e+000,4.1544003793e+000,2.7345419988e+000,3.8012263423e+000,3.4854601425e+000,4.0354490206e+000,
5.4375000000e+000,3.1059131152e+000,3.7911637796e+000,2.9718802808e+000,3.5195397523e+000,3.2994480267e+000,4.0637793246e+000,2.7503738698e+000,3.8663636238e+000,2.7658683334e+000,3.9569602674e+000,2.7274248202e+000,3.7251736490e+000,3.3229374501e+000,3.7989682188e+000,
5.5312500000e+000,3.1489772991e+000,3.8095057540e+000,3.0005363758e+000,3.4791973400e+000,3.3445020264e+000,3.9935653188e+000,2.7120999149e+000,3.8420925891e+000,2.7730425298e+000,3.9484673381e+000,2.7201853523e+000,3.6391559040e+000,3.3559742795e+000,3.7180022840e+000,
5.6250000000e+000,3.2545052808e+000,3.8342648567e+000,3.0527332987e+000,3.4768503936e+000,3.4289238705e+000,3.9844493853e+000,2.8251556331e+000,3.8768293903e+000,2.7267308686e+000,3.9591399463e+000,2.7297350234e+000,3.6782975124e+000,3.3267434621e+000,3.6676980976e+000,
5.7187500000e+000,3.3218468162e+000,3.8154860301e+000,3.0938140216e+000,3.4434343606e+000,3.4321631539e+000,3.9982768838e+000,2.7273200863e+000,3.9153964820e+000,2.6640676235e+000,3.9240290710e+000,2.7007840960e+000,3.6071368824e+000,3.3017433486e+000,3.4917150439e+000,
5.8125000000e+000,3.3941860875e+000,3.8872463496e+000,3.1336402569e+000,3.5970092196e+000,3.5015635920e+000,3.9972607172e+000,2.8562990742e+000,3.9514389919e+000,2.7520467664e+000,3.8806162638e+000,2.6914028390e+000,3.5208011660e+000,3.3289770852e+000,3.4582850987e+000,
5.9062500000e+000,3.4001197706e+000,3.9798613807e+000,3.1013994389e+000,3.7707710008e+000,3.5332419497e+000,4.0331395831e+000,2.8116494413e+000,3.9652206822e+000,2.6297357161e+000,3.9009980719e+000,2.6143491721e+000,3.5607026326e+000,3.2963632105e+000,3.5720281164e+000,
6.0000000000e+000,3.3401802637e+000,3.8111366703e+000,3.0771759346e+000,3.5651665518e+000,3.5547724143e+000,3.6670382323e+000,2.8525361412e+000,3.7368158861e+000,2.6424609972e+000,3.6212619608e+000,2.4623014016e+000,3.4615268006e+000,3.2949932732e+000,3.6015873090e+000,
6.0937500000e+000,3.4643363427e+000,3.8096327511e+000,3.1499839098e+000,3.8878126783e+000,3.5343982354e+000,3.6716470780e+000,2.8837667318e+000,3.7521447927e+000,2.7389888857e+000,3.6833153899e+000,2.3192311548e+000,3.5991418282e+000,3.2928167317e+000,3.9661916919e+000,
6.1875000000e+000,3.7111373337e+000,3.9765220740e+000,3.3380257147e+000,3.8822591691e+000,3.8006211856e+000,3.7499105329e+000,3.1725899944e+000,3.7892702741e+000,2.9077962116e+000,3.7529495502e+000,2.3626563646e+000,3.7851062345e+000,3.3244171959e+000,4.0768264430e+000,
6.2812500000e+000,3.8258781638e+000,4.1181241256e+000,3.4022949276e+000,4.4023805614e+000,3.8375934506e+000,3.9604058395e+000,3.3175243962e+000,3.9354830328e+000,2.8939277026e+000,3.9350468576e+000,2.2846452154e+000,4.1124245894e+000,3.2877351328e+000,4.2155388421e+000,
6.3750000000e+000,3.9083918226e+000,4.1078228329e+000,3.5486872912e+000,5.6827825385e+000,3.9041408365e+000,4.0187110151e+000,3.3645512488e+000,3.9033414953e+000,2.8094425279e+000,3.9806868321e+000,2.3593804278e+000,4.0860431967e+000,3.4234157245e+000,4.2228600922e+000,
6.4687500000e+000,4.1810357551e+000,4.3650864525e+000,3.7771333335e+000,5.9316658734e+000,3.9542628340e+000,4.4008014652e+000,3.4992735949e+000,4.2359494748e+000,2.8281443034e+000,4.2933467829e+000,2.3443199903e+000,4.2690211531e+000,3.5315427679e+000,4.2531486762e+000,
6.5625000000e+000,4.2029985161e+000,4.3712889446e+000,3.8609544477e+000,6.1708994226e+000,3.9274987515e+000,4.4015153940e+000,3.4954337031e+000,4.2388632933e+000,2.9098352312e+000,4.2701020373e+000,2.2786494148e+000,4.3099471552e+000,3.5677934692e+000,4.2802725516e+000,
6.6562500000e+000,4.1461150730e+000,4.3441496275e+000,3.8387357459e+000,6.2478892655e+000,3.9293016261e+000,4.4098879152e+000,3.5077896134e+000,4.2516467607e+000,3.0134783500e+000,4.3244173429e+000,2.3254206260e+000,4.3457780426e+000,3.6157799236e+000,4.3079654849e+000,
6.7500000000e+000,4.1531238413e+000,4.3391847538e+000,3.8660109610e+000,6.3209375013e+000,3.9159314544e+000,4.4097000474e+000,3.5028539919e+000,4.2541233965e+000,3.0072676495e+000,4.3716321928e+000,2.3219021630e+000,4.4372152042e+000,3.6758814640e+000,4.3309056891e+000,
6.8437500000e+000,4.1334474490e+000,4.3675932069e+000,3.8674212665e+000,6.3435673560e+000,3.8483557732e+000,4.4183780785e+000,3.4409075833e+000,4.2434530331e+000,3.0414049807e+000,4.4052349179e+000,2.3629707046e+000,4.4474171448e+000,3.6745640594e+000,4.3426731050e+000,
6.9375000000e+000,4.1161008003e+000,4.2806173977e+000,3.8583194980e+000,6.7901544496e+000,3.8218100416e+000,4.4540352508e+000,3.5662882189e+000,4.2458589200e+000,3.0959752702e+000,4.4014250485e+000,2.4303610095e+000,4.4292693762e+000,3.6542861938e+000,4.3280500716e+000,
7.0312500000e+000,4.1270339791e+000,4.3139242946e+000,3.8729488237e+000,7.7449245243e+000,3.8468535077e+000,4.5359671400e+000,3.6399501559e+000,4.2248938412e+000,3.0836939889e+000,4.4911973327e+000,2.4821537008e+000,4.3867556646e+000,3.5959983791e+000,4.1789854178e+000,
7.1250000000e+000,4.0321000195e+000,4.3341063867e+000,3.8491012029e+000,7.8772266130e+000,3.6671742366e+000,4.5644778755e+000,3.5340198791e+000,4.2497181538e+000,3.0344358418e+000,4.5176331338e+000,2.4360328083e+000,4.4361837396e+000,3.5672180365e+000,4.1346150463e+000,
7.2187500000e+000,3.9764057920e+000,4.1693579464e+000,3.8451062292e+000,8.0887972672e+000,3.5927350749e+000,4.5232572690e+000,3.5253321029e+000,4.1430507542e+000,3.0451809381e+000,4.3912674366e+000,2.4305350227e+000,4.2824986750e+000,3.6468234877e+000,3.9923955249e+000,
7.3125000000e+000,9.4167724293e+000,9.0017356976e+000,7.3145993766e+000,9.2505851793e+000,6.8003664940e+000,9.6493375956e+000,7.5235771292e+000,8.4266054874e+000,9.4392505299e+000,9.6095336849e+000,6.0315456492e+000,9.3677704162e+000,8.5934642332e+000,8.9177119985e+000,
7.4062500000e+000,1.0962581404e+001,1.0589291708e+001,8.5289642941e+000,1.0666874079e+001,9.0451221070e+000,1.0692763231e+001,8.7534245928e+000,9.8313117421e+000,1.0975408043e+001,1.0655427210e+001,8.4383638970e+000,1.0861591563e+001,1.0773186229e+001,1.0370084417e+001,
7.5000000000e+000,1.1019725761e+001,1.0665687728e+001,8.5640768241e+000,1.2476268119e+001,9.1229058098e+000,1.0852043719e+001,8.7924854298e+000,9.9116096780e+000,1.1029024493e+001,1.0810703488e+001,8.5362421199e+000,1.0915757086e+001,1.0851679076e+001,1.0418096235e+001,
7.5937500000e+000,1.1023052780e+001,1.0666036695e+001,8.5677259015e+000,1.2631429111e+001,9.1248699987e+000,1.0915126957e+001,8.7955699831e+000,9.9128039781e+000,1.1031936699e+001,1.0866346390e+001,8.5377410266e+000,1.0917023395e+001,1.0853732373e+001,1.0420163533e+001,
7.6875000000e+000,1.1023051594e+001,1.0666039190e+001,8.5674432401e+000,1.2634201349e+001,9.1248688639e+000,1.0916365776e+001,8.7955925984e+000,9.9127318728e+000,1.1031959945e+001,1.0867336324e+001,8.5376768071e+000,1.0916902200e+001,1.0853769507e+001,1.0420147650e+001,
7.7812500000e+000,1.1023070878e+001,1.0666039018e+001,8.5673137463e+000,1.2634219172e+001,9.1249345920e+000,1.0916379091e+001,8.7956351249e+000,9.9127922329e+000,1.1031985737e+001,1.0867362632e+001,8.5377488977e+000,1.0916879309e+001,1.0853822711e+001,1.0420160968e+001,
7.8750000000e+000,1.1023053081e+001,1.0665918207e+001,8.5670994728e+000,1.2633960503e+001,9.1246665622e+000,1.0916266162e+001,8.7956601620e+000,9.9124462684e+000,1.1031943707e+001,1.0867242117e+001,8.5377576528e+000,1.0916864086e+001,1.0853839800e+001,1.0420055761e+001,
7.9687500000e+000,1.1023054494e+001,1.0665881311e+001,8.5670063328e+000,1.2630705141e+001,9.1248417252e+000,1.0916139530e+001,8.7947483250e+000,9.9123750719e+000,1.1031944346e+001,1.0867125386e+001,8.5377738747e+000,1.0916835656e+001,1.0853817470e+001,1.0419982213e+001,
8.0625000000e+000,1.1023089931e+001,1.0665851937e+001,8.5667651611e+000,1.2628076036e+001,9.1250292372e+000,1.0916048756e+001,8.7946974813e+000,9.9123032631e+000,1.1031915271e+001,1.0867004091e+001,8.5378993208e+000,1.0916738053e+001,1.0853899702e+001,1.0419839756e+001,
8.1562500000e+000,1.1023076736e+001,1.0665778183e+001,8.5660024130e+000,1.2626691248e+001,9.1250779073e+000,1.0916035999e+001,8.7941527026e+000,9.9123341916e+000,1.1031898108e+001,1.0866973379e+001,8.5380780925e+000,1.0916706902e+001,1.0853918843e+001,1.0419859608e+001,
8.2500000000e+000,1.1023044434e+001,1.0665761656e+001,8.5659661376e+000,1.2625159304e+001,9.1247826702e+000,1.0915956637e+001,8.7942153147e+000,9.9123750261e+000,1.1031892897e+001,1.0866961885e+001,8.5382406701e+000,1.0916684141e+001,1.0853951106e+001,1.0420038229e+001,
8.3437500000e+000,1.0044688941e+001,9.6406024344e+000,7.8102389870e+000,1.2526994658e+001,8.5530618605e+000,1.0071159704e+001,7.9686812458e+000,9.1183419329e+000,1.0023388687e+001,9.9758750176e+000,7.8487099352e+000,9.9682244374e+000,9.9793359540e+000,9.4374287024e+000,
8.4375000000e+000,7.3100247915e+000,6.8816398435e+000,5.0688929626e+000,1.2113527725e+001,5.1689366257e+000,9.0391189524e+000,5.2452873498e+000,6.3958476937e+000,7.2312035878e+000,8.8304900717e+000,4.6905426262e+000,7.0640609935e+000,6.8473349665e+000,6.5301041616e+000,
8.5312500000e+000,4.1463468060e+000,3.6178820789e+000,2.9277596256e+000,9.0825790499e+000,3.5084555646e+000,6.6304754970e+000,3.0352670834e+000,3.4663352833e+000,3.7807464341e+000,6.4914560239e+000,2.9520410865e+000,3.5530207213e+000,4.3729851173e+000,3.7003441481e+000,
8.6250000000e+000,3.2085968303e+000,3.2097931269e+000,2.6287985298e+000,6.2785833883e+000,3.2571572014e+000,4.1574857439e+000,2.7638575688e+000,3.2640373517e+000,2.5664369030e+000,4.0973661886e+000,2.6802607707e+000,3.2419438725e+000,3.5530410154e+000,3.5168261281e+000,
8.7187500000e+000,3.2365801228e+000,3.3353191526e+000,2.6759546779e+000,2.5145925490e+000,3.1922435554e+000,3.4133990131e+000,2.7961375938e+000,3.2632054820e+000,2.4053328107e+000,3.3566194000e+000,2.6481946284e+000,3.3386449628e+000,3.4449236116e+000,3.5884743111e+000,
8.8125000000e+000,3.1906007390e+000,3.3282001054e+000,2.7115032668e+000,2.5051977265e-001,3.1881969793e+000,3.3825809920e+000,2.8659610747e+000,3.2427589047e+000,2.5300654227e+000,3.3298740889e+000,2.7966240900e+000,3.3204674932e+000,3.3600514322e+000,3.5576713184e+000,
8.9062500000e+000,3.1851196941e+000,3.3044369707e+000,2.7032802609e+000,1.3597930508e-002,3.1739659187e+000,3.3245996205e+000,2.8491832834e+000,3.2224478140e+000,2.4210386825e+000,3.2230253915e+000,2.8276448656e+000,3.2702637402e+000,3.2550249265e+000,3.5801675671e+000,
9.0000000000e+000,3.2100569282e+000,3.3038927690e+000,2.7180104552e+000,1.8474937318e-004,3.1694739047e+000,3.3933473725e+000,2.9597681734e+000,3.2621955609e+000,2.3938958627e+000,3.2560562801e+000,2.8007152809e+000,3.3512140300e+000,3.2739576857e+000,3.5902446656e+000,
9.0937500000e+000,3.0741202239e+000,3.3002959214e+000,2.7457765983e+000,1.0574602727e-005,3.0285814624e+000,3.4809276608e+000,2.9847765767e+000,3.3111867868e+000,2.3546658964e+000,3.3358302341e+000,2.7418475629e+000,3.4045751802e+000,3.0207005770e+000,3.5716434077e+000,
9.1875000000e+000,2.9865974409e+000,3.1614338827e+000,2.7214778289e+000,2.4516680411e-007,3.0868903964e+000,3.2792592731e+000,3.0821521031e+000,3.2331405459e+000,2.4281502364e+000,3.1553134516e+000,2.6806833390e+000,3.3092787339e+000,3.0344547243e+000,3.4799660411e+000,
9.2812500000e+000,7.0962640092e+000,6.3173223861e+000,7.5339289292e+000,1.1113361254e+001,7.3851470098e+000,9.8177000852e+000,7.0407869322e+000,6.8960776514e+000,6.6910991598e+000,9.7501547203e+000,7.1455257888e+000,7.2782689006e+000,7.3401909434e+000,6.4096918323e+000,
9.3750000000e+000,7.6135781485e+000,7.4027803304e+000,8.1175045113e+000,1.2500738244e+001,7.9316350316e+000,1.1620923796e+001,7.5363254711e+000,8.1030820482e+000,7.1664966316e+000,1.1588389873e+001,7.7188368975e+000,8.8403952939e+000,8.0033625746e+000,7.2125900059e+000,
9.4687500000e+000,7.6304658274e+000,7.4366300099e+000,8.1328667760e+000,1.2525195585e+001,7.9471210713e+000,1.1669637113e+001,7.5452599949e+000,8.1375290914e+000,7.1781719367e+000,1.1638634143e+001,7.7287344325e+000,8.8838841732e+000,8.0174622282e+000,7.2489997210e+000,
9.5625000000e+000,7.6310768069e+000,7.4377528564e+000,8.1340434471e+000,1.2528685313e+001,7.9480960433e+000,1.1671813159e+001,7.5458959339e+000,8.1396065019e+000,7.1799650947e+000,1.1640512722e+001,7.7288217135e+000,8.8851381238e+000,8.0177056331e+000,7.2494839247e+000,
9.6562500000e+000,7.6308608402e+000,7.4377770211e+000,8.1341917571e+000,1.2528777461e+001,7.9470657017e+000,1.1671845314e+001,7.5454766615e+000,8.1388401604e+000,7.1800952299e+000,1.1640552736e+001,7.7296306734e+000,8.8850820831e+000,8.0185591842e+000,7.2493157130e+000,
9.7500000000e+000,7.6310541479e+000,7.4390513550e+000,8.1338651150e+000,1.2528779480e+001,7.9481075497e+000,1.1671839869e+001,7.5446779344e+000,8.1395905592e+000,7.1796702405e+000,1.1640527445e+001,7.7299338654e+000,8.8849823190e+000,8.0188593855e+000,7.2465350251e+000,
9.8437500000e+000,7.6306686511e+000,7.4388832403e+000,8.1336223073e+000,1.2528779587e+001,7.9475794274e+000,1.1671845506e+001,7.5445622079e+000,8.1398944551e+000,7.1781432540e+000,1.1640544281e+001,7.7291156796e+000,8.8848287887e+000,8.0187174663e+000,7.2458475186e+000,
9.9375000000e+000,7.6313496016e+000,7.4406645481e+000,8.1339372936e+000,1.2528779588e+001,7.9475555479e+000,1.1671850138e+001,7.5447952329e+000,8.1405915161e+000,7.1794856622e+000,1.1640564636e+001,7.7293091350e+000,8.8848360709e+000,8.0188364561e+000,7.2486809196e+000,
1.0031250000e+001,7.6339240185e+000,7.4449632607e+000,8.1348880099e+000,1.2528779588e+001,7.9483157767e+000,1.1671890953e+001,7.5441810836e+000,8.1419322462e+000,7.1818851076e+000,1.1640599496e+001,7.7307890429e+000,8.8850029756e+000,8.0204169197e+000,7.2539582165e+000,
1.0125000000e+001,7.6378642487e+000,7.4499146777e+000,8.1360048476e+000,1.2528779588e+001,7.9490873380e+000,1.1671929173e+001,7.5449209090e+000,8.1453245788e+000,7.1811659556e+000,1.1640645167e+001,7.7305513358e+000,8.8849361954e+000,8.0204387742e+000,7.2529321409e+000,
1.0218750000e+001,7.6387150870e+000,7.4516275568e+000,8.1364251895e+000,1.2528778307e+001,7.9500480925e+000,1.1671952874e+001,7.5448835935e+000,8.1452073232e+000,7.1811892394e+000,1.1640652160e+001,7.7305833059e+000,8.8851583903e+000,8.0201088601e+000,7.2524780384e+000,
1.0312500000e+001,5.3735160721e+000,5.9613924119e+000,5.9508963181e+000,1.1054721753e+001,5.7889893621e+000,1.0668372820e+001,5.0216385546e+000,6.7147115987e+000,4.5204547976e+000,1.0618912599e+001,5.4944600040e+000,7.5230289545e+000,5.9945132442e+000,5.7678985624e+000,
1.0406250000e+001,4.2389628041e+000,4.6148127044e+000,3.9582120402e+000,8.6633741682e+000,4.0440771159e+000,7.4602542248e+000,3.4726570026e+000,4.9271610792e+000,3.2905315997e+000,7.2273976447e+000,3.0426045526e+000,4.8051470608e+000,3.6706507362e+000,4.1891461134e+000,
1.0500000000e+001,4.1482278836e+000,4.1497257698e+000,3.6234286338e+000,5.3684221566e+000,3.7397316415e+000,4.9771054880e+000,3.3239189058e+000,4.0957877042e+000,2.7718053657e+000,4.7960605147e+000,2.7642628070e+000,3.5420839597e+000,3.3509109351e+000,3.7333625225e+000,
1.0593750000e+001,4.1775267497e+000,4.2237823175e+000,3.6365702906e+000,2.1343315318e+000,3.8169349661e+000,4.1363646512e+000,3.3790705621e+000,4.1158453303e+000,2.8509705829e+000,3.9330649132e+000,2.7990418033e+000,3.5860345669e+000,3.4549678725e+000,3.7368824291e+000,
1.0687500000e+001,4.1911445579e+000,4.2443900777e+000,3.6675949336e+000,4.0393827590e-001,3.8164537501e+000,4.1468702026e+000,3.4537806186e+000,4.1009354041e+000,2.8805367794e+000,3.9063649036e+000,2.6420560299e+000,3.5564965847e+000,3.4826696396e+000,3.6947213517e+000,
1.0781250000e+001,4.1960222546e+000,4.2727818909e+000,3.7163329749e+000,2.7316745185e-001,3.8385961513e+000,4.1280963122e+000,3.4960671646e+000,4.0820110212e+000,2.9354056831e+000,3.8858503020e+000,2.5879231188e+000,3.5245739346e+000,3.5445139254e+000,3.7659741123e+000,
1.0875000000e+001,4.2122444285e+000,4.2933578366e+000,3.7391165183e+000,6.7447857796e-001,3.8355431123e+000,4.1544172029e+000,3.4707571120e+000,4.1142678064e+000,2.9269441060e+000,3.9027018745e+000,2.5920584829e+000,3.5899289413e+000,3.5836979325e+000,3.7087048591e+000,
1.0968750000e+001,4.1667076506e+000,4.2411284892e+000,3.6884291696e+000,1.2791507874e+000,3.7806177723e+000,4.1207929645e+000,3.4404342253e+000,4.0619895224e+000,2.7913270602e+000,3.8897662519e+000,2.4473831408e+000,3.6440875321e+000,3.5895381185e+000,3.6404692873e+000,
1.1062500000e+001,4.1140819612e+000,4.1730257629e+000,3.6720324365e+000,1.4802120196e+000,3.7347990935e+000,4.0124796263e+000,3.4432839137e+000,3.9022445042e+000,2.8893284560e+000,3.7602569931e+000,2.2263384176e+000,3.5714248527e+000,3.5057020828e+000,3.5234696029e+000,
1.1156250000e+001,4.0158909378e+000,4.0829547302e+000,3.5814470605e+000,1.8926801618e+000,3.6855247143e+000,3.9045342281e+000,3.4042042168e+000,3.7095092038e+000,2.9322560675e+000,3.6757976892e+000,2.2404192357e+000,3.6019129035e+000,3.4830573736e+000,3.6587133891e+000,
1.1250000000e+001,4.0060149520e+000,4.2140973538e+000,3.5904200809e+000,2.5294051562e+000,3.6402663910e+000,4.0194875739e+000,3.4481614844e+000,3.9522047665e+000,3.0489855930e+000,3.8440554678e+000,2.3571178699e+000,3.6386729892e+000,3.4989860032e+000,3.7240069017e+000,
1.1343750000e+001,3.8664820821e+000,4.2712737630e+000,3.5429341932e+000,2.9186216267e+000,3.5602756989e+000,4.1932792764e+000,3.4110259360e+000,4.0754978235e+000,3.1545517420e+000,3.9967959507e+000,2.4824474349e+000,3.6897161011e+000,3.5763151457e+000,3.7865536916e+000,
1.1437500000e+001,3.6896837708e+000,4.2957657706e+000,3.3794517925e+000,3.1145441241e+000,3.5959126981e+000,4.2269641814e+000,3.3099865730e+000,4.0924626471e+000,3.0634172014e+000,4.0810274151e+000,2.5032457698e+000,3.7737362590e+000,3.5132933477e+000,3.8432474199e+000,
1.1531250000e+001,3.6118328349e+000,4.2409890776e+000,3.3084146157e+000,3.2415928128e+000,3.6053137036e+000,4.1664976751e+000,3.2560678889e+000,4.0533783967e+000,3.0940285324e+000,4.0184511032e+000,2.4229877896e+000,3.8220289726e+000,3.4260808381e+000,3.7954820111e+000,
1.1625000000e+001,3.5237250306e+000,4.1670728853e+000,3.2514944561e+000,3.3285539670e+000,3.6140304724e+000,4.1117748742e+000,3.1725996520e+000,4.0300231541e+000,3.0551983039e+000,3.9506722270e+000,2.4513907489e+000,3.8104328227e+000,3.2732790195e+000,3.8979545104e+000,
1.1718750000e+001,3.5351580739e+000,4.1138508133e+000,3.2327492490e+000,3.4202397463e+000,3.5869999964e+000,4.1545736558e+000,3.1754296396e+000,4.0772466263e+000,3.0256721012e+000,4.0241994087e+000,2.4335713377e+000,3.9463478047e+000,3.2761248969e+000,4.0447487366e+000,
1.1812500000e+001,3.5625272927e+000,4.1518593897e+000,3.1675200050e+000,3.4888217419e+000,3.5905385040e+000,4.2006978121e+000,3.1374443134e+000,4.1036803534e+000,2.9632106458e+000,4.0652640530e+000,2.3437304410e+000,3.9570892170e+000,3.2926177275e+000,4.0197330049e+000,
1.1906250000e+001,3.5259673127e+000,4.1691996955e+000,3.1646045489e+000,3.5960263468e+000,3.6337346772e+000,4.2585630093e+000,3.1391856030e+000,4.1425517783e+000,3.1343939550e+000,4.0986551485e+000,2.3660088338e+000,4.0031279821e+000,3.2414153229e+000,4.0560498277e+000,
1.2000000000e+001,3.6425340593e+000,4.2356892987e+000,3.3667099248e+000,3.6945631220e+000,3.7178856174e+000,4.3459791264e+000,3.1812671796e+000,4.2555179784e+000,3.1183475929e+000,4.1897996933e+000,2.4012065943e+000,4.0704563090e+000,3.2628851807e+000,4.0919036760e+000,
1.2093750000e+001,3.7198912943e+000,4.2893377263e+000,3.4526471860e+000,3.7406918189e+000,3.7245240048e+000,4.3989399830e+000,3.2566874217e+000,4.3291155800e+000,3.0164931334e+000,4.1985140618e+000,2.4596304387e+000,4.0702978203e+000,3.3027489718e+000,4.0804684601e+000,
1.2187500000e+001,3.6761030570e+000,4.3013930577e+000,3.4467344754e+000,3.6880548561e+000,3.6876109430e+000,4.3907922081e+000,3.1381006211e+000,4.3043156270e+000,2.9932194724e+000,4.2138966251e+000,2.4103812548e+000,4.0949492075e+000,3.3139940266e+000,4.0809957506e+000,
1.2281250000e+001,3.6727151985e+000,4.2287955391e+000,3.5007452538e+000,3.6357719448e+000,3.6383001652e+000,4.2832572222e+000,3.1681813047e+000,4.1308411489e+000,2.9053511184e+000,4.0966331554e+000,2.1591576036e+000,4.1564811453e+000,3.3665697660e+000,4.1592760671e+000,
1.2375000000e+001,3.6927475478e+000,4.1789730555e+000,3.4948144737e+000,3.5677901459e+000,3.5640054188e+000,4.1702218406e+000,3.2073660378e+000,4.0932422629e+000,2.8254841898e+000,4.0098585881e+000,2.1336124395e+000,4.1482881341e+000,3.3783123937e+000,4.1339848683e+000,
1.2468750000e+001,3.6356299957e+000,4.1862696598e+000,3.5076895477e+000,3.5456381263e+000,3.4521949865e+000,4.1662003144e+000,3.2209838562e+000,3.9926935207e+000,2.9389989483e+000,3.9284639278e+000,2.2238803981e+000,4.0682818224e+000,3.4229545440e+000,4.1300633012e+000,
1.2562500000e+001,3.6361301068e+000,4.2622855148e+000,3.5402035902e+000,3.5110027131e+000,3.4261617227e+000,4.1241648651e+000,3.2313813034e+000,4.0405243269e+000,2.8492818339e+000,3.9313991027e+000,2.2904833700e+000,3.9998785980e+000,3.4596524884e+000,4.1415600609e+000,
1.2656250000e+001,3.7081379614e+000,4.3454214024e+000,3.6103430645e+000,3.5531879315e+000,3.4315453646e+000,4.1976080209e+000,3.2910460106e+000,4.1712197848e+000,2.8703886796e+000,3.9906796659e+000,2.2596737534e+000,4.0750602074e+000,3.4199605942e+000,4.1466465201e+000,
1.2750000000e+001,3.6810799369e+000,4.3656305259e+000,3.6259827217e+000,3.5795291512e+000,3.5497763780e+000,4.2104858847e+000,3.3036152556e+000,4.1948750641e+000,2.9163301491e+000,4.0030677196e+000,2.5361070211e+000,4.0762932863e+000,3.6082689104e+000,4.0340462285e+000,
1.2843750000e+001,3.6963517848e+000,4.3449713690e+000,3.6028865871e+000,3.5747703966e+000,3.5000302835e+000,4.2302975079e+000,3.2676127083e+000,4.1849786260e+000,2.8472211657e+000,3.9939356187e+000,2.4926497109e+000,4.1455045263e+000,3.6302577239e+000,4.0551166820e+000,
1.2937500000e+001,3.6557019285e+000,4.2884587028e+000,3.5380921910e+000,3.5736180575e+000,3.4618438821e+000,4.1663545883e+000,3.2433174024e+000,4.1321216289e+000,2.7593072375e+000,4.0070013986e+000,2.4689345220e+000,4.1419130480e+000,3.6178383771e+000,4.0870340858e+000,
1.3031250000e+001,3.6816733107e+000,4.2599952368e+000,3.5462031199e+000,3.5002674404e+000,3.3901950565e+000,4.1262727863e+000,3.2547757315e+000,4.0533941700e+000,2.8251012570e+000,3.9533337587e+000,2.6206694912e+000,4.1149477664e+000,3.7226455729e+000,4.0155729841e+000,
1.3125000000e+001,3.6660782732e+000,4.1740919002e+000,3.5109227661e+000,3.5799370750e+000,3.4472731465e+000,4.1385362566e+000,3.2771911779e+000,4.0858414953e+000,2.8706807097e+000,4.0542480055e+000,2.6369724507e+000,4.0957565616e+000,3.8431894495e+000,3.9868430173e+000,
1.3218750000e+001,3.7937555206e+000,4.2852351545e+000,3.6078402740e+000,3.6422621298e+000,3.5375924761e+000,4.3000305519e+000,3.3274159706e+000,4.2139588847e+000,2.9050483998e+000,4.1525337101e+000,2.7339826278e+000,4.0940225928e+000,3.8310785395e+000,3.8729456671e+000,
1.3312500000e+001,3.9292162893e+000,4.4254044742e+000,3.7494562551e+000,3.8009646155e+000,3.6651617981e+000,4.4431553328e+000,3.3842151566e+000,4.3778421961e+000,2.8245558182e+000,4.3360213239e+000,2.7369102367e+000,4.0068053013e+000,3.8376692743e+000,3.9167891829e+000,
1.3406250000e+001,3.9440053564e+000,4.3643678663e+000,3.7305954158e+000,3.8012790424e+000,3.7208479606e+000,4.3924752315e+000,3.4382547887e+000,4.3538351253e+000,2.7346341666e+000,4.2983051014e+000,2.7301376145e+000,3.9751050075e+000,3.8198730186e+000,3.8731204937e+000,
1.3500000000e+001,3.9535896715e+000,4.2542534306e+000,3.6832736546e+000,3.7565720056e+000,3.6923670853e+000,4.3279653152e+000,3.3635275906e+000,4.3005912697e+000,2.6731342262e+000,4.2595202203e+000,2.6317964333e+000,4.0010319772e+000,3.7504403158e+000,3.8718268596e+000,
1.3593750000e+001,3.8868783458e+000,4.1808447890e+000,3.5884158651e+000,3.7137596520e+000,3.6116392790e+000,4.2856009688e+000,3.3016687971e+000,4.2131570624e+000,2.5767712897e+000,4.2299487070e+000,2.5796589851e+000,3.9827063711e+000,3.7527669281e+000,3.7809869507e+000,
1.3687500000e+001,3.9053834029e+000,4.1454632229e+000,3.5735410051e+000,3.7474488256e+000,3.6353665294e+000,4.3085823212e+000,3.3660956801e+000,4.1819550666e+000,2.5531635140e+000,4.2322276029e+000,2.4274185654e+000,3.8779754161e+000,3.6199646548e+000,3.7944205508e+000,
1.3781250000e+001,4.0666807124e+000,4.2545218732e+000,3.6600539926e+000,3.7272405127e+000,3.5485256866e+000,4.3059232605e+000,3.3543278364e+000,4.2119547277e+000,2.6534372251e+000,4.3246706827e+000,2.3652731785e+000,3.7971669328e+000,3.5474760331e+000,3.8031184308e+000,
1.3875000000e+001,4.2700260645e+000,4.3698426467e+000,3.8269193055e+000,3.7591758140e+000,3.5793850222e+000,4.2922488763e+000,3.4886625464e+000,4.2359826917e+000,2.5364027666e+000,4.3519251506e+000,2.4766353917e+000,3.7702256300e+000,3.4522684619e+000,3.7658646026e+000,
1.3968750000e+001,4.4050031774e+000,4.3853525355e+000,4.0064248417e+000,3.7681278416e+000,3.7367277286e+000,4.3352948965e+000,3.5837947950e+000,4.2647836655e+000,2.4601515393e+000,4.3377371599e+000,2.5212034533e+000,3.7352859824e+000,3.4631936596e+000,3.7469359865e+000,
1.4062500000e+001,4.4628446426e+000,4.5342284276e+000,4.1263127041e+000,3.7812017177e+000,3.7270826566e+000,4.4000179084e+000,3.5538383322e+000,4.4058294659e+000,2.4313759357e+000,4.4009737024e+000,2.4238713066e+000,3.8204045259e+000,3.3312587880e+000,3.8480164946e+000,
1.4156250000e+001,4.4681944974e+000,4.5309422675e+000,4.1720293826e+000,3.7592721926e+000,3.7858626746e+000,4.3407867214e+000,3.6083003590e+000,4.3837761412e+000,2.3978994934e+000,4.3351314355e+000,2.4945187669e+000,3.7861816665e+000,3.0808082625e+000,3.8387501384e+000,
1.4250000000e+001,4.3406658694e+000,4.2855476127e+000,4.0177834112e+000,3.6109098456e+000,3.6876344064e+000,4.0932735103e+000,3.5810964221e+000,4.2176563869e+000,2.3924152795e+000,4.1963265607e+000,2.5198766021e+000,3.7772993508e+000,3.1025909305e+000,3.8152740795e+000,
1.4343750000e+001,4.3547784879e+000,4.2527061711e+000,3.9867537920e+000,3.4441817645e+000,3.6047901268e+000,3.9770771227e+000,3.5408775402e+000,4.0865332109e+000,2.3873168333e+000,4.0167018472e+000,2.5394879077e+000,3.6774512427e+000,3.1291126325e+000,3.7342248087e+000,
1.4437500000e+001,4.3422183260e+000,4.2782111357e+000,3.9718417980e+000,3.3995863779e+000,3.5416546332e+000,3.9792635760e+000,3.4621907281e+000,4.0576969354e+000,2.4155518741e+000,4.0036583512e+000,2.5552720722e+000,3.6296188008e+000,3.1574145333e+000,3.7249812436e+000,
1.4531250000e+001,4.3704904405e+000,4.3496153554e+000,3.9781972168e+000,3.4143960296e+000,3.5495153624e+000,4.0467641206e+000,3.5033552331e+000,4.1198856846e+000,2.4672094532e+000,4.0711909975e+000,2.6089169271e+000,3.6456117561e+000,3.1698686991e+000,3.7475363186e+000,
1.4625000000e+001,4.3516644928e+000,4.2519040039e+000,3.9444869500e+000,3.3723386659e+000,3.5157134793e+000,3.9889612441e+000,3.4628397371e+000,4.0407677948e+000,2.4730338869e+000,4.0290813115e+000,2.6162764230e+000,3.6959308834e+000,3.1348784049e+000,3.7522057035e+000,
1.4718750000e+001,4.3256797158e+000,4.2433906523e+000,3.8989061480e+000,3.2752508108e+000,3.4374148282e+000,3.9510700482e+000,3.4883627850e+000,4.0454678077e+000,2.4193840988e+000,3.9676838781e+000,2.5648329715e+000,3.7518235748e+000,3.1503240934e+000,3.7016502751e+000,
1.4812500000e+001,4.1471236124e+000,4.0390440365e+000,3.8079089546e+000,3.6241906316e+000,3.6304369810e+000,3.9216735413e+000,3.4615636608e+000,4.0226704798e+000,2.2580830642e+000,3.9381854412e+000,2.5312228707e+000,3.7894000212e+000,3.1069064307e+000,3.6905147093e+000,
1.4906250000e+001,4.0420041854e+000,3.9741390846e+000,3.7375367098e+000,3.8678019750e+000,3.7977318205e+000,3.9372213461e+000,3.3794410113e+000,3.9597309317e+000,2.3215949756e+000,3.9128635257e+000,2.4413357544e+000,3.7663453244e+000,3.1264220566e+000,3.6274448863e+000,
1.5000000000e+001,3.7245346019e+000,3.9150054168e+000,3.4216773609e+000,3.8454793447e+000,3.6740320966e+000,3.8535295288e+000,3.1877940268e+000,3.8495053692e+000,2.3168201584e+000,3.9023825496e+000,2.5513657075e+000,3.7082324718e+000,3.1371061452e+000,3.6133832052e+000,
1.5093750000e+001,3.6333767859e+000,3.7145646904e+000,3.1264732521e+000,3.7796822397e+000,3.6384536382e+000,3.6999858487e+000,3.1551604911e+000,3.5026815187e+000,2.3710780867e+000,3.7682210690e+000,2.4490258572e+000,3.5972163998e+000,2.9785131200e+000,3.5955319210e+000,
1.5187500000e+001,3.5942930852e+000,3.8032283106e+000,3.1298327910e+000,3.7868105255e+000,3.5976281606e+000,3.7384938659e+000,3.0069894146e+000,3.5529282865e+000,2.3817969338e+000,3.7454476780e+000,2.3143356826e+000,3.6303948100e+000,2.8264571135e+000,3.6244002840e+000,
1.5281250000e+001,3.7790985511e+000,4.2546242272e+000,3.3016028021e+000,3.8044527581e+000,3.6304677873e+000,3.9157411531e+000,2.9864194957e+000,3.8073674479e+000,2.4674911136e+000,3.8557802264e+000,2.2615073530e+000,3.6137977128e+000,2.7430685228e+000,3.4598237737e+000,
1.5375000000e+001,3.8496670927e+000,4.3314757804e+000,3.3144969219e+000,3.8328469453e+000,3.8638133524e+000,4.0044347681e+000,3.0863708046e+000,3.8537501388e+000,2.5971205075e+000,3.8460457723e+000,2.2539799914e+000,3.6615129424e+000,2.7070249781e+000,3.4627545512e+000,
1.5468750000e+001,3.8310207974e+000,4.3525782214e+000,3.3675548429e+000,3.8654599093e+000,3.8587027149e+000,4.0164459509e+000,3.1224817580e+000,3.9104518942e+000,2.6329215257e+000,3.8811415375e+000,2.3486045127e+000,3.6736115373e+000,2.8158620601e+000,3.4936669805e+000,
1.5562500000e+001,3.8477763223e+000,4.3741300964e+000,3.4082812071e+000,3.9406857974e+000,3.8854391652e+000,4.1065258413e+000,3.2650067411e+000,3.9772618030e+000,2.6442959082e+000,4.0053432013e+000,2.3336832721e+000,3.8215970351e+000,2.8574377117e+000,3.6561589191e+000,
1.5656250000e+001,3.8807239765e+000,4.3551633051e+000,3.4542207408e+000,3.9586416453e+000,3.9274224380e+000,4.1511912650e+000,3.3075439784e+000,4.0084243418e+000,2.7287310138e+000,4.0277329995e+000,2.3361293948e+000,3.8233563790e+000,2.8339289888e+000,3.7167110441e+000,
1.5750000000e+001,3.8994903021e+000,4.3781110492e+000,3.5217455673e+000,3.9871525961e+000,3.9377232365e+000,4.1301613071e+000,3.2788665161e+000,3.9850946202e+000,2.7513420189e+000,4.0423614430e+000,2.3321586853e+000,3.8816860431e+000,2.8250696798e+000,3.6710319743e+000,
1.5843750000e+001,3.8670624876e+000,4.4056366901e+000,3.4953442037e+000,3.4368504878e+000,3.7376909046e+000,4.0653214028e+000,3.3041928462e+000,3.9364178332e+000,2.8435727391e+000,3.8688685787e+000,2.3349826437e+000,3.7088659420e+000,2.8115295862e+000,3.5642045446e+000,
1.5937500000e+001,3.8116379299e+000,4.3667698693e+000,3.3823469328e+000,3.2421149041e+000,3.5790754864e+000,4.0000027009e+000,3.2702320757e+000,3.8936422223e+000,2.8013313879e+000,3.8076039737e+000,2.2719956950e+000,3.6738171525e+000,2.7282811321e+000,3.5379282694e+000,
1.6031250000e+001,3.7177682581e+000,4.2917276887e+000,3.2718370814e+000,3.0332067720e+000,3.5040490033e+000,3.9079604573e+000,3.2245421729e+000,3.8055551806e+000,2.7207824607e+000,3.6787663046e+000,2.0557296010e+000,3.5806839195e+000,2.5661227075e+000,3.4319293057e+000,
1.6125000000e+001,3.6433580178e+000,4.2820659977e+000,3.2302718941e+000,3.0492919215e+000,3.4115497932e+000,3.8879673782e+000,3.1983712219e+000,3.8128453702e+000,2.7385068791e+000,3.6449745122e+000,1.9392911718e+000,3.6013332874e+000,2.5138288559e+000,3.3272215532e+000,
1.6218750000e+001,3.5432685045e+000,4.0190031299e+000,3.0553624264e+000,2.9566615352e+000,3.4062094450e+000,3.7204607006e+000,3.2080579523e+000,3.5628548230e+000,2.6032424283e+000,3.5300572984e+000,2.0167109710e+000,3.5616058988e+000,2.4955079014e+000,3.3300388281e+000,
1.6312500000e+001,3.3912801387e+000,3.7391652817e+000,3.0297012693e+000,3.0259297165e+000,3.3165170009e+000,3.6547147330e+000,3.2033493196e+000,3.4976668146e+000,2.5398841416e+000,3.5074760414e+000,2.0885801672e+000,3.5673186396e+000,2.4945458677e+000,3.3213189125e+000,
1.6406250000e+001,3.4073990478e+000,3.6724852705e+000,3.1250444506e+000,3.1006617354e+000,3.1551375692e+000,3.5994624585e+000,3.2787495206e+000,3.5747551806e+000,2.5143805720e+000,3.5563267193e+000,2.1457025956e+000,3.6093670707e+000,2.5322968193e+000,3.3059676842e+000,
1.6500000000e+001,3.4578572241e+000,3.6312722681e+000,3.1127832547e+000,3.1467726200e+000,3.2582158514e+000,3.7683250517e+000,3.3656232732e+000,3.5910954795e+000,2.4775782382e+000,3.6372831111e+000,2.1086114095e+000,3.7060131881e+000,2.4860609609e+000,3.3983561444e+000,
1.6593750000e+001,3.4006335642e+000,3.5419819526e+000,3.0316595977e+000,3.0386913856e+000,3.1027021325e+000,3.6417912611e+000,3.1086706016e+000,3.4948009511e+000,2.4832493418e+000,3.4435813608e+000,2.1108172725e+000,3.5178052429e+000,2.5262521856e+000,3.1980990572e+000,
1.6687500000e+001,3.2949582454e+000,3.5503383042e+000,2.9868881399e+000,3.0645177108e+000,3.1063907111e+000,3.6164973004e+000,3.0764975770e+000,3.5386086988e+000,2.4719374757e+000,3.4779190543e+000,2.1133019020e+000,3.4949542239e+000,2.6124520431e+000,3.1592431499e+000,
1.6781250000e+001,3.2946617729e+000,3.5495269767e+000,2.9020917304e+000,3.1173985149e+000,3.0734721726e+000,3.6898541486e+000,2.9345522969e+000,3.6367768093e+000,2.2971812497e+000,3.4436239400e+000,2.0863419461e+000,3.3646014266e+000,2.9102609215e+000,3.1271871219e+000,
1.6875000000e+001,3.3255801388e+000,3.5434445299e+000,2.9116004943e+000,3.1386283324e+000,3.0652450376e+000,3.7320840218e+000,3.0614361111e+000,3.6340959243e+000,2.1822268129e+000,3.4816337460e+000,2.0609260343e+000,3.5058571789e+000,2.9500337524e+000,3.3073228377e+000,
1.6968750000e+001,3.3413779283e+000,3.5604754715e+000,2.9351953031e+000,3.2043244759e+000,3.1377983170e+000,3.7882698124e+000,3.1504312811e+000,3.6740994489e+000,2.1959712409e+000,3.5568132254e+000,2.1611128714e+000,3.6111365171e+000,3.0553508116e+000,3.4119394976e+000,
1.7062500000e+001,3.4942812498e+000,3.5485116190e+000,3.0029131185e+000,3.2344826495e+000,3.1638063156e+000,3.7916865218e+000,3.2396909485e+000,3.6741176878e+000,2.2003844716e+000,3.5661749301e+000,2.2808620768e+000,3.6018724503e+000,3.1103775543e+000,3.4539773871e+000,
1.7156250000e+001,3.4760664364e+000,3.5295334148e+000,3.0166383333e+000,3.1999678268e+000,3.1277825845e+000,3.8090061433e+000,3.2531530031e+000,3.6803229933e+000,2.1089234292e+000,3.5813235728e+000,2.3443687844e+000,3.5809305902e+000,3.1497896948e+000,3.4701591524e+000,
1.7250000000e+001,3.4574513892e+000,3.5914443225e+000,2.9491344510e+000,3.2886531762e+000,3.0199918869e+000,3.9157336311e+000,3.1450998020e+000,3.7561700156e+000,2.2074926964e+000,3.7054985726e+000,2.3974649483e+000,3.6570188106e+000,3.2752457851e+000,3.5785629219e+000,
1.7343750000e+001,3.4174860190e+000,3.5062171139e+000,2.8733706029e+000,3.2376662093e+000,2.9916041992e+000,3.9511110388e+000,3.1818288622e+000,3.6455936214e+000,2.1533439252e+000,3.6927786610e+000,2.2873481379e+000,3.6863527834e+000,3.3759799793e+000,3.7681162072e+000,
1.7437500000e+001,3.3188206190e+000,3.3929763775e+000,2.6911143099e+000,3.1462574442e+000,2.8967334109e+000,3.7951291859e+000,3.0385976012e+000,3.5158224641e+000,2.2073545738e+000,3.6111497485e+000,2.2314315158e+000,3.6106963196e+000,3.3651157392e+000,3.7819718707e+000,
1.7531250000e+001,3.3057494278e+000,3.3704289045e+000,2.6907657091e+000,3.0585285582e+000,2.8062616847e+000,3.6425588421e+000,2.9916006754e+000,3.5739204048e+000,2.4487553523e+000,3.5888943533e+000,2.2171326583e+000,3.5905084802e+000,3.3556443705e+000,3.7704046692e+000,
1.7625000000e+001,3.2689064217e+000,3.3644291219e+000,2.6984155491e+000,3.1291616208e+000,2.8767355209e+000,3.6409706944e+000,3.0270329805e+000,3.5771959729e+000,2.5585685765e+000,3.6389656308e+000,2.3451181012e+000,3.6287588792e+000,3.3939278430e+000,3.8399204762e+000,
1.7718750000e+001,3.4191285468e+000,3.3819653991e+000,2.8823219566e+000,3.2530926469e+000,3.1236853356e+000,3.6410315967e+000,3.1891299154e+000,3.5421832338e+000,2.6056058335e+000,3.6578594441e+000,2.3645229215e+000,3.8623087780e+000,3.2748631875e+000,3.8879982674e+000,
1.7812500000e+001,3.3956501180e+000,3.2858264891e+000,2.9119034395e+000,3.3325217904e+000,3.1987436636e+000,3.5649504904e+000,3.2194770424e+000,3.4930547848e+000,2.7281423786e+000,3.6342650824e+000,2.3711979735e+000,3.8737374159e+000,3.1230386362e+000,3.8662830929e+000,
1.7906250000e+001,3.3243172911e+000,3.2285657287e+000,2.9340102558e+000,3.3431195031e+000,3.2090230728e+000,3.5237186481e+000,3.2716719849e+000,3.4765531438e+000,2.7492674691e+000,3.6615841049e+000,2.5544365471e+000,3.8527484008e+000,3.2568869770e+000,3.8837077945e+000,
1.8000000000e+001,3.2872467035e+000,3.3334919541e+000,2.9323344553e+000,3.3679273449e+000,3.2368496759e+000,3.5303295188e+000,3.2650751983e+000,3.5239098878e+000,2.8825950780e+000,3.6933784551e+000,2.5460367207e+000,3.8540246169e+000,3.1920589029e+000,3.8595539868e+000,
1.8093750000e+001,3.3194826167e+000,3.4324643850e+000,2.9298954953e+000,3.3716128459e+000,3.2688338398e+000,3.6269097974e+000,3.2597863187e+000,3.5837437894e+000,2.8540045977e+000,3.7193032999e+000,2.5168528809e+000,3.8862893271e+000,3.2817470755e+000,3.8876468715e+000,
1.8187500000e+001,3.4060150330e+000,3.4843279023e+000,2.9432541730e+000,3.3459437586e+000,3.3817603906e+000,3.6294056638e+000,3.3117272179e+000,3.5507248365e+000,2.8449395101e+000,3.7225624324e+000,2.4517424072e+000,3.8974780871e+000,3.3385411586e+000,3.8569274351e+000,
1.8281250000e+001,3.4165267293e+000,3.4208656876e+000,2.9367775194e+000,3.2272645565e+000,3.3972810819e+000,3.4676115007e+000,3.2499793265e+000,3.6189569433e+000,2.8172847947e+000,3.6210922083e+000,2.4191765890e+000,3.7827805538e+000,3.2302397415e+000,3.6934512507e+000,
1.8375000000e+001,3.3598078834e+000,3.5254920154e+000,2.9986631732e+000,3.1859370979e+000,3.3680711322e+000,3.4353801040e+000,3.2506381581e+000,3.6643867349e+000,2.8058837577e+000,3.6281527920e+000,2.4905781736e+000,3.7858611623e+000,3.2214227686e+000,3.4588726003e+000,
1.8468750000e+001,3.3636561239e+000,3.5660454657e+000,3.0308439479e+000,3.1915219217e+000,3.5345614574e+000,3.5222391745e+000,3.3208518431e+000,3.6865701519e+000,2.7833751461e+000,3.5928681421e+000,2.5116366437e+000,3.6892000985e+000,3.2620851601e+000,3.3252718984e+000,
1.8562500000e+001,3.2810057963e+000,3.5174700258e+000,2.9943337395e+000,3.1644492888e+000,3.4867884860e+000,3.5108172896e+000,3.3189517792e+000,3.5470520453e+000,2.5606083927e+000,3.5954708980e+000,2.5481938373e+000,3.7110699061e+000,3.4350570579e+000,3.3348511749e+000,
1.8656250000e+001,3.3880499579e+000,3.6463651821e+000,3.0074464518e+000,3.1877700720e+000,3.6256413532e+000,3.6459173885e+000,3.3660450452e+000,3.6288698553e+000,2.5734333384e+000,3.6023151759e+000,2.5991256566e+000,3.7978160992e+000,3.5152053316e+000,3.4019226857e+000,
1.8750000000e+001,3.3417904296e+000,3.6225708418e+000,2.9258182763e+000,2.8954304483e+000,3.5159195195e+000,3.6577848281e+000,3.2984989523e+000,3.5968133350e+000,2.3834795856e+000,3.5301719313e+000,2.7231338756e+000,3.5015547309e+000,3.6128385957e+000,3.4079315938e+000,
1.8843750000e+001,3.2776898110e+000,3.6107412612e+000,2.8123489326e+000,2.8257783598e+000,3.4670782794e+000,3.6197854766e+000,3.0877091289e+000,3.5636911780e+000,2.2769150387e+000,3.5147356197e+000,2.6549371893e+000,3.4355230237e+000,3.5307388429e+000,3.3432084093e+000,
1.8937500000e+001,3.2724541467e+000,3.5560923213e+000,2.7697148043e+000,2.7119828650e+000,3.4391686107e+000,3.5635420186e+000,2.9807038880e+000,3.4955876833e+000,2.2000886232e+000,3.4051577605e+000,2.5165918328e+000,3.2893855076e+000,3.4469530430e+000,3.1618979274e+000,
1.9031250000e+001,3.1619210948e+000,3.4038610810e+000,2.6561482777e+000,2.5524589468e+000,3.3418455793e+000,3.4274353634e+000,2.8293335276e+000,3.3075660920e+000,1.9820459788e+000,3.2431669477e+000,2.4237720926e+000,3.1640895361e+000,3.4024109325e+000,3.0976706337e+000,
1.9125000000e+001,3.0271726225e+000,3.2976823589e+000,2.5902199226e+000,2.5125542193e+000,3.2878572141e+000,3.3233457056e+000,2.7840763973e+000,3.2133247454e+000,1.9540741869e+000,3.2151957993e+000,2.3503130536e+000,3.0757220706e+000,3.2819263969e+000,2.9630145780e+000,
1.9218750000e+001,2.8539014280e+000,3.0881455935e+000,2.3770232618e+000,2.4435803151e+000,3.1740608135e+000,3.1731577390e+000,2.6472002193e+000,3.0092697720e+000,1.7311816094e+000,3.0124159825e+000,2.3204914412e+000,2.9803576872e+000,3.1863085502e+000,2.8547139719e+000,
1.9312500000e+001,2.5781594502e+000,2.8230839323e+000,2.1995869729e+000,2.2036420613e+000,2.9917796412e+000,2.9156467061e+000,2.4779292033e+000,2.6178880419e+000,1.5609468077e+000,2.7234103333e+000,2.2024344195e+000,2.8069568504e+000,3.0246113371e+000,2.8179521174e+000,
1.9406250000e+001,2.4992889095e+000,2.6937330746e+000,2.0419483757e+000,2.2190121894e+000,2.8153924410e+000,2.7498221482e+000,2.4588939564e+000,2.4677669318e+000,1.7272304563e+000,2.6161105457e+000,2.0932750196e+000,2.7520866680e+000,2.8961528408e+000,3.0463461814e+000,
1.9500000000e+001,2.5503260881e+000,2.6332755543e+000,2.0197836809e+000,2.1056132254e+000,3.1836762437e+000,2.6570090532e+000,2.5085553334e+000,2.5212207528e+000,1.7868793182e+000,2.4848077207e+000,2.0911815351e+000,2.6492281039e+000,2.8600241037e+000,3.0674925973e+000,
1.9593750000e+001,2.4457735231e+000,2.5923630828e+000,1.8616558538e+000,1.8939424722e+000,3.1803965740e+000,2.5163270840e+000,2.4008297354e+000,2.3406678162e+000,1.6752573688e+000,2.3785126907e+000,1.9572559829e+000,2.5766996431e+000,2.3365479614e+000,3.0637493861e+000,
1.9687500000e+001,2.7532719815e+000,2.8086142656e+000,2.2986486285e+000,2.1631967530e+000,3.1736082831e+000,2.8258606216e+000,2.4946835983e+000,2.6661201045e+000,1.7299913312e+000,2.7382712385e+000,1.6296996077e+000,2.6983154042e+000,1.8923216562e+000,2.9069084967e+000,
1.9781250000e+001,2.9190411932e+000,3.0782322924e+000,2.4769657282e+000,2.5376616093e+000,3.1966099166e+000,3.0252979026e+000,2.6325433114e+000,3.0834359363e+000,1.6910861122e+000,3.0268729689e+000,1.4390583455e+000,3.0727232981e+000,1.5447402385e+000,3.1549123948e+000,
1.9875000000e+001,3.0939223336e+000,3.2600251855e+000,2.7030192916e+000,2.8039708250e+000,3.2745841137e+000,3.2161077145e+000,2.7107091513e+000,3.3698740132e+000,1.8139928332e+000,3.3328107986e+000,1.5013143310e+000,3.4192589169e+000,2.0833517969e+000,3.4444500743e+000,
1.9968750000e+001,3.3124429856e+000,3.4969598128e+000,2.8869388711e+000,2.8630395876e+000,3.4147384787e+000,3.3728777734e+000,2.8559142118e+000,3.5530484086e+000,2.0822569620e+000,3.5004928364e+000,1.7378944482e+000,3.6305280826e+000,2.5519327924e+000,3.6145204712e+000,
2.0062500000e+001,3.5101225294e+000,3.6272232810e+000,3.0492048838e+000,2.9854742038e+000,3.5122022980e+000,3.5089304750e+000,3.1714964553e+000,3.6917744234e+000,2.3338184456e+000,3.6623488074e+000,1.8109531897e+000,3.7176359649e+000,2.6016431841e+000,3.7342579324e+000,
2.0156250000e+001,3.6115381446e+000,3.7280597655e+000,3.1394846693e+000,3.0463528254e+000,3.6228263706e+000,3.6514469839e+000,3.2506489077e+000,3.8197936211e+000,2.5384899870e+000,3.8074055211e+000,1.9280098148e+000,3.8014190514e+000,2.7471016063e+000,3.8150790708e+000,
2.0250000000e+001,3.9152526881e+000,3.9605750569e+000,3.4315878370e+000,3.2926056222e+000,3.8031008248e+000,3.8653986793e+000,3.5003077145e+000,3.9886769967e+000,2.7127111646e+000,3.9435088195e+000,2.0474685431e+000,3.8975604971e+000,3.0088624472e+000,3.9225553740e+000,
2.0343750000e+001,4.0233671862e+000,4.0852149522e+000,3.5180466850e+000,3.4153014513e+000,3.8845085744e+000,3.9430740924e+000,3.5870509222e+000,4.0659356827e+000,2.8097354253e+000,4.0119500220e+000,2.1597999501e+000,3.9639713827e+000,3.1640618227e+000,3.9706209336e+000,
2.0437500000e+001,4.0342341991e+000,4.0715185816e+000,3.4926993200e+000,3.4377110261e+000,3.8388776348e+000,3.9986864112e+000,3.5675150132e+000,4.0683482448e+000,2.7376560295e+000,4.0660582450e+000,2.3364383611e+000,4.1075857159e+000,3.3254678874e+000,3.9203024505e+000,
2.0531250000e+001,4.0915941550e+000,4.1539100153e+000,3.4842280694e+000,3.4898535946e+000,3.7769191863e+000,4.0308322263e+000,3.5309607378e+000,4.0744791878e+000,2.7322566888e+000,4.0698013634e+000,2.3827113463e+000,4.1166058748e+000,3.3523344497e+000,3.8756314952e+000,
2.0625000000e+001,4.0748139918e+000,4.1864966534e+000,3.4846769341e+000,3.4626014141e+000,3.7677482029e+000,3.9840780108e+000,3.5186821896e+000,4.0992422506e+000,2.8602827997e+000,4.0702944438e+000,2.4497108850e+000,4.0553766871e+000,3.4473362587e+000,3.8210825343e+000,
2.0718750000e+001,3.9708991759e+000,4.1315647589e+000,3.3774733667e+000,3.4266148452e+000,3.6280080812e+000,3.9888223472e+000,3.4822355780e+000,4.0293525117e+000,2.8404443002e+000,4.0731817703e+000,2.4385698420e+000,4.0551345359e+000,3.4705755623e+000,3.8008036150e+000,
2.0812500000e+001,3.9729620411e+000,4.0511533248e+000,3.3854792267e+000,3.2655194754e+000,3.6482605983e+000,3.9155577680e+000,3.4419444851e+000,3.8340828239e+000,2.8483556970e+000,3.9382742971e+000,2.4493225877e+000,3.9179529836e+000,3.5322114965e+000,3.6650904595e+000,
2.0906250000e+001,3.9414967348e+000,4.0376255572e+000,3.3354996181e+000,3.2242581535e+000,3.6280650927e+000,3.9256164900e+000,3.4050823971e+000,3.8540232876e+000,2.8516065422e+000,3.8684270392e+000,2.5185698063e+000,3.7254722402e+000,3.4402997992e+000,3.4459048881e+000,
2.1000000000e+001,4.0285332265e+000,4.1008494297e+000,3.4333232453e+000,3.3074115988e+000,3.6091449461e+000,3.9451909661e+000,3.3123610991e+000,3.8367695350e+000,2.7622269752e+000,3.9312641899e+000,2.5069179828e+000,3.7523401446e+000,3.4523193184e+000,3.4653985360e+000,
2.1093750000e+001,4.0296815960e+000,4.0953942390e+000,3.4367418354e+000,3.2894238466e+000,3.5873594091e+000,3.9213482230e+000,3.2459429513e+000,3.7632343054e+000,2.7917471547e+000,3.8652962133e+000,2.6295638647e+000,3.7857313492e+000,3.5694601665e+000,3.4652163696e+000,
2.1187500000e+001,3.8637849194e+000,3.9978848368e+000,3.3185364590e+000,3.2025420496e+000,3.4659622446e+000,3.7762650316e+000,3.0872854116e+000,3.5904354055e+000,2.6747153030e+000,3.7578609398e+000,2.5656249765e+000,3.7972495034e+000,3.4425445561e+000,3.3747115321e+000,
2.1281250000e+001,3.9184435904e+000,3.9581137919e+000,3.6519775188e+000,3.1789434361e+000,3.8941539166e+000,4.1313163199e+000,3.4693379949e+000,3.6820444169e+000,3.5941310579e+000,4.0200432321e+000,3.2009826616e+000,3.8712745911e+000,3.6999270365e+000,3.6148629596e+000,
2.1375000000e+001,3.8684968053e+000,3.8928828879e+000,3.6963132790e+000,3.1411140231e+000,3.9504242486e+000,4.1764909723e+000,3.4807162820e+000,3.6400360201e+000,3.6223883587e+000,4.0575216597e+000,3.1682425965e+000,3.8289339322e+000,3.7033100065e+000,3.6405467849e+000,
2.1468750000e+001,3.7905972110e+000,3.7493734750e+000,3.6944158057e+000,3.0862149518e+000,3.9274280532e+000,4.1142198005e+000,3.4243813513e+000,3.6481103515e+000,3.6595998088e+000,3.9972836531e+000,3.1866484165e+000,3.7615332537e+000,3.7639933663e+000,3.6853977115e+000,
2.1562500000e+001,3.7413257123e+000,3.7232926691e+000,3.7078844058e+000,3.0814214513e+000,3.8646337218e+000,4.0789252147e+000,3.4451443492e+000,3.6285753171e+000,3.6416567983e+000,3.9682743860e+000,3.2121216815e+000,3.7507527917e+000,3.7551814168e+000,3.7324777142e+000,
2.1656250000e+001,3.7597241489e+000,3.6805132803e+000,3.7099414090e+000,3.0009819147e+000,3.8780013581e+000,4.0491367349e+000,3.4409916839e+000,3.5520662274e+000,3.6196826371e+000,3.9425611231e+000,3.2539853833e+000,3.7512732030e+000,3.6999455212e+000,3.7512138237e+000,
2.1750000000e+001,3.6940375945e+000,3.6817311416e+000,3.6665951108e+000,3.0752054561e+000,3.8733395484e+000,4.0465970271e+000,3.3920179349e+000,3.5912163764e+000,3.6144337942e+000,3.9624050534e+000,3.3061087101e+000,3.8298446960e+000,3.7786701398e+000,3.7341581650e+000,
2.1843750000e+001,3.7314768766e+000,3.7681947590e+000,3.6812696172e+000,3.1418791769e+000,3.8764483217e+000,4.0474972886e+000,3.4168834757e+000,3.5878400515e+000,3.6138621641e+000,3.9502274994e+000,3.3054670743e+000,3.8653712023e+000,3.7528569684e+000,3.7686787683e+000,
2.1937500000e+001,3.6917867844e+000,3.7200610417e+000,3.6631370602e+000,3.1008838842e+000,3.8425018922e+000,3.9737768562e+000,3.4536486554e+000,3.4737667151e+000,3.6581524485e+000,3.8624698536e+000,3.2847210949e+000,3.8509854879e+000,3.7603843014e+000,3.8242241286e+000,
2.2031250000e+001,3.3933910356e+000,3.5691183397e+000,3.5938403149e+000,3.0938918789e+000,3.7788809405e+000,3.9918932056e+000,3.4456530613e+000,3.4859613099e+000,3.6419070218e+000,3.9052063653e+000,3.2652582371e+000,3.8434930209e+000,3.6623528062e+000,3.8210354785e+000,
2.2125000000e+001,3.3406307192e+000,3.5291172820e+000,3.5649589803e+000,3.1247669439e+000,3.7972864317e+000,4.0106232116e+000,3.4546381694e+000,3.5228982507e+000,3.5883294831e+000,3.8828046005e+000,3.2605676718e+000,3.7467748404e+000,3.6226232554e+000,3.7613033971e+000,
2.2218750000e+001,3.3116090740e+000,3.5640196448e+000,3.4798315307e+000,3.0958474223e+000,3.7226065350e+000,3.8484226344e+000,3.2421361811e+000,3.4789316798e+000,3.2427807346e+000,3.7952605449e+000,3.1349639245e+000,3.6727533316e+000,3.5959490926e+000,3.6616684301e+000,
2.2312500000e+001,3.0861039401e+000,3.3789483125e+000,2.9315338724e+000,2.9439667675e+000,3.1344865072e+000,3.4202494787e+000,2.8229229626e+000,3.2654406955e+000,2.3298327251e+000,3.4049820186e+000,2.5966339346e+000,3.4801943012e+000,3.3158910894e+000,3.3213917766e+000,
2.2406250000e+001,3.0077269523e+000,3.2648834003e+000,2.8474263021e+000,2.7854086743e+000,2.8601931710e+000,3.1854409302e+000,2.6827420336e+000,3.1458962078e+000,2.1739848912e+000,3.2767321007e+000,2.5474684588e+000,3.3595977813e+000,3.0210064545e+000,3.2379907180e+000,
2.2500000000e+001,2.9282835231e+000,3.2377561804e+000,2.7738249542e+000,2.7510856391e+000,2.7399318000e+000,3.1637931688e+000,2.6232210437e+000,3.0306901798e+000,1.9460715626e+000,3.2315998876e+000,2.3316675634e+000,3.2238056003e+000,2.7894653848e+000,2.9866585698e+000,
2.2593750000e+001,2.8416429833e+000,3.1548200530e+000,2.6549492304e+000,2.6470967693e+000,2.6572253702e+000,3.0650356844e+000,2.4997707584e+000,2.9014308906e+000,1.8192202281e+000,3.1169715349e+000,1.9966556345e+000,3.1150298985e+000,2.7570547699e+000,2.9010337770e+000,
2.2687500000e+001,2.7037232058e+000,2.9890782281e+000,2.5548758945e+000,2.5551151072e+000,2.4350990211e+000,3.0015875163e+000,2.3747741503e+000,2.8498232156e+000,1.6291295730e+000,2.9703027242e+000,1.8579039455e+000,2.9209794391e+000,2.5725820605e+000,2.7717483647e+000,
2.2781250000e+001,2.6119821406e+000,2.6940112489e+000,2.4306701465e+000,2.2080187245e+000,2.3539912891e+000,2.7472567791e+000,2.2795082325e+000,2.6118281576e+000,1.5849595109e+000,2.6710411007e+000,1.5289600100e+000,2.4949548333e+000,2.2824037556e+000,2.5867986873e+000,
2.2875000000e+001,2.4241129801e+000,2.4429294969e+000,2.3057874250e+000,1.9011176167e+000,2.2408769663e+000,2.5133189116e+000,2.1478667898e+000,2.4219110461e+000,1.4382316844e+000,2.5479103787e+000,1.4153064349e+000,2.2112576289e+000,2.1569345930e+000,2.3189456025e+000,
2.2968750000e+001,2.2590940326e+000,1.9574798860e+000,2.1259582362e+000,1.7663868350e+000,2.1272006129e+000,2.3070626122e+000,1.8192581688e+000,2.2846176506e+000,8.3823198331e-001,2.3957325120e+000,1.1563112467e+000,2.0630255599e+000,1.8325378788e+000,2.0064479888e+000,
2.3062500000e+001,2.1220614405e+000,1.5436894179e+000,1.7574620677e+000,1.0979097977e+000,2.0377567795e+000,1.7781904209e+000,1.6135779290e+000,1.5808786409e+000,6.4782925632e-001,1.6463480990e+000,8.6352918010e-001,1.5525621010e+000,1.7026636993e+000,1.1868709872e+000,
2.3156250000e+001,1.9865361189e+000,1.2891836480e+000,1.4671579136e+000,4.4310551372e-001,1.7906064903e+000,1.2209098499e+000,1.2008462994e+000,1.3166799326e+000,4.4597569474e-001,1.0819872672e+000,9.9798624095e-002,8.7369208212e-001,1.2705088059e+000,4.1678285053e-001,
2.3250000000e+001,2.1443777919e-001,7.1760582977e-002,8.6155054968e-002,1.3803532016e-002,1.2275541203e-001,1.5060017838e-002,3.5413669280e-002,7.6907075358e-002,9.6851502881e-003,1.5582726542e-003,3.5937804078e-003,8.9907410635e-002,3.3305250368e-003,8.7980623277e-003,
2.3343750000e+001,8.1810536348e-003,2.1963243376e-003,1.8544410646e-003,2.7079926926e-004,6.5098403271e-003,2.6398918927e-004,1.2278126898e-003,1.1654686064e-003,2.7655521652e-004,3.9297859336e-005,2.5831503276e-004,1.8126418355e-003,1.1771140946e-004,3.2680413994e-004,
2.3437500000e+001,7.5765865257e-001,4.5998596190e-001,4.9775618756e-001,3.8084654448e-001,3.0286147327e-001,8.9573737475e-001,3.9306868977e-001,1.2153583446e+000,8.0474810910e-001,3.3577582272e-001,1.0250177285e+000,4.7693787392e-001,5.9751257314e-001,1.1138032116e-001,
2.3531250000e+001,1.3825189579e+000,1.4100489720e+000,1.0135069423e+000,8.5306778008e-001,1.2909342848e+000,1.4447272132e+000,8.2910116820e-001,1.5337207449e+000,1.3373445655e+000,1.0473252947e+000,1.6152320401e+000,1.1699206534e+000,1.2119376933e+000,7.6351041927e-001,
2.3625000000e+001,1.9906092935e+000,2.1625024106e+000,1.3113701497e+000,1.1731890088e+000,1.5682982009e+000,1.9441417547e+000,1.2208143708e+000,1.8160866865e+000,1.4695979339e+000,1.7881368403e+000,1.7353210154e+000,1.8679232668e+000,1.9410131603e+000,1.8170460338e+000,
2.3718750000e+001,2.5141581435e+000,2.4296502238e+000,2.0154938510e+000,1.6573139652e+000,2.1633103615e+000,2.5597622139e+000,2.0059680715e+000,2.1489685514e+000,1.6604181177e+000,2.6375353522e+000,2.0937044100e+000,2.7027875073e+000,2.8229927656e+000,2.5083899318e+000,
2.3812500000e+001,3.0814875167e+000,2.9422106761e+000,2.6658416581e+000,1.9849284574e+000,2.6735167260e+000,2.9873144234e+000,2.2445640857e+000,2.5954091108e+000,1.7314915796e+000,2.9914747867e+000,2.1550580814e+000,2.8249999997e+000,2.9374393263e+000,2.7175397762e+000,
2.3906250000e+001,3.1778106075e+000,3.1071655822e+000,2.7264071461e+000,2.2041846643e+000,2.8327812299e+000,3.0840138506e+000,2.2913956578e+000,2.8879965204e+000,2.0672866472e+000,3.0481262619e+000,2.2980634607e+000,2.9809943939e+000,3.0925715681e+000,2.9471513186e+000,
2.4000000000e+001,3.4183723144e+000,3.3280663684e+000,2.9156809256e+000,2.4961616473e+000,3.0793333166e+000,3.4426738341e+000,2.6169828901e+000,3.1807913793e+000,2.1866640970e+000,3.3311227430e+000,2.3825437496e+000,3.4633050043e+000,3.2908002102e+000,3.7261460192e+000,
2.4093750000e+001,3.6273133740e+000,3.5340108638e+000,3.0823545665e+000,2.6836409915e+000,3.2978469033e+000,3.6589068055e+000,2.8184621651e+000,3.4081600188e+000,2.4763144064e+000,3.5059055276e+000,2.4639411014e+000,3.5755499089e+000,3.4662657059e+000,3.7913000442e+000,
2.4187500000e+001,3.7366994543e+000,3.8089646542e+000,3.1795038057e+000,2.8218506742e+000,3.4542561629e+000,3.8068705238e+000,2.8831408360e+000,3.6667367930e+000,2.4988314479e+000,3.6356214555e+000,2.5037818144e+000,3.7102294839e+000,3.5963467806e+000,3.8555974073e+000,
2.4281250000e+001,3.7791670562e+000,3.8574417510e+000,3.2119752394e+000,2.9037002551e+000,3.5297136645e+000,3.8397671729e+000,2.9853203344e+000,3.7329607385e+000,2.5873449569e+000,3.7485047065e+000,2.6142409505e+000,3.8244045778e+000,3.6693990082e+000,3.9136939318e+000,
2.4375000000e+001,3.7837472748e+000,3.8758513478e+000,3.2334679928e+000,2.9550065488e+000,3.5687605365e+000,3.8547542271e+000,2.9961923174e+000,3.7494101093e+000,2.6310357924e+000,3.7635140428e+000,2.6218133619e+000,3.8384089954e+000,3.6845408443e+000,3.9319186748e+000,
2.4468750000e+001,3.8706121712e+000,3.9488485815e+000,3.3953702531e+000,3.1284175520e+000,3.6009678234e+000,3.9208092566e+000,3.0318962536e+000,3.8144915235e+000,2.6406757137e+000,3.9008811570e+000,2.5076086229e+000,3.9319707932e+000,3.7008324331e+000,4.0244773125e+000,
2.4562500000e+001,3.8965808702e+000,3.9711279780e+000,3.4461715974e+000,3.2794620762e+000,3.6030940089e+000,3.9975288278e+000,3.0832441356e+000,3.8920430230e+000,2.6474179387e+000,4.0152103691e+000,2.4203341334e+000,4.0016401708e+000,3.7197913358e+000,4.1512412927e+000,
2.4656250000e+001,3.8645979924e+000,3.9772906826e+000,3.4388646761e+000,3.2886291156e+000,3.6001846659e+000,3.9887478860e+000,3.0416198133e+000,3.8841091583e+000,2.6224379883e+000,3.9570563257e+000,2.4885698455e+000,3.9625226179e+000,3.6933642231e+000,4.1616847246e+000,
2.4750000000e+001,3.7767387204e+000,4.1295923698e+000,3.3458848169e+000,3.4471829242e+000,3.6308259569e+000,4.1004300108e+000,3.0532829900e+000,4.0606029172e+000,2.5668965943e+000,3.9620374991e+000,2.3782003235e+000,4.0360088222e+000,3.4426539537e+000,4.2584823509e+000,
2.4843750000e+001,3.6336976981e+000,3.9994986735e+000,3.1768580768e+000,3.3879755319e+000,3.5946088887e+000,4.0427942914e+000,3.0717122304e+000,3.9827023373e+000,2.6049260671e+000,3.8793530071e+000,2.4492222008e+000,4.0587662086e+000,3.4267299964e+000,4.3186095677e+000,
2.4937500000e+001,3.6038415061e+000,3.9999434834e+000,3.1825302316e+000,3.3939807988e+000,3.5906902297e+000,4.0630517455e+000,3.2008875831e+000,3.9915196635e+000,2.4664050066e+000,3.8651356759e+000,2.3234918402e+000,3.9790159045e+000,3.2950412667e+000,4.0758382638e+000,
2.5031250000e+001,3.4380739657e+000,3.9461268322e+000,3.1221355036e+000,3.4219594020e+000,3.4125222698e+000,3.9938989208e+000,3.1650994811e+000,3.9804556226e+000,2.3357980659e+000,3.8569236547e+000,2.3265231686e+000,3.9291558626e+000,3.3452286550e+000,4.0347706083e+000,
2.5125000000e+001,3.2973057032e+000,3.7266534956e+000,2.9617739025e+000,3.4269757982e+000,3.3088685141e+000,3.9795945620e+000,3.1221930700e+000,3.8586034503e+000,2.3829046153e+000,3.8437602947e+000,2.3189851868e+000,4.0396829284e+000,3.3248720560e+000,4.1369035786e+000,
2.5218750000e+001,3.2671016703e+000,3.6495741976e+000,2.9603419561e+000,3.4028050864e+000,3.2255017575e+000,3.9577889422e+000,3.1434828623e+000,3.8363038173e+000,2.3710222073e+000,3.7460591670e+000,2.3332444403e+000,3.9642063622e+000,3.3070719172e+000,4.1327214931e+000,
2.5312500000e+001,3.2383706674e+000,3.6298815843e+000,2.9852871119e+000,3.3995398358e+000,3.2700515822e+000,3.9884645457e+000,3.1577646132e+000,3.8679385495e+000,2.4199722535e+000,3.8000823182e+000,2.3274884556e+000,3.9930591954e+000,3.3141201967e+000,4.1818190528e+000,
2.5406250000e+001,3.2140578914e+000,3.6369916862e+000,2.9022758445e+000,3.4227197776e+000,3.2499500521e+000,4.0558711640e+000,3.1656121018e+000,3.9365379158e+000,2.5451028138e+000,3.8781173063e+000,2.4104544877e+000,4.0388479433e+000,3.3511507219e+000,4.1961711908e+000,
2.5500000000e+001,3.1607727799e+000,3.6393938468e+000,2.8547033254e+000,3.3576730517e+000,3.2401790923e+000,4.0588898425e+000,3.2315077242e+000,3.8922264696e+000,2.4778194214e+000,3.7576569595e+000,2.5113063899e+000,3.9667300678e+000,3.3513468948e+000,4.1762642125e+000,
2.5593750000e+001,3.0625508413e+000,3.4579575206e+000,2.7783301199e+000,3.2208490638e+000,3.2234354378e+000,3.9506635625e+000,3.2509762989e+000,3.8589231617e+000,2.5494386704e+000,3.6072237997e+000,2.4218980434e+000,3.8655994989e+000,3.3417031492e+000,4.0403569988e+000,
2.5687500000e+001,3.0226593978e+000,3.2776834836e+000,2.7476672520e+000,3.1780262142e+000,3.1142695282e+000,3.8974204542e+000,3.1770130683e+000,3.8162936889e+000,2.5954986448e+000,3.6514422236e+000,2.3680306190e+000,3.8132911043e+000,3.3348791463e+000,3.9744797651e+000,
2.5781250000e+001,2.9410243158e+000,3.0188476893e+000,2.6374213101e+000,3.1141429581e+000,2.9093325686e+000,3.7593610267e+000,3.0851035249e+000,3.6079575116e+000,2.6518895254e+000,3.5763617622e+000,2.3855732427e+000,3.7428547645e+000,3.4272701437e+000,3.7735554152e+000,
2.5875000000e+001,3.0126830447e+000,2.9898924907e+000,2.6233101001e+000,3.0681126478e+000,2.9241289679e+000,3.6275735335e+000,3.0962595814e+000,3.5221274518e+000,2.6807374226e+000,3.6041198945e+000,2.4314879534e+000,3.6294516648e+000,3.4506239828e+000,3.7149414030e+000,
2.5968750000e+001,2.9619292447e+000,3.0678941010e+000,2.6411380330e+000,3.0487471992e+000,2.9632732825e+000,3.6573445029e+000,2.8846620199e+000,3.4702604711e+000,2.6867867268e+000,3.5870420452e+000,2.4854256153e+000,3.5823016899e+000,3.4166497452e+000,3.6720309527e+000,
2.6062500000e+001,3.0205531101e+000,3.1696813969e+000,2.7196769771e+000,2.9621565343e+000,2.9803107165e+000,3.5732578966e+000,2.7214917049e+000,3.4052425644e+000,2.6976768277e+000,3.5719454114e+000,2.5260479313e+000,3.5338189934e+000,3.3579789399e+000,3.6891001519e+000,
2.6156250000e+001,2.9466877372e+000,3.1094196865e+000,2.7242420025e+000,2.9191700742e+000,2.9237953015e+000,3.4531521825e+000,2.7168897430e+000,3.3398020001e+000,2.5594199709e+000,3.5526837650e+000,2.4877063845e+000,3.4184363825e+000,3.2857855179e+000,3.5542061913e+000,
2.6250000000e+001,2.9685256722e+000,3.1339057490e+000,2.7216980076e+000,2.9324938438e+000,2.8900344677e+000,3.4885912040e+000,2.5923355801e+000,3.3654094856e+000,2.5386008850e+000,3.6024882633e+000,2.4583237875e+000,3.3715024482e+000,3.2653748202e+000,3.5268757212e+000,
2.6343750000e+001,2.9982400830e+000,3.1266511796e+000,2.6893808472e+000,2.9167192310e+000,2.8184411347e+000,3.5851962086e+000,2.6449810245e+000,3.4726071686e+000,2.3946484078e+000,3.6161106701e+000,2.5115670373e+000,3.4424403171e+000,3.3417210088e+000,3.5742532053e+000,
2.6437500000e+001,3.0566879174e+000,3.3179744643e+000,2.8015008359e+000,3.0645890830e+000,2.9608086203e+000,3.6416488309e+000,2.6233459257e+000,3.6184329149e+000,2.3196922418e+000,3.6703588153e+000,2.4214956137e+000,3.4015432954e+000,3.3134562404e+000,3.6361357992e+000,
2.6531250000e+001,3.2210623332e+000,3.5638336200e+000,2.7371270216e+000,3.2160588998e+000,3.2711056596e+000,3.8053448793e+000,2.4612870415e+000,3.8163220869e+000,2.2453868388e+000,3.8372206115e+000,2.3619967281e+000,3.5359244093e+000,3.3534694603e+000,3.7520374927e+000,
2.6625000000e+001,3.2113723615e+000,3.6415381751e+000,2.6972691228e+000,3.2819126197e+000,3.3365290835e+000,3.9003628576e+000,2.6227223317e+000,3.8478523205e+000,2.3608157228e+000,3.8946506455e+000,2.4686383733e+000,3.5933455167e+000,3.3739891247e+000,3.8566592768e+000,
2.6718750000e+001,3.2529366416e+000,3.6912481874e+000,2.7667701751e+000,3.2417457073e+000,3.3362075350e+000,3.8997661407e+000,2.6689225562e+000,3.8226194268e+000,2.2523458286e+000,3.8985258543e+000,2.5204943499e+000,3.6221764565e+000,3.3817137276e+000,3.9645886048e+000,
2.6812500000e+001,3.2554951720e+000,3.7239094949e+000,2.7621669116e+000,3.2258036188e+000,3.3030097323e+000,3.9458500583e+000,2.6541837288e+000,3.8948102788e+000,2.2718706062e+000,3.9712103319e+000,2.4601935694e+000,3.6573694531e+000,3.3050736324e+000,3.9395125284e+000,
2.6906250000e+001,3.1831911970e+000,3.7228972832e+000,2.7278809003e+000,3.1821581058e+000,3.2462927783e+000,3.9378479572e+000,2.6945618179e+000,3.9042428963e+000,2.2046376823e+000,3.9191257192e+000,2.5725532703e+000,3.6861933172e+000,3.2754076509e+000,3.8875784813e+000,
2.7000000000e+001,3.1746722296e+000,3.6546464590e+000,2.6457422097e+000,3.1161482685e+000,3.2298736920e+000,3.8844976283e+000,2.6961274055e+000,3.8680103452e+000,2.1918950470e+000,3.8516624015e+000,2.4986704427e+000,3.6195652418e+000,3.2244315045e+000,3.8338731397e+000,
2.7093750000e+001,3.0090337576e+000,3.5741301907e+000,2.4237395345e+000,3.0461691280e+000,3.1936785260e+000,3.8399508021e+000,2.6137771805e+000,3.8291506450e+000,2.1134838919e+000,3.7817370536e+000,2.4486294808e+000,3.5526719195e+000,3.1350569816e+000,3.7053516700e+000,
2.7187500000e+001,2.9905632965e+000,3.5318528635e+000,2.3722841084e+000,2.9980189396e+000,3.1474335607e+000,3.7977623612e+000,2.5496545817e+000,3.7871374050e+000,2.0547377913e+000,3.7164179582e+000,2.3811517866e+000,3.4629709622e+000,3.0049834917e+000,3.6702978058e+000,
2.7281250000e+001,2.8624006121e+000,3.5185030771e+000,2.2599249563e+000,2.9487603948e+000,3.0500805475e+000,3.7207960585e+000,2.4503889653e+000,3.7224144205e+000,1.9970491143e+000,3.6038718488e+000,2.3022195967e+000,3.3112530367e+000,2.7915288216e+000,3.5253643462e+000,
2.7375000000e+001,2.7424700903e+000,3.3834700291e+000,2.0605399840e+000,2.8261052906e+000,2.9592876165e+000,3.5232976036e+000,2.3180733985e+000,3.4836633214e+000,1.9096972097e+000,3.4257424992e+000,2.1490849606e+000,3.1601516172e+000,2.5682153856e+000,3.3798804029e+000,
2.7468750000e+001,2.3552847701e+000,2.9856211910e+000,1.7548887272e+000,2.4261752373e+000,2.5479390170e+000,3.1153232865e+000,2.2001092052e+000,3.0370374337e+000,1.8162632023e+000,3.1549729296e+000,2.0719482326e+000,2.9908178809e+000,2.3643764425e+000,3.1411924570e+000,
2.7562500000e+001,2.3379713944e+000,2.8133591157e+000,2.2106062180e+000,2.0880834476e+000,3.6319493147e+000,3.5886397017e+000,2.2350822322e+000,2.8752693816e+000,1.5871922045e+000,2.7524718534e+000,2.1550516390e+000,3.0000446242e+000,2.3614038908e+000,2.8336115076e+000,
2.7656250000e+001,2.5650155461e+000,2.8175173375e+000,2.4093745344e+000,2.1747337957e+000,3.7281557012e+000,3.6178600976e+000,2.2917938585e+000,3.1088899955e+000,1.6463806025e+000,2.7806509398e+000,2.1519077991e+000,3.0315099427e+000,2.1097074268e+000,2.6918244962e+000,
2.7750000000e+001,2.7128231018e+000,2.9181492281e+000,2.5137833608e+000,2.4728166151e+000,3.7536477456e+000,3.7005959820e+000,2.3977595558e+000,3.1919713442e+000,1.8834021292e+000,2.9021097853e+000,2.1643410775e+000,3.2504282888e+000,2.3340128124e+000,2.7855927864e+000,
2.7843750000e+001,2.7696369788e+000,2.8341802879e+000,2.5825616620e+000,2.6237140535e+000,3.7802222206e+000,3.6852545897e+000,2.4811364432e+000,3.1286167267e+000,1.8079192601e+000,2.9032443520e+000,2.2020350914e+000,3.3293580025e+000,2.6533801870e+000,3.1696842133e+000,
2.7937500000e+001,2.9349228402e+000,2.9132347687e+000,2.8066391510e+000,2.7602081314e+000,3.8409257353e+000,3.8113164019e+000,2.5337169352e+000,3.3767169089e+000,2.0691547453e+000,3.0573902070e+000,1.9602013812e+000,3.3676902054e+000,2.8592035275e+000,3.2696084161e+000,
2.8031250000e+001,3.1087580435e+000,3.0320910725e+000,2.9578125843e+000,2.8871966642e+000,3.8980869056e+000,3.8613707038e+000,2.6934601342e+000,3.4722286025e+000,2.1200939618e+000,3.2105018069e+000,2.0995863953e+000,3.4494848575e+000,2.9755267732e+000,3.3791218443e+000,
2.8125000000e+001,3.1476920216e+000,3.1258527361e+000,3.0338592045e+000,3.0676668904e+000,3.9270902895e+000,3.9709338509e+000,2.7566271206e+000,3.5550350802e+000,2.2521697580e+000,3.3659066826e+000,2.1528810109e+000,3.5083366592e+000,3.0760102622e+000,3.5094305325e+000,
2.8218750000e+001,3.2833475462e+000,3.2535680805e+000,3.1348158587e+000,3.2137479943e+000,4.0097170340e+000,4.0379111549e+000,2.9165918026e+000,3.6469420021e+000,2.3009891069e+000,3.4525596182e+000,2.1670800753e+000,3.6256253492e+000,3.1947311738e+000,3.7349963599e+000,
2.8312500000e+001,3.3782527116e+000,3.4130685646e+000,3.2305567169e+000,3.3386620065e+000,4.0399569059e+000,4.1249793420e+000,2.9777586930e+000,3.7742417797e+000,2.3879101768e+000,3.6215824790e+000,2.2332697003e+000,3.7709361012e+000,3.3155663253e+000,4.0120489874e+000,
2.8406250000e+001,3.4148121894e+000,3.4378003212e+000,3.2528748407e+000,3.3610430468e+000,4.0482383088e+000,4.1403457214e+000,3.0049670822e+000,3.7934334739e+000,2.4619862815e+000,3.6503243056e+000,2.3630938529e+000,3.7881242382e+000,3.4286436831e+000,4.0693878637e+000,
2.8500000000e+001,3.6158925203e+000,3.8283913097e+000,3.4640835593e+000,3.6735549754e+000,4.0976098815e+000,4.3811267687e+000,3.0980795782e+000,4.0959234656e+000,2.4955707847e+000,4.0579880591e+000,2.5642534689e+000,4.1655465847e+000,3.7123738462e+000,4.4598797012e+000,
2.8593750000e+001,3.8668859573e+000,4.2629209303e+000,3.6697954081e+000,3.9610543663e+000,3.5822909625e+000,4.4102756501e+000,3.1951101987e+000,4.3287251449e+000,2.6727171201e+000,4.4187787680e+000,2.5891721078e+000,4.2373065560e+000,3.7106577535e+000,4.4857007914e+000,
2.8687500000e+001,3.9894472705e+000,4.3531536404e+000,3.7970969768e+000,4.1481592306e+000,3.5843419898e+000,4.5933002654e+000,3.3460313879e+000,4.5341314368e+000,2.7639077533e+000,4.6187339896e+000,2.6008763188e+000,4.3054150642e+000,3.7615659617e+000,4.6051826672e+000,
2.8781250000e+001,3.9597276363e+000,4.3945660821e+000,3.8090557460e+000,4.2184650097e+000,3.7331881395e+000,4.7496162862e+000,3.3202220086e+000,4.6883454054e+000,2.7315789779e+000,4.7633425569e+000,2.6788963032e+000,4.3191003376e+000,3.7904115571e+000,4.5571603138e+000,
2.8875000000e+001,3.9877253291e+000,4.4393976667e+000,3.7863124879e+000,4.3091236445e+000,3.8224260556e+000,4.8119069655e+000,3.3363230314e+000,4.7249644202e+000,2.7335589012e+000,4.8497963330e+000,2.7042394947e+000,4.4187130080e+000,3.7343753682e+000,4.5928822455e+000,
2.8968750000e+001,3.8912689793e+000,4.4357061357e+000,3.7197041279e+000,4.2924174086e+000,3.7196044567e+000,4.8016398893e+000,3.2765997609e+000,4.6885376945e+000,2.7132269830e+000,4.8499897582e+000,2.6697688939e+000,4.4219710926e+000,3.6676649682e+000,4.5933744609e+000,
2.9062500000e+001,3.9354445448e+000,4.4828464497e+000,3.7437162711e+000,4.3892997962e+000,3.7484387251e+000,4.9133885668e+000,3.2950771121e+000,4.7772765699e+000,2.8345408553e+000,4.9161076114e+000,2.6855525039e+000,4.5446653958e+000,3.7264905867e+000,4.6784449309e+000,
2.9156250000e+001,3.9867284084e+000,4.5130438564e+000,3.7604212058e+000,4.4070223982e+000,3.7261361571e+000,4.9377678704e+000,3.3203515224e+000,4.8091297498e+000,2.8400969288e+000,4.9222432025e+000,2.7448875930e+000,4.5640910528e+000,3.7054072323e+000,4.6426689764e+000,
2.9250000000e+001,3.9561790865e+000,4.5024114776e+000,3.7472076155e+000,4.3923648433e+000,3.6420594112e+000,4.9331509610e+000,3.2570570667e+000,4.7928009073e+000,2.7989896366e+000,4.9047814514e+000,2.7628518613e+000,4.5582774585e+000,3.7159796812e+000,4.5641159012e+000,
2.9343750000e+001,3.9210818238e+000,4.4911976993e+000,3.7272570268e+000,4.3829535263e+000,3.6411015589e+000,4.9194734818e+000,3.3265405504e+000,4.7612021291e+000,2.9375767395e+000,4.9025721932e+000,2.8629903009e+000,4.5393754132e+000,3.6816534577e+000,4.4983161901e+000,
2.9437500000e+001,3.9431932601e+000,4.4682148075e+000,3.6996602652e+000,4.3491556492e+000,3.6458751128e+000,4.8925243787e+000,3.3446936917e+000,4.7554051833e+000,2.9520436038e+000,4.8580776096e+000,2.7532333076e+000,4.4125664581e+000,3.4718294708e+000,4.2800062191e+000,
2.9531250000e+001,3.8078908429e+000,4.2863479747e+000,3.4777588427e+000,4.1522325434e+000,3.6254190459e+000,4.6948706477e+000,3.2576160356e+000,4.5988133346e+000,3.0395127791e+000,4.6743647665e+000,2.7157203830e+000,4.3072756329e+000,3.3811010027e+000,4.1417044932e+000,
2.9625000000e+001,3.4665082873e+000,4.0106372435e+000,3.1552277410e+000,4.0182054664e+000,3.3822549168e+000,4.5633533541e+000,3.0488294036e+000,4.4261973795e+000,2.9579878553e+000,4.5329437049e+000,2.6699591644e+000,4.2363256207e+000,3.3551669159e+000,4.1178808896e+000,
2.9718750000e+001,3.3731258054e+000,3.9789671112e+000,3.0319291261e+000,3.8572825037e+000,3.3373671922e+000,4.4652311005e+000,2.9473779263e+000,4.2407082749e+000,2.8830062114e+000,4.4113368701e+000,2.5866081567e+000,4.2291575525e+000,3.2525731637e+000,4.0629533696e+000,
2.9812500000e+001,3.2969243507e+000,3.8451767336e+000,3.0165563661e+000,3.5904239726e+000,3.1298670100e+000,4.1668768726e+000,2.9315399317e+000,3.9661247834e+000,2.8010786816e+000,4.1105951135e+000,2.6117460255e+000,4.0918467240e+000,3.2207667422e+000,4.0515273241e+000,
2.9906250000e+001,3.3244911110e+000,3.7919733721e+000,3.0634729693e+000,3.5023668429e+000,3.0696210392e+000,4.0589644167e+000,2.9718161865e+000,3.8724201358e+000,2.8320519718e+000,3.9456739063e+000,2.5682612067e+000,3.9524085243e+000,3.2244241890e+000,3.9832131282e+000,
3.0000000000e+001,3.4212552494e+000,3.7813516028e+000,3.1210973901e+000,3.4270490880e+000,3.0904719451e+000,3.9233314895e+000,3.0636507288e+000,3.7706050478e+000,2.8180306523e+000,3.8324896522e+000,2.5576124095e+000,3.8214482913e+000,3.1961466635e+000,3.9020100846e+000,
3.0093750000e+001,3.2794529732e+000,3.6167388774e+000,3.0152187047e+000,3.1229525128e+000,2.9948062573e+000,3.4431461392e+000,3.0289658190e+000,3.3599227630e+000,2.6662084251e+000,3.5858543776e+000,2.4801821950e+000,3.6019283946e+000,3.1292255768e+000,3.7741295002e+000,
3.0187500000e+001,3.1595017392e+000,3.5387234370e+000,2.8971018372e+000,2.9884706729e+000,2.9244115509e+000,3.3715247605e+000,2.9381524945e+000,3.3196851419e+000,2.5932845026e+000,3.5144576764e+000,2.4256525691e+000,3.4988075636e+000,3.0726953320e+000,3.6659055845e+000,
3.0281250000e+001,3.0958510955e+000,3.4718970149e+000,2.8025594716e+000,2.8772837936e+000,2.8847198770e+000,3.2646892358e+000,2.8304194401e+000,3.2566298642e+000,2.5773576632e+000,3.4830235232e+000,2.2709213186e+000,3.3717351603e+000,2.9428602703e+000,3.5863898151e+000,
3.0375000000e+001,2.9879859742e+000,3.3463907860e+000,2.7479133277e+000,2.7733589089e+000,2.8447551115e+000,3.1415501935e+000,2.8607328352e+000,3.2809660811e+000,2.2977800591e+000,3.3446232341e+000,2.2405316334e+000,3.3333550246e+000,3.0147574069e+000,3.6328279248e+000,
3.0468750000e+001,2.9524932448e+000,3.3383020958e+000,2.8064274629e+000,2.8336064841e+000,2.7938251773e+000,3.2517255453e+000,2.8781634302e+000,3.3279399889e+000,2.0407278629e+000,3.4237478095e+000,2.2772584800e+000,3.4568135458e+000,3.0336906316e+000,3.6711239985e+000,
3.0562500000e+001,2.8028065784e+000,3.0973004169e+000,2.8862311326e+000,2.7454595382e+000,2.8261269435e+000,3.2099765588e+000,2.8952014023e+000,3.1423434458e+000,1.8661737232e+000,3.1889362489e+000,2.1848048879e+000,3.3096609097e+000,2.9795052382e+000,3.6385389523e+000,
3.0656250000e+001,2.6667285320e+000,2.7835417051e+000,2.7500807017e+000,2.4553368320e+000,2.6812167108e+000,2.8952743613e+000,2.8599677719e+000,3.0387443105e+000,2.0664060966e+000,2.8914301316e+000,2.0565329794e+000,3.1288534407e+000,2.9309072052e+000,3.5304006433e+000,
3.0750000000e+001,2.7016805671e+000,2.7146427391e+000,2.7265860545e+000,2.3817423801e+000,2.6884417927e+000,2.8185782855e+000,2.8114065461e+000,3.0111479552e+000,2.1324094235e+000,2.7263907787e+000,2.1108351647e+000,2.9652856577e+000,2.9799237681e+000,3.3271274662e+000,
3.0843750000e+001,2.9092375206e+000,2.8372853626e+000,2.5843374679e+000,2.3957320615e+000,2.9994016672e+000,2.9871983423e+000,2.9238542016e+000,3.0646325478e+000,2.0859559615e+000,2.6911419003e+000,2.0477055591e+000,3.2529935576e+000,3.0001398179e+000,3.3559013457e+000,
3.0937500000e+001,2.9015606457e+000,2.8896520765e+000,2.5717824586e+000,2.4749181250e+000,3.0118955531e+000,3.1895582035e+000,2.8949534181e+000,3.1389201283e+000,2.1499483846e+000,2.7798542621e+000,2.2289694859e+000,3.3601925015e+000,3.1290123084e+000,3.3473256485e+000,
3.1031250000e+001,3.1808668892e+000,3.0825675523e+000,2.5266902773e+000,2.8708173173e+000,3.6207230999e+000,3.5916127720e+000,3.1083194016e+000,3.5023844436e+000,2.5845895194e+000,3.1464063255e+000,2.6126021850e+000,3.4538560500e+000,3.2492053385e+000,3.3380995035e+000,
3.1125000000e+001,3.6823005955e+000,3.4696540924e+000,2.9213472059e+000,3.1446176533e+000,4.0486956582e+000,3.8931044545e+000,3.4918551316e+000,3.7447741455e+000,2.8290886693e+000,3.4408303924e+000,2.7266464225e+000,3.6906966388e+000,3.3777592542e+000,3.4611739956e+000,
3.1218750000e+001,3.7190392557e+000,3.5251863361e+000,2.9829541382e+000,3.2093201129e+000,4.1014597707e+000,3.9440917706e+000,3.5573032037e+000,3.8133016392e+000,2.8676565571e+000,3.5088522554e+000,2.7807382367e+000,3.8017606954e+000,3.5460930247e+000,3.5190302482e+000,
3.1312500000e+001,3.7541872625e+000,3.6521938777e+000,3.0319580009e+000,3.3150663145e+000,4.1295720922e+000,4.0068902416e+000,3.6048235126e+000,3.9278477999e+000,2.9119297147e+000,3.6520681026e+000,2.8219757641e+000,3.8810049463e+000,3.5902418600e+000,3.5776724305e+000,
3.1406250000e+001,3.7837416781e+000,3.7201734361e+000,3.0342314692e+000,3.3242809061e+000,4.1253132943e+000,4.1153922844e+000,3.5581696703e+000,3.9425501509e+000,2.9695033218e+000,3.7450685227e+000,2.7824513760e+000,3.9559628417e+000,3.5707760037e+000,3.5340152175e+000,
3.1500000000e+001,3.8704814412e+000,3.8149125397e+000,3.1026761921e+000,3.4177350451e+000,4.1417454155e+000,4.1511275678e+000,3.6220099872e+000,3.9569388372e+000,3.0184570676e+000,3.7718168745e+000,2.6858326398e+000,3.9123232581e+000,3.5516495619e+000,3.5103695343e+000,
3.1593750000e+001,4.0061574991e+000,3.9228337426e+000,3.2177058258e+000,3.4575868316e+000,4.1582189706e+000,4.1925550119e+000,3.6532782092e+000,4.0463947915e+000,3.0351666244e+000,3.7897683067e+000,2.7302206534e+000,3.9031025327e+000,3.5791815362e+000,3.4740454909e+000,
3.1687500000e+001,4.0045455843e+000,3.9418476129e+000,3.2285980566e+000,3.4860411361e+000,4.1667657725e+000,4.2055968205e+000,3.6807041837e+000,4.0235926385e+000,2.9268647851e+000,3.7965727628e+000,2.7624041899e+000,3.9289693563e+000,3.6040063952e+000,3.4407002192e+000,
3.1781250000e+001,4.0047449675e+000,3.9769064331e+000,3.3118102984e+000,3.6306847140e+000,4.1291143160e+000,4.2594292031e+000,3.6429464794e+000,4.1665514769e+000,2.9569137143e+000,3.9496249341e+000,2.7778619859e+000,4.0110667677e+000,3.6327816387e+000,3.5584404402e+000,
3.1875000000e+001,4.0007988178e+000,4.0781237661e+000,3.3773319207e+000,3.6503249003e+000,4.0922269592e+000,4.2598461194e+000,3.8050845629e+000,4.2201804297e+000,2.9663624351e+000,4.0080260577e+000,2.7977863194e+000,3.9756040209e+000,3.5927750132e+000,3.6337562080e+000,
3.1968750000e+001,4.0535467426e+000,4.1289036989e+000,3.4757807565e+000,3.6652758310e+000,4.0922659370e+000,4.3023073510e+000,3.8698965404e+000,4.2595166218e+000,2.9135021426e+000,4.0819668530e+000,2.7680152378e+000,3.9785819879e+000,3.5448917906e+000,3.7050509640e+000,
3.2062500000e+001,3.7068368089e+000,3.9103714667e+000,3.3227257683e+000,3.3595167124e+000,3.3731282924e+000,3.9815041659e+000,3.5037189285e+000,4.0258206965e+000,2.4821495041e+000,3.8982011870e+000,2.4206007089e+000,3.8701889077e+000,3.2843476683e+000,3.6841464287e+000,
3.2156250000e+001,3.5827435279e+000,3.8342309414e+000,3.2406896746e+000,3.2680340769e+000,3.1181831330e+000,3.8711952737e+000,3.3979001900e+000,3.9349278348e+000,2.3766399052e+000,3.8158484515e+000,2.2433807239e+000,3.7488631143e+000,3.0533316095e+000,3.5764545508e+000,
3.2250000000e+001,3.5450730018e+000,3.8095926705e+000,3.2310731598e+000,3.2520807835e+000,3.0052701884e+000,3.8827143138e+000,3.3513317338e+000,3.9328098478e+000,2.3537921536e+000,3.8053240889e+000,2.2493044254e+000,3.7179494608e+000,3.0566566280e+000,3.6451048918e+000,
3.2343750000e+001,3.6440580311e+000,3.9051451853e+000,3.3662944126e+000,3.3315043084e+000,3.1169597799e+000,3.9283946668e+000,3.3855548820e+000,3.9990676131e+000,2.4019068229e+000,3.8743645491e+000,2.2805214870e+000,3.7288254002e+000,2.9895685921e+000,3.6958756675e+000,
3.2437500000e+001,3.6921849384e+000,3.9325995821e+000,3.4672697241e+000,3.4622900731e+000,3.1767249349e+000,3.9837523306e+000,3.2922285881e+000,4.2004035676e+000,2.4823543281e+000,4.0107269024e+000,2.4085497908e+000,3.8173378015e+000,3.1261949771e+000,3.7014369417e+000,
3.2531250000e+001,3.8068916166e+000,4.1774028383e+000,3.5818640032e+000,3.5820153106e+000,3.0796871426e+000,4.1216514153e+000,3.3172447901e+000,4.3234387594e+000,2.6255291213e+000,4.2192929038e+000,2.3370805464e+000,3.9797598989e+000,3.1266895999e+000,3.8844281369e+000,
3.2625000000e+001,3.9268728153e+000,4.2358989853e+000,3.7564605042e+000,3.6975654569e+000,3.0220689775e+000,4.1681228541e+000,3.3284937927e+000,4.3618766158e+000,2.7200628886e+000,4.2693523504e+000,2.3762624678e+000,3.9897941341e+000,3.2532924837e+000,3.9639226831e+000,
3.2718750000e+001,3.9577513071e+000,4.2366986170e+000,3.7601928879e+000,3.6436073359e+000,3.0325835614e+000,4.1579969509e+000,3.4172616359e+000,4.3623823246e+000,2.7109707987e+000,4.2326691897e+000,2.4045803153e+000,3.9567234975e+000,3.2788984993e+000,3.9169492233e+000,
3.2812500000e+001,4.0218333125e+000,4.2811837990e+000,3.8046878867e+000,3.6850792376e+000,3.0773418955e+000,4.1243331976e+000,3.4528901197e+000,4.3291819344e+000,2.6995361203e+000,4.2008904452e+000,2.3726546678e+000,3.9076347224e+000,3.3334268858e+000,3.8749772413e+000,
3.2906250000e+001,3.9250989943e+000,4.2108539628e+000,3.7537314056e+000,3.6867611239e+000,2.8920365189e+000,4.0788254377e+000,3.1220659148e+000,4.3042187062e+000,2.6216737230e+000,4.1560253818e+000,2.3237194950e+000,3.8828295976e+000,3.3767315258e+000,3.7218356974e+000,
3.3000000000e+001,3.8868446680e+000,4.1856522123e+000,3.7159153685e+000,3.6661951248e+000,2.8121872805e+000,4.0490567113e+000,3.0611353878e+000,4.2818311168e+000,2.7062609235e+000,4.0906289391e+000,2.2460395474e+000,3.7974907372e+000,3.4117547953e+000,3.7240753347e+000,
3.3093750000e+001,3.8835132398e+000,4.2219821198e+000,3.7457421393e+000,3.7597069148e+000,2.8391450238e+000,4.1788107164e+000,3.0782810840e+000,4.3668602832e+000,2.7803230233e+000,4.2094802234e+000,2.2643667866e+000,3.8291508002e+000,3.4793388272e+000,3.6827800929e+000,
3.3187500000e+001,3.8967093490e+000,4.2456110780e+000,3.7768188419e+000,3.7878000154e+000,2.8723537988e+000,4.2270875214e+000,3.1120072713e+000,4.3858796419e+000,2.8804347788e+000,4.2585332914e+000,2.3373126596e+000,3.8562991955e+000,3.5323854412e+000,3.7090892529e+000,
3.3281250000e+001,3.9370777364e+000,4.2403439151e+000,3.7919726816e+000,3.7138374413e+000,2.9202376097e+000,4.1957822040e+000,3.1000741954e+000,4.3518020996e+000,2.9058351481e+000,4.1577957902e+000,2.2530050142e+000,3.7690216309e+000,3.4504542347e+000,3.6020018092e+000,
3.3375000000e+001,3.8559143342e+000,4.2239817510e+000,3.7146600137e+000,3.7163728986e+000,2.9028033228e+000,4.2184748295e+000,3.0799329491e+000,4.3344359988e+000,2.8670026676e+000,4.1553717368e+000,2.1849194340e+000,3.7806575752e+000,3.4155107631e+000,3.6124550227e+000,
3.3468750000e+001,3.8014294208e+000,4.0572533305e+000,3.6203378957e+000,3.4512898078e+000,3.0116112673e+000,3.9769144596e+000,3.1878821101e+000,4.0234915698e+000,2.9470056987e+000,3.8211440307e+000,2.2174064249e+000,3.5575210091e+000,3.4013599444e+000,3.4858348072e+000,
3.3562500000e+001,3.6789876264e+000,3.7889940029e+000,3.3523721255e+000,3.2671630315e+000,3.0237474997e+000,3.8900628506e+000,3.0957441373e+000,3.9125624617e+000,2.7967949479e+000,3.6558194494e+000,2.2102547391e+000,3.4515537722e+000,3.3957853620e+000,3.3246057933e+000,
3.3656250000e+001,3.5167878515e+000,3.7348223243e+000,3.1669643902e+000,3.1973661801e+000,3.1376021053e+000,3.8645570536e+000,3.0900326336e+000,3.8968392883e+000,2.8154297415e+000,3.5722006588e+000,2.2803278274e+000,3.4031772953e+000,3.3120616620e+000,3.3201459224e+000,
3.3750000000e+001,3.5229674888e+000,3.7662288302e+000,3.1936070448e+000,3.0821999023e+000,3.1437081474e+000,3.8455521810e+000,2.9517560364e+000,3.7728200232e+000,2.8955956540e+000,3.5271779307e+000,2.1860491534e+000,3.4163824076e+000,3.2283798159e+000,3.2951691653e+000,
3.3843750000e+001,3.4172534586e+000,3.6907234517e+000,3.0724822492e+000,2.9089702181e+000,3.1576226342e+000,3.8502184878e+000,3.0151809673e+000,3.7212613672e+000,2.8737194210e+000,3.4960584427e+000,2.1449966943e+000,3.4508267767e+000,3.1167347863e+000,3.4376327415e+000,
3.3937500000e+001,3.4706623353e+000,3.7908484617e+000,3.1381270389e+000,2.9822076718e+000,3.1792050206e+000,3.9318869826e+000,3.2994103792e+000,3.7809985397e+000,2.9207113025e+000,3.5300005210e+000,2.0753759237e+000,3.5484005489e+000,3.1272248103e+000,3.5024634904e+000,
3.4031250000e+001,3.4521319307e+000,3.7773995505e+000,3.0869447262e+000,2.7734729354e+000,3.2460407638e+000,3.8067109422e+000,3.3241631042e+000,3.6834421153e+000,2.8736084355e+000,3.3118044202e+000,2.1086815667e+000,3.4526886524e+000,3.1665532223e+000,3.4244739413e+000,
3.4125000000e+001,3.4692025092e+000,3.8534928015e+000,3.0795895786e+000,2.7780455234e+000,3.3469687230e+000,3.8631131512e+000,3.3245905074e+000,3.7152790562e+000,2.8449154866e+000,3.2355777320e+000,2.2366951824e+000,3.5194056310e+000,3.2909319138e+000,3.5390852435e+000,
3.4218750000e+001,3.4948921399e+000,3.8351119869e+000,3.1162333807e+000,2.8331751664e+000,3.4548851057e+000,3.8300328973e+000,3.3138697379e+000,3.7545939811e+000,2.7757894467e+000,3.1800136173e+000,2.2394100856e+000,3.5729110110e+000,3.3596176123e+000,3.5749018248e+000,
3.4312500000e+001,3.5267923983e+000,3.8189911133e+000,3.0464136563e+000,2.9029561353e+000,3.4036182436e+000,3.9019757316e+000,3.2958169858e+000,3.7613316185e+000,2.6885946117e+000,3.4002919686e+000,2.3317176816e+000,3.6586648689e+000,3.3876514392e+000,3.6236178583e+000,
3.4406250000e+001,3.4189446912e+000,3.7881133194e+000,3.0016149259e+000,2.9159066985e+000,3.3257195113e+000,3.8474322903e+000,3.2471033931e+000,3.7196873382e+000,2.5244148958e+000,3.4241511021e+000,2.3465912845e+000,3.6838782433e+000,3.4411834937e+000,3.4613184099e+000,
3.4500000000e+001,3.2962007742e+000,3.7765626322e+000,2.9836206512e+000,2.9723277656e+000,3.2823621159e+000,3.8224248400e+000,3.1798291617e+000,3.6399479228e+000,2.4366231906e+000,3.4965193323e+000,2.2588007155e+000,3.6885021756e+000,3.3666705729e+000,3.6006976980e+000,
3.4593750000e+001,3.3171297108e+000,3.8587065844e+000,3.0612448609e+000,3.0671346813e+000,3.2572199928e+000,3.8385214358e+000,3.2462551379e+000,3.6922328185e+000,2.4370097891e+000,3.5767059511e+000,2.1188660060e+000,3.7833136569e+000,3.2963806145e+000,3.5987317880e+000,
3.4687500000e+001,3.2958995046e+000,3.7919628528e+000,3.0273017096e+000,3.1242576408e+000,3.1459390513e+000,3.8228145241e+000,3.2119439874e+000,3.6996565987e+000,2.2206917532e+000,3.5801727356e+000,2.3214659405e+000,3.7775974781e+000,3.3184412957e+000,3.5749452076e+000,
3.4781250000e+001,3.1596723258e+000,3.6303901568e+000,2.9210903676e+000,3.1701755471e+000,3.1659184366e+000,3.7453699211e+000,3.2327565303e+000,3.7093271157e+000,2.0941353031e+000,3.5537554223e+000,2.3878707209e+000,3.6433639446e+000,3.3506753470e+000,3.4594355343e+000,
3.4875000000e+001,3.1184602291e+000,3.6324595084e+000,2.9101552892e+000,3.2168254217e+000,3.1258281940e+000,3.7018055915e+000,2.7399630596e+000,3.6306866898e+000,2.2559041834e+000,3.6560738346e+000,2.3784798589e+000,3.7045057605e+000,3.3031951248e+000,3.5409688726e+000,
3.4968750000e+001,3.1188403895e+000,3.5374325509e+000,2.8818150216e+000,3.2432038411e+000,3.1022194436e+000,3.6320106793e+000,2.6302905546e+000,3.5245431999e+000,2.1766806349e+000,3.6710514065e+000,2.3481439446e+000,3.6930548804e+000,3.1974509965e+000,3.7001822624e+000,
3.5062500000e+001,3.1054832059e+000,3.4165329254e+000,2.8972305172e+000,3.2288854852e+000,3.0271301751e+000,3.4957898184e+000,2.5834041869e+000,3.3966630834e+000,2.2222365061e+000,3.6644381605e+000,2.3009268599e+000,3.6550155272e+000,3.1153602676e+000,3.7418591454e+000,
3.5156250000e+001,3.1549563620e+000,3.3878107298e+000,2.9860408867e+000,3.1846213250e+000,3.0842269472e+000,3.4327919198e+000,2.6781474153e+000,3.3124209672e+000,2.1847242013e+000,3.6186468028e+000,2.3686155935e+000,3.6670766775e+000,3.1012709123e+000,3.8065544740e+000,
3.5250000000e+001,3.0436857527e+000,3.2772814765e+000,2.8737322662e+000,3.1291052140e+000,3.0101316406e+000,3.3221755642e+000,2.7199666747e+000,3.1462531248e+000,2.3369719224e+000,3.5709376906e+000,2.2544166534e+000,3.6322083792e+000,3.0002481261e+000,3.8460143130e+000,
3.5343750000e+001,2.9858164219e+000,3.3153215079e+000,2.8650880387e+000,3.0563879288e+000,3.1087390570e+000,3.1904898268e+000,2.7514189650e+000,2.9603481318e+000,2.5704457451e+000,3.4202020705e+000,2.3182957304e+000,3.5743813100e+000,3.0381051358e+000,3.8626838349e+000,
3.5437500000e+001,2.9368304531e+000,3.1437450915e+000,2.8635384757e+000,2.9944748244e+000,3.1025280421e+000,3.2894055937e+000,2.6595716299e+000,2.9768047331e+000,2.6101780810e+000,3.3505576530e+000,2.2946769691e+000,3.5271961075e+000,2.8375408933e+000,3.8336441274e+000,
3.5531250000e+001,2.9293986359e+000,3.2508175115e+000,2.9146157041e+000,3.0256568043e+000,3.0699314205e+000,3.4115783765e+000,2.6521667681e+000,3.1495684210e+000,2.6041374767e+000,3.3731020256e+000,2.2656210747e+000,3.4973765653e+000,2.7807969317e+000,3.7654646073e+000,
3.5625000000e+001,2.9132442306e+000,3.2231483464e+000,2.8806449821e+000,3.0231307512e+000,3.0752566918e+000,3.4846101910e+000,2.6375648705e+000,3.1634112343e+000,2.6479900199e+000,3.3986414908e+000,2.3456310892e+000,3.4411533938e+000,2.9621949051e+000,3.8025892423e+000,
3.5718750000e+001,3.2656280604e+000,3.4689686755e+000,3.1626301118e+000,2.9690324685e+000,3.1669736349e+000,3.5892451365e+000,2.8248459512e+000,3.2859184803e+000,2.7921335862e+000,3.4456112507e+000,2.1767948302e+000,3.4749012701e+000,2.8748438214e+000,3.7939536946e+000,
3.5812500000e+001,3.3011577497e+000,3.4988486918e+000,3.1190994708e+000,2.9701841486e+000,3.1713842755e+000,3.6167185167e+000,2.8206267634e+000,3.3424209880e+000,2.7243241509e+000,3.4490891704e+000,2.2436800907e+000,3.4827373737e+000,2.9418369259e+000,3.7770810224e+000,
3.5906250000e+001,3.2515616537e+000,3.4459289665e+000,3.1001858548e+000,2.8896385500e+000,3.2046683064e+000,3.6148897920e+000,2.8403923911e+000,3.4019305673e+000,2.7122497256e+000,3.3454649455e+000,2.2893131855e+000,3.4519914028e+000,2.9860683657e+000,3.7571920178e+000,
3.6000000000e+001,3.2846052087e+000,3.4379033662e+000,3.1556561597e+000,2.8264020761e+000,3.3157000726e+000,3.5910709808e+000,3.0466501616e+000,3.4220209558e+000,2.6638440152e+000,3.3209755340e+000,2.3119420694e+000,3.3652115425e+000,3.1069161271e+000,3.7309950088e+000,
3.6093750000e+001,3.2696418183e+000,3.4318022884e+000,3.1871823403e+000,2.8430389776e+000,3.3406681186e+000,3.5908254053e+000,3.0449690307e+000,3.4405477382e+000,2.6487975443e+000,3.3091837739e+000,2.4058612362e+000,3.3297932393e+000,3.1128802969e+000,3.6757457055e+000,
3.6187500000e+001,3.2758008371e+000,3.4816159252e+000,3.1365864022e+000,2.8935171743e+000,3.3179663726e+000,3.6268178790e+000,2.9816547383e+000,3.4828307267e+000,2.7119218901e+000,3.3184270483e+000,2.3824336899e+000,3.2344077155e+000,3.1914239184e+000,3.6859962897e+000,
3.6281250000e+001,3.3239235576e+000,3.5265986881e+000,3.1482792489e+000,2.9067178643e+000,3.3230999455e+000,3.6506634969e+000,3.0515379993e+000,3.5273566546e+000,2.6564750190e+000,3.2857580331e+000,2.3857250738e+000,3.2646732792e+000,3.3217697495e+000,3.7380619340e+000,
3.6375000000e+001,3.4191322116e+000,3.5710549801e+000,3.2160918805e+000,3.0851164348e+000,3.3798401375e+000,3.7803317172e+000,3.1482256285e+000,3.6068126395e+000,2.5568585366e+000,3.4604658502e+000,2.3287140815e+000,3.4440477294e+000,3.3828559361e+000,3.8112461032e+000,
3.6468750000e+001,3.4193113517e+000,3.5527189249e+000,3.2328950683e+000,2.9778579998e+000,3.3564572892e+000,3.6257255061e+000,3.1606199163e+000,3.5573708606e+000,2.5273219920e+000,3.3619690727e+000,2.3876533902e+000,3.3590770897e+000,3.5906125859e+000,3.8599329219e+000,
3.6562500000e+001,3.3734461703e+000,3.4502005052e+000,3.1622256664e+000,2.9185040825e+000,3.3571272735e+000,3.5447875157e+000,3.1066426078e+000,3.4504355098e+000,2.5227731604e+000,3.3528706651e+000,2.3676374928e+000,3.4794017412e+000,3.5754642349e+000,3.9504901072e+000,
3.6656250000e+001,3.3128280933e+000,3.4667455326e+000,3.2267258230e+000,3.0601332518e+000,3.4187434407e+000,3.5365158613e+000,3.1177011283e+000,3.5867713274e+000,2.5037125429e+000,3.4572734037e+000,2.2761199858e+000,3.5605351257e+000,3.5407550916e+000,3.9405941356e+000,
3.6750000000e+001,3.3183365553e+000,3.5473335831e+000,3.1181354219e+000,3.1414076506e+000,3.4777209903e+000,3.6874387670e+000,3.1688079418e+000,3.8276019084e+000,2.4725916572e+000,3.6460454347e+000,2.2461487889e+000,3.6895573206e+000,3.6086631349e+000,4.0822632858e+000,
3.6843750000e+001,3.4029256243e+000,3.5598988333e+000,3.2645299217e+000,3.1381467479e+000,3.5137323513e+000,3.6759982911e+000,3.1801854496e+000,3.7988940319e+000,2.5407904508e+000,3.6829573795e+000,2.2540126196e+000,3.7420131064e+000,3.6253287532e+000,4.1100359389e+000,
3.6937500000e+001,3.4268191545e+000,3.6605677857e+000,3.3375093853e+000,3.1744461070e+000,3.4773384860e+000,3.7346714943e+000,3.1388171646e+000,3.8607413718e+000,2.4267485434e+000,3.7651312340e+000,2.2634277479e+000,3.8883528996e+000,3.7187093818e+000,4.2978456967e+000,
3.7031250000e+001,3.4200453595e+000,3.7122608328e+000,3.3148682432e+000,3.1902631816e+000,3.4126196456e+000,3.7508666580e+000,3.0420368667e+000,3.8576910783e+000,2.5378325881e+000,3.7869392764e+000,2.1619209070e+000,3.9288423946e+000,3.6792640023e+000,4.2320389133e+000,
3.7125000000e+001,3.4429121566e+000,3.6708058723e+000,3.3181728003e+000,3.1593218627e+000,3.4043342446e+000,3.7405080112e+000,3.0696717694e+000,3.8211513468e+000,2.5574879861e+000,3.8004098213e+000,2.1560225110e+000,3.9174566278e+000,3.6505873507e+000,4.1566078331e+000,
3.7218750000e+001,3.4920703727e+000,3.6355015752e+000,3.3443141369e+000,3.1751759220e+000,3.3341569952e+000,3.7782763204e+000,3.0787187630e+000,3.8820283904e+000,2.5674566603e+000,3.8692045560e+000,2.1424788906e+000,3.9871231154e+000,3.5949692885e+000,4.2066465842e+000,
3.7312500000e+001,3.5421045141e+000,3.7018328038e+000,3.3440167337e+000,3.2225591874e+000,3.3326703123e+000,3.8014293092e+000,3.0247796367e+000,3.9310548581e+000,2.4538421492e+000,3.9785363579e+000,2.2142784862e+000,4.0696060145e+000,3.5581989207e+000,4.2523117202e+000,
3.7406250000e+001,3.4865868700e+000,3.7070442035e+000,3.3232266209e+000,3.1280689567e+000,3.3039070584e+000,3.7286569567e+000,2.9650902558e+000,3.9048571532e+000,2.3796221432e+000,3.9153651816e+000,2.2269170401e+000,3.9813474492e+000,3.5144753535e+000,4.1847320000e+000,
3.7500000000e+001,3.4879496606e+000,3.7404072878e+000,3.3646713149e+000,3.1484796250e+000,3.3683519332e+000,3.7583276562e+000,3.1266217638e+000,3.9584241609e+000,2.4029303838e+000,3.9210620329e+000,2.2718798595e+000,3.9616499509e+000,3.4191940486e+000,4.1668844581e+000,
3.7593750000e+001,3.3771272242e+000,3.7344233995e+000,3.3432558131e+000,3.1002185018e+000,3.3584975389e+000,3.7227006011e+000,3.1577556864e+000,3.8974727701e+000,2.3933974347e+000,3.8764511141e+000,2.4994351887e+000,3.9385691340e+000,3.5101522950e+000,4.1609323520e+000,
3.7687500000e+001,3.2315294991e+000,3.6029071269e+000,3.2220547776e+000,3.2098909554e+000,3.1679351038e+000,3.8978686075e+000,3.0088011235e+000,3.9471505830e+000,2.1924772923e+000,4.0534747492e+000,2.5320617624e+000,3.9967017417e+000,3.5193638985e+000,4.1965241856e+000,
3.7781250000e+001,3.3968436760e+000,3.7559258936e+000,3.3687706764e+000,3.3160372004e+000,3.3259810756e+000,3.9183358341e+000,3.1212200642e+000,3.9505849626e+000,2.4670250764e+000,4.0116707781e+000,2.6319619235e+000,4.0071674572e+000,3.5103301006e+000,4.1977718433e+000,
3.7875000000e+001,3.5220010678e+000,3.9458979303e+000,3.5076896939e+000,3.6813148893e+000,3.2723116655e+000,4.1653247182e+000,3.1972013341e+000,4.2387122605e+000,2.6179807011e+000,4.3125058834e+000,2.6659885140e+000,4.3114105617e+000,3.5907118405e+000,4.4997820715e+000,
3.7968750000e+001,3.8547681474e+000,4.1585925789e+000,3.7586581252e+000,3.9223035005e+000,3.3801420694e+000,4.3698517544e+000,3.4235228697e+000,4.4345145641e+000,2.6230516528e+000,4.5621351184e+000,2.6662267159e+000,4.4025485498e+000,3.5479724035e+000,4.5217496814e+000,
3.8062500000e+001,3.8747986458e+000,4.3121970711e+000,3.8223579035e+000,4.0411817331e+000,3.4288722941e+000,4.5336929476e+000,3.4491254064e+000,4.5698182441e+000,2.6014970403e+000,4.7351930778e+000,2.6614658974e+000,4.5065105649e+000,3.6372199449e+000,4.6683320390e+000,
3.8156250000e+001,3.8872632593e+000,4.3467863442e+000,3.8311429924e+000,4.0999448888e+000,3.4611113489e+000,4.5858897949e+000,3.4219294355e+000,4.5850608153e+000,2.5445645873e+000,4.7440658439e+000,2.6162380427e+000,4.5584612058e+000,3.6807637791e+000,4.7279144189e+000,
3.8250000000e+001,3.9399230164e+000,4.3818055905e+000,3.8870234707e+000,4.0841947379e+000,3.4598606970e+000,4.5860765767e+000,3.4250530386e+000,4.5999542841e+000,2.6013769028e+000,4.7285234865e+000,2.6550911749e+000,4.5206922249e+000,3.6593176376e+000,4.7345781379e+000,
3.8343750000e+001,3.8907745893e+000,4.3265921802e+000,3.8432362489e+000,4.0626866574e+000,3.4110872728e+000,4.5791420624e+000,3.3822665960e+000,4.6040805597e+000,2.6860116305e+000,4.6878396391e+000,2.7791603665e+000,4.4875538797e+000,3.6707442578e+000,4.7165831257e+000,
3.8437500000e+001,3.8874425365e+000,4.2836983457e+000,3.8351320695e+000,4.0881317131e+000,3.3771415160e+000,4.6001620162e+000,3.3572763169e+000,4.6214961861e+000,2.7720332380e+000,4.6831038952e+000,2.7992457701e+000,4.4998277348e+000,3.6568835788e+000,4.7343985686e+000,
3.8531250000e+001,3.8722403977e+000,4.2842313328e+000,3.7573647993e+000,4.1309949175e+000,3.2909285599e+000,4.6086277557e+000,3.2035028706e+000,4.5845467824e+000,2.7571461318e+000,4.6897963796e+000,2.7414176697e+000,4.5059582475e+000,3.6388889252e+000,4.7725030273e+000,
3.8625000000e+001,3.9363060352e+000,4.2816582679e+000,3.8198271636e+000,4.1109128571e+000,3.3527378255e+000,4.5762027440e+000,3.2460131971e+000,4.5727997580e+000,2.7981663296e+000,4.6527927434e+000,2.6998248271e+000,4.4840102413e+000,3.5179230846e+000,4.7248219106e+000,
3.8718750000e+001,3.9521773682e+000,4.3138492722e+000,3.7905629301e+000,4.0417074129e+000,3.4659943076e+000,4.5112551225e+000,3.2793411849e+000,4.4646231248e+000,2.8423453196e+000,4.5763646837e+000,2.6448204167e+000,4.4193832101e+000,3.4403332973e+000,4.6735628107e+000,
3.8812500000e+001,3.8535530406e+000,4.3243114299e+000,3.6835311486e+000,4.0320242151e+000,3.4052939348e+000,4.5353318234e+000,3.1839301447e+000,4.4025582991e+000,2.7777420444e+000,4.6063778742e+000,2.6617370723e+000,4.3769313205e+000,3.3540800619e+000,4.6670058908e+000,
3.8906250000e+001,3.7490417035e+000,4.1608042257e+000,3.4779133716e+000,3.7342881388e+000,3.4988042894e+000,4.3205815962e+000,2.9764522017e+000,4.1258810146e+000,2.6782059951e+000,4.3488153582e+000,2.5935559724e+000,4.0232921739e+000,3.3020551281e+000,4.4076552268e+000,
3.9000000000e+001,3.5788784402e+000,3.8703400901e+000,3.2110440035e+000,3.3729464692e+000,3.4031454192e+000,3.9811374506e+000,2.8841831691e+000,3.7824578592e+000,2.6242975319e+000,3.8822036191e+000,2.5749377747e+000,3.6966106527e+000,3.0813470790e+000,4.1176113122e+000,
3.9093750000e+001,3.6295375634e+000,3.8671012988e+000,3.3258369044e+000,3.2884483406e+000,3.3879798361e+000,3.9486131389e+000,2.8271744775e+000,3.7757539219e+000,2.6037548586e+000,3.8572668285e+000,2.6512727593e+000,3.7296793839e+000,3.1245962828e+000,4.0983240861e+000,
3.9187500000e+001,3.4380297123e+000,3.8068997120e+000,3.1770456015e+000,3.2230627782e+000,3.3536564763e+000,3.8429816432e+000,2.7437945450e+000,3.7836576690e+000,2.6966371632e+000,3.8145262791e+000,2.7066143360e+000,3.5678446142e+000,3.1363399076e+000,3.9502722475e+000,
3.9281250000e+001,3.4502781029e+000,3.7794865419e+000,3.1789276279e+000,3.2120137660e+000,3.3615176007e+000,3.8312814424e+000,2.7777527896e+000,3.7542097850e+000,2.7816353692e+000,3.7844579799e+000,2.6122145528e+000,3.5327148325e+000,3.1403265566e+000,3.7912524749e+000,
3.9375000000e+001,3.4527802162e+000,3.8110048921e+000,3.2241959182e+000,3.2071369393e+000,3.3532945878e+000,3.8086273108e+000,2.7624370893e+000,3.6527476866e+000,2.7876648564e+000,3.8219484080e+000,2.5037500167e+000,3.5624723013e+000,3.2680053351e+000,3.8130246064e+000,
3.9468750000e+001,3.4876054532e+000,3.8584446861e+000,3.2152346052e+000,3.1342809930e+000,3.3905289196e+000,3.8307833168e+000,2.8066989617e+000,3.6564506649e+000,2.8678687745e+000,3.8499687348e+000,2.5809758309e+000,3.5853763619e+000,3.2940946977e+000,3.7770760847e+000,
3.9562500000e+001,3.5076488799e+000,3.8346728505e+000,3.1714300104e+000,3.0865403138e+000,3.3810836454e+000,3.8706212836e+000,2.8193065620e+000,3.7176755460e+000,2.8738036027e+000,3.8436622646e+000,2.6435893827e+000,3.5707020285e+000,3.2568826782e+000,3.7730961727e+000,
3.9656250000e+001,3.4333998002e+000,3.8219611483e+000,3.1864743968e+000,3.0353062214e+000,3.2836587649e+000,3.8957102990e+000,2.7633308025e+000,3.7480557073e+000,2.7994828178e+000,3.8490045578e+000,2.6393115082e+000,3.6065454386e+000,3.3121718312e+000,3.8504349314e+000,
3.9750000000e+001,3.2720332553e+000,3.5056785358e+000,3.0897016252e+000,2.8872453320e+000,3.1628650890e+000,3.7050483306e+000,2.5870593589e+000,3.6746581619e+000,2.7482954065e+000,3.6141106472e+000,2.6545608721e+000,3.5492601659e+000,3.3757090507e+000,3.7215051257e+000,
3.9843750000e+001,3.2471524084e+000,3.5152998972e+000,3.0565814319e+000,2.9352906454e+000,3.1980386199e+000,3.6509436689e+000,2.5453480030e+000,3.7551239650e+000,2.7066272572e+000,3.6267952996e+000,2.6658597812e+000,3.7400032342e+000,3.4442930130e+000,3.8685107376e+000,
3.9937500000e+001,3.0965068749e+000,3.4799466205e+000,2.9282313238e+000,2.8550335881e+000,3.0941636557e+000,3.6723915652e+000,2.5128342486e+000,3.7682671333e+000,2.6779967630e+000,3.5944873790e+000,2.7020859926e+000,3.6542596048e+000,3.3999499367e+000,3.7715464190e+000,
4.0031250000e+001,3.1912491260e+000,3.5484419732e+000,3.0368339413e+000,3.0121454972e+000,3.2499325110e+000,3.7826463005e+000,2.6337637459e+000,3.8372718193e+000,2.7172673952e+000,3.6799768522e+000,2.6666146168e+000,3.6837180650e+000,3.4726494146e+000,3.7846630465e+000,
4.0125000000e+001,3.0521413300e+000,3.4309764907e+000,2.9159109058e+000,3.0357733547e+000,3.2085001028e+000,3.7844803116e+000,2.5882093332e+000,3.6909328715e+000,2.8764258363e+000,3.6133813509e+000,2.6279756156e+000,3.6569314449e+000,3.4451187433e+000,3.7841964275e+000,
4.0218750000e+001,3.1250566912e+000,3.4340075985e+000,2.9166229886e+000,3.1456770965e+000,3.2120343605e+000,3.8684112464e+000,2.5941953099e+000,3.7185336053e+000,2.7523034718e+000,3.6821221208e+000,2.5954480160e+000,3.6475086511e+000,3.3706229223e+000,3.8021252081e+000,
4.0312500000e+001,3.1971244793e+000,3.4233482239e+000,2.8977417297e+000,3.1577510057e+000,3.2164558249e+000,3.8321934960e+000,2.7338567343e+000,3.7257912223e+000,2.5621316570e+000,3.6625021579e+000,2.6105161821e+000,3.5872444045e+000,3.3295082554e+000,3.7888848778e+000,
4.0406250000e+001,3.2503309982e+000,3.4620077136e+000,2.8964555412e+000,3.0820099487e+000,3.3412441409e+000,3.7351777290e+000,2.7772233574e+000,3.6677170525e+000,2.4940548672e+000,3.5900128552e+000,2.5433522927e+000,3.5065958657e+000,3.2522964152e+000,3.7506652894e+000,
4.0500000000e+001,3.3948112898e+000,3.5686753645e+000,2.9733945107e+000,3.1288930546e+000,3.5948076320e+000,3.8169198374e+000,2.9183396471e+000,3.7118018875e+000,2.3963006483e+000,3.6370398407e+000,2.4604118317e+000,3.6423124552e+000,3.2630309748e+000,3.8198685609e+000,
4.0593750000e+001,3.4448550011e+000,3.6035186137e+000,3.0269427637e+000,3.0709480918e+000,3.6145875508e+000,3.7744476997e+000,2.9400219535e+000,3.6785447978e+000,2.4488278091e+000,3.6357017834e+000,2.5460402964e+000,3.6176431985e+000,3.2350231952e+000,3.8070723779e+000,
4.0687500000e+001,3.4696940488e+000,3.6634457957e+000,3.0801599950e+000,3.2014377590e+000,3.6486667795e+000,3.8179994058e+000,3.0088494111e+000,3.7174854448e+000,2.5180281734e+000,3.7232211925e+000,2.6520087678e+000,3.6941246051e+000,3.2256219915e+000,3.7919608154e+000,
4.0781250000e+001,3.4790306728e+000,3.6831625277e+000,3.1832118397e+000,3.1922597092e+000,3.7568071211e+000,3.8610053057e+000,3.1370418809e+000,3.7163945421e+000,2.7800452071e+000,3.8161975098e+000,2.6447698413e+000,3.9651367409e+000,3.1779954566e+000,3.8048383590e+000,
4.0875000000e+001,3.4381024238e+000,3.6929541060e+000,3.2339109020e+000,3.0912279858e+000,3.7275203528e+000,3.8204910901e+000,3.1856774116e+000,3.5677514410e+000,2.8269447860e+000,3.7304651398e+000,2.6242595381e+000,3.8921283328e+000,3.2143379344e+000,3.7436438398e+000,
4.0968750000e+001,3.5773582324e+000,3.7515587808e+000,3.2805577510e+000,3.2114849552e+000,3.7515861400e+000,3.9107499723e+000,3.1889981245e+000,3.6433664291e+000,2.9038439837e+000,3.7706888288e+000,2.6758343650e+000,3.8891719990e+000,3.1635817959e+000,3.6750352720e+000,
4.1062500000e+001,3.6526729277e+000,3.8241563517e+000,3.2866241948e+000,3.1992434180e+000,3.7108439687e+000,3.9172707887e+000,3.1264167062e+000,3.6942348064e+000,2.8988075106e+000,3.8949587891e+000,2.7147060921e+000,3.8409640079e+000,3.3756091211e+000,3.6982848245e+000,
4.1156250000e+001,3.6619073796e+000,3.8549458562e+000,3.2893675530e+000,3.1343060120e+000,3.7224807853e+000,3.8319844148e+000,3.1521417743e+000,3.6757620396e+000,2.7782849371e+000,3.8386272855e+000,2.7891796704e+000,3.8309016965e+000,3.4429188221e+000,3.7819389826e+000,
