Time (s),AF3,AF4,F3,F4,F7,F8,FC5,FC6,T7,T8,P7,P8,O1,O2,Sampling Rate
0.0000000000e+000,4.2831052322e+000,4.4072833607e+000,4.3121150634e+000,4.0435584006e+000,4.8143269635e+000,4.6823606697e+000,2.0186873672e+000,2.9106818007e+000,3.0149286222e+000,2.7217925686e+000,1.0567079957e+000,2.7180086485e+000,2.4176750077e+000,3.0127072690e+000,1
9.3750000000e-002,4.3327802846e+000,4.4470622182e+000,4.3548356534e+000,4.1046608205e+000,4.9318693448e+000,4.6509634322e+000,1.9072005587e+000,2.9105935652e+000,3.1204455553e+000,2.8530004510e+000,1.0815403225e+000,2.7305832048e+000,2.5848144697e+000,3.0516430260e+000,
1.8750000000e-001,4.2550546143e+000,4.4819918525e+000,4.3493804326e+000,4.1248338031e+000,4.9024399470e+000,4.5092614750e+000,1.8766141365e+000,2.9883653547e+000,3.0470806540e+000,2.8656841417e+000,9.8127111144e-001,2.7018278070e+000,2.5437852579e+000,3.0801221766e+000,
2.8125000000e-001,4.2762182695e+000,4.4559891678e+000,4.3698608038e+000,4.1164705944e+000,4.8918608273e+000,4.4612874989e+000,1.9627775343e+000,3.0041323017e+000,2.9586127333e+000,2.8775869695e+000,9.7512378745e-001,2.6945928951e+000,2.5242020850e+000,3.0748084812e+000,
3.7500000000e-001,4.2734712089e+000,4.4573032060e+000,4.3577595673e+000,4.0489264780e+000,4.9362895313e+000,4.4090316763e+000,1.9981337534e+000,2.9637975480e+000,2.9386604625e+000,2.8290620765e+000,8.8023254693e-001,2.6404927536e+000,2.4860137870e+000,2.9456593656e+000,
4.6875000000e-001,4.2573156618e+000,4.4227084531e+000,4.3453642765e+000,3.9547952819e+000,4.9394542913e+000,4.3817487255e+000,1.9753956811e+000,2.9260398114e+000,2.9225650407e+000,2.8068336781e+000,9.3739573442e-001,2.5948170227e+000,2.5036863612e+000,2.9174135658e+000,
5.6250000000e-001,4.2392486491e+000,4.3868161030e+000,4.3188726017e+000,3.9802496866e+000,4.9093262000e+000,4.3954557934e+000,1.9849666816e+000,2.8668764641e+000,2.9414805835e+000,2.8000722286e+000,9.4590792216e-001,2.6225697486e+000,2.4510099857e+000,2.9397543134e+000,
6.5625000000e-001,4.2342711298e+000,4.4393416846e+000,4.3282187165e+000,3.9931109728e+000,4.9523866277e+000,4.3409350286e+000,1.9007893272e+000,2.8832456320e+000,2.9301102268e+000,2.7995743260e+000,9.4965075116e-001,2.6714358729e+000,2.4634984322e+000,2.9329443602e+000,
7.5000000000e-001,4.1591796461e+000,4.3462353419e+000,4.2878152628e+000,3.9759745985e+000,4.9674689475e+000,4.4546424100e+000,1.8311682607e+000,2.8234329195e+000,2.9335235433e+000,2.6733814918e+000,9.5832460495e-001,2.6520284649e+000,2.4690825096e+000,2.9156446293e+000,
8.4375000000e-001,4.1592753131e+000,4.3910615726e+000,4.2574900835e+000,4.0225722516e+000,4.8368299506e+000,4.3806753161e+000,1.8362796430e+000,2.7616617021e+000,2.9033825349e+000,2.5715843379e+000,1.0342571408e+000,2.6067883755e+000,2.5056871226e+000,2.9098760153e+000,
9.3750000000e-001,3.9218394636e+000,4.2458287123e+000,3.8046903052e+000,3.8252986922e+000,4.7578272025e+000,4.3702905441e+000,1.6830007360e+000,2.7585000172e+000,2.8189767690e+000,2.2161130498e+000,1.0626569709e+000,2.4408454173e+000,2.2958877698e+000,2.6384741522e+000,
1.0312500000e+000,3.9061547847e+000,4.3630907639e+000,3.7883451131e+000,3.8656595583e+000,4.6710072607e+000,4.4017310054e+000,1.6947346134e+000,2.7607258979e+000,2.6774416279e+000,1.8207979749e+000,1.0068415331e+000,2.3640879592e+000,2.2203981897e+000,2.5066996493e+000,
1.1250000000e+000,3.8908119913e+000,4.2582712068e+000,3.7491393865e+000,3.8024040988e+000,4.7436672717e+000,4.4551550277e+000,1.7044315114e+000,2.6983396116e+000,2.6245511050e+000,1.4822306143e+000,9.4054027673e-001,2.2732812832e+000,2.1229798515e+000,2.4914537327e+000,
1.2187500000e+000,3.9198609962e+000,4.2443211481e+000,3.7237602647e+000,3.8030243986e+000,4.7005086785e+000,4.5605085535e+000,1.5941975017e+000,2.5766783067e+000,2.5782624248e+000,1.4837752619e+000,1.0602158748e+000,2.2772010819e+000,2.1204315137e+000,2.3747013373e+000,
1.3125000000e+000,3.8408731380e+000,4.3048029639e+000,3.6206113830e+000,3.8172553920e+000,4.6898560792e+000,4.6031797894e+000,1.5366382665e+000,2.4980345830e+000,2.5364886966e+000,1.5129787707e+000,1.1768791070e+000,2.3489900479e+000,2.0930989724e+000,2.3928798301e+000,
1.4062500000e+000,3.8888547139e+000,4.2805143328e+000,3.6669879717e+000,3.8430840771e+000,4.6740743828e+000,4.5912701567e+000,1.4637468185e+000,2.4951026049e+000,2.5687476627e+000,1.5631161929e+000,1.1665333330e+000,2.4976369925e+000,2.1621172273e+000,2.4421521658e+000,
1.5000000000e+000,3.9264978072e+000,4.3020034941e+000,3.7209313043e+000,3.8791432598e+000,4.5399665802e+000,4.5555731440e+000,1.5634616138e+000,2.4937341131e+000,2.6069451958e+000,1.5508291591e+000,1.1828992731e+000,2.6149794194e+000,2.3174833090e+000,2.5289365205e+000,
1.5937500000e+000,3.8640530259e+000,4.3026060820e+000,3.5770061282e+000,3.7860611491e+000,4.3746086603e+000,4.6173327981e+000,1.7597635258e+000,2.5381654781e+000,2.5362610445e+000,1.4362079887e+000,1.2535737429e+000,2.6489795116e+000,2.4036609721e+000,2.5682107235e+000,
1.6875000000e+000,3.8769506258e+000,4.2652166381e+000,3.5602305866e+000,3.7408834588e+000,4.4450558999e+000,4.6598857154e+000,1.7937762096e+000,2.5399205477e+000,2.4989381387e+000,1.5055702615e+000,1.2845015336e+000,2.6459943944e+000,2.4297270639e+000,2.6673594160e+000,
1.7812500000e+000,3.9612083673e+000,4.2074836284e+000,3.7000233506e+000,3.6842388416e+000,4.5370102379e+000,4.5691378099e+000,1.7675114486e+000,2.6066771923e+000,2.5069310727e+000,1.4373598430e+000,1.3002506590e+000,2.6517537781e+000,2.4469280356e+000,2.6536584266e+000,
1.8750000000e+000,4.0511121760e+000,4.3378709838e+000,3.7036849888e+000,3.7519834174e+000,4.4866554072e+000,4.5555048671e+000,1.7797780248e+000,2.6716553456e+000,2.5239832524e+000,1.4326839752e+000,1.3945770281e+000,2.6878891098e+000,2.4572334829e+000,2.6624664659e+000,
1.9687500000e+000,3.9926568030e+000,4.2907142363e+000,3.6927396528e+000,3.5525113091e+000,4.4449769223e+000,4.5153817517e+000,1.7498429002e+000,2.5901671661e+000,2.3097849474e+000,1.3946800901e+000,1.4425255388e+000,2.6090260299e+000,2.3454882801e+000,2.6279965148e+000,
2.0625000000e+000,4.0169987106e+000,4.3366069836e+000,3.6741301519e+000,3.5621472976e+000,4.5167666525e+000,4.5276788106e+000,1.7337899590e+000,2.6355908887e+000,2.2790880774e+000,1.4325050054e+000,1.5088517247e+000,2.6516045979e+000,2.3718592593e+000,2.6306255915e+000,
2.1562500000e+000,4.0357659929e+000,4.3074501736e+000,3.6252104444e+000,3.5171689931e+000,4.5095789996e+000,4.4978561818e+000,1.7139464495e+000,2.7535589215e+000,2.2167422381e+000,1.4093541660e+000,1.5625014393e+000,2.6640468880e+000,2.3837478854e+000,2.6240343971e+000,
2.2500000000e+000,3.9876766208e+000,4.3576481580e+000,3.6089687007e+000,3.5106738956e+000,4.5462493407e+000,4.4256243960e+000,1.7982156647e+000,2.8062779848e+000,2.1965291856e+000,1.2682442227e+000,1.5645897010e+000,2.6650785100e+000,2.4276752751e+000,2.6603402246e+000,
2.3437500000e+000,4.0116196034e+000,4.2862582971e+000,3.5771452914e+000,3.4538002188e+000,4.5674183760e+000,4.3739897378e+000,1.8002244672e+000,2.8496393447e+000,2.1750633174e+000,1.1325757348e+000,1.5448377194e+000,2.5562061362e+000,2.3820795755e+000,2.6552688189e+000,
2.4375000000e+000,3.9664682994e+000,4.4058006969e+000,3.5911952854e+000,3.5358184638e+000,4.6077381084e+000,4.4798648332e+000,1.7658707506e+000,2.8988848232e+000,2.2037844021e+000,1.0932777199e+000,1.5663436656e+000,2.6458300626e+000,2.4593033556e+000,2.7240967625e+000,
2.5312500000e+000,3.9564919206e+000,4.3721161867e+000,3.5933200013e+000,3.4349119290e+000,4.6970388607e+000,4.5087132878e+000,1.7886678169e+000,2.8065754268e+000,2.1074029892e+000,1.2292631684e+000,1.5324868436e+000,2.4415704963e+000,2.3144288053e+000,2.6669275027e+000,
2.6250000000e+000,3.9649884457e+000,4.3224600967e+000,3.6173979263e+000,3.4455419043e+000,4.7398722751e+000,4.3858693381e+000,1.6124304213e+000,2.7634758342e+000,2.0594403413e+000,1.2593694927e+000,1.5290456860e+000,2.4015315209e+000,2.1984686374e+000,2.5391525304e+000,
2.7187500000e+000,3.9295196320e+000,4.3138138139e+000,3.6008552624e+000,3.4595024594e+000,4.6387114125e+000,4.3384203744e+000,1.5916953514e+000,2.7717164887e+000,2.1282576335e+000,1.2924896589e+000,1.5536422111e+000,2.4610344352e+000,2.1544918634e+000,2.5741775883e+000,
2.8125000000e+000,3.7900828250e+000,4.2813435580e+000,3.4165697661e+000,3.4282725866e+000,4.5242067913e+000,4.4270296427e+000,1.6522113313e+000,2.7187584877e+000,2.0370149771e+000,1.3257889071e+000,1.4562506947e+000,2.4731099735e+000,2.1722460474e+000,2.6546227746e+000,
2.9062500000e+000,3.7336531214e+000,4.0719922117e+000,3.5125478177e+000,3.4278358718e+000,4.5374692974e+000,4.4832507804e+000,1.6262897631e+000,2.7295992952e+000,2.2593571784e+000,1.4265471114e+000,1.5104574442e+000,2.5648357797e+000,2.2416430948e+000,2.7062115496e+000,
3.0000000000e+000,3.8784137085e+000,4.0325410795e+000,3.5224364477e+000,3.3847456597e+000,4.5393870613e+000,4.5517443281e+000,1.6588611351e+000,2.7320611621e+000,2.4520009638e+000,1.4891202940e+000,1.4964000700e+000,2.6157047951e+000,2.3011420747e+000,2.6928591794e+000,
3.0937500000e+000,3.8953587863e+000,4.1450184243e+000,3.5810710825e+000,3.5698455984e+000,4.4710115039e+000,4.6368272541e+000,1.7285066269e+000,2.8288046414e+000,2.5775206195e+000,1.5054110126e+000,1.4679710334e+000,2.7215673202e+000,2.4655624378e+000,2.8596652420e+000,
3.1875000000e+000,3.9217901267e+000,4.2292539291e+000,3.7175691863e+000,3.7195291423e+000,4.3935216838e+000,4.7756069081e+000,1.8123124631e+000,2.7389982844e+000,2.6116654648e+000,1.6854832516e+000,1.5363810248e+000,2.7590322273e+000,2.5585327813e+000,2.9310040186e+000,
3.2812500000e+000,3.9831280565e+000,4.2836277601e+000,3.7956211369e+000,3.8889028827e+000,4.3946390382e+000,4.8223126302e+000,1.8237137930e+000,2.8556111462e+000,2.6256345988e+000,1.8095906943e+000,1.5245092674e+000,2.8170562008e+000,2.6459027260e+000,3.0535568536e+000,
3.3750000000e+000,4.0057481367e+000,4.3354125981e+000,3.8594722826e+000,3.9526047757e+000,4.3794383042e+000,4.8459589376e+000,1.8783919545e+000,2.8591167818e+000,2.7193297020e+000,1.9456853876e+000,1.5924508758e+000,2.8884674218e+000,2.6919257001e+000,3.0686760966e+000,
3.4687500000e+000,4.0143900675e+000,4.3267346689e+000,3.8346892427e+000,3.9365069460e+000,4.5349775189e+000,4.8662696200e+000,1.8304783342e+000,2.7926555359e+000,2.8868984703e+000,2.0202692485e+000,1.6828930923e+000,2.8656318080e+000,2.7130287747e+000,3.0637640276e+000,
3.5625000000e+000,3.9787460346e+000,4.3148550317e+000,3.8827252821e+000,3.8882747827e+000,4.5056840957e+000,4.8453221709e+000,1.8279072869e+000,2.7598015178e+000,2.9393441425e+000,1.9767270040e+000,1.6912350501e+000,2.8782777561e+000,2.7316416365e+000,3.1337711302e+000,
3.6562500000e+000,3.9535712639e+000,4.2576178436e+000,3.8360525957e+000,3.8766804370e+000,4.4252408133e+000,4.8352701521e+000,1.8806820568e+000,2.7580581959e+000,2.9504746773e+000,1.9061727482e+000,1.7050021884e+000,2.8856561124e+000,2.8170417416e+000,3.1306287325e+000,
3.7500000000e+000,3.9847966228e+000,4.2427972415e+000,3.8267811868e+000,3.8848205504e+000,4.4150903724e+000,4.8382464994e+000,1.8619989508e+000,2.6790953521e+000,2.9494967001e+000,1.9212956107e+000,1.7148981120e+000,2.8675442490e+000,2.8395231136e+000,3.0788136982e+000,
3.8437500000e+000,4.0023015397e+000,4.2068134423e+000,3.7933534260e+000,3.9119720595e+000,4.3581631710e+000,4.9352127482e+000,1.7798361772e+000,2.7196049094e+000,2.8963109332e+000,1.8974149362e+000,1.6929206032e+000,2.9551003311e+000,2.8041533857e+000,3.1208793843e+000,
3.9375000000e+000,3.9608576293e+000,4.1903310084e+000,3.7482853910e+000,3.9089937338e+000,4.2144896582e+000,4.9000790000e+000,2.0497609607e+000,2.6549250617e+000,2.8563958531e+000,1.8499733173e+000,1.7418461084e+000,2.9596208205e+000,2.9023346687e+000,3.1529566654e+000,
4.0312500000e+000,3.7426513984e+000,4.1034584273e+000,3.6608971190e+000,3.8965815685e+000,4.1255241361e+000,4.8403361303e+000,2.5041392153e+000,2.6635260763e+000,2.6745293871e+000,1.8203633237e+000,1.7584546918e+000,2.8876087735e+000,2.8258918274e+000,3.0577769693e+000,
4.1250000000e+000,3.7845000900e+000,3.9779681455e+000,3.5689919700e+000,3.7224899946e+000,4.0103465507e+000,4.7307529361e+000,2.5740945506e+000,2.5747017020e+000,2.6039297759e+000,1.7594949159e+000,1.7365525428e+000,2.8830008029e+000,2.8047081001e+000,3.0581023691e+000,
4.2187500000e+000,3.8009904317e+000,3.8464082982e+000,3.4154580267e+000,3.5974242616e+000,4.0249573564e+000,4.5720615607e+000,2.5807179286e+000,2.4275443036e+000,2.6103467825e+000,1.6164708384e+000,1.6905720497e+000,2.8844746552e+000,2.7609096779e+000,2.9720275463e+000,
4.3125000000e+000,3.9405680070e+000,3.7518535387e+000,3.3462762882e+000,3.4439221337e+000,3.9426235054e+000,4.4838736973e+000,2.6609928854e+000,2.2580495073e+000,2.6124887226e+000,1.5543622555e+000,1.6206863570e+000,2.8261046895e+000,2.7893660377e+000,2.9223720533e+000,
4.4062500000e+000,3.9416072812e+000,3.4591431957e+000,3.3011341098e+000,3.3292619986e+000,3.4882309261e+000,4.3137923324e+000,2.6851369409e+000,2.2897174708e+000,2.4649950508e+000,1.4291323481e+000,1.5449012200e+000,2.7523361932e+000,2.7758591343e+000,2.9297581876e+000,
4.5000000000e+000,3.9373198913e+000,3.4895064067e+000,3.2130000911e+000,3.3117457253e+000,2.8749458422e+000,4.0996904285e+000,2.6761575030e+000,2.3333564955e+000,2.1645912457e+000,1.3538686725e+000,1.4409168802e+000,2.7376912963e+000,2.6990758195e+000,2.8630187847e+000,
4.5937500000e+000,4.0285639729e+000,3.6075630970e+000,3.1647901098e+000,3.3743031461e+000,2.8545676607e+000,4.1371860061e+000,2.6436249245e+000,2.3223240133e+000,2.2243233250e+000,1.2764083988e+000,1.4190867840e+000,2.7598123552e+000,2.8251719928e+000,2.8099312030e+000,
4.6875000000e+000,4.1416772083e+000,3.6543633325e+000,3.1827076170e+000,3.3331463725e+000,2.8553276230e+000,4.1435576248e+000,2.6435399094e+000,2.3155967732e+000,2.2309285095e+000,1.3230822037e+000,1.4293836386e+000,2.7057153351e+000,2.8069049752e+000,2.8199166899e+000,
4.7812500000e+000,4.1254842887e+000,3.6310401793e+000,3.2741973848e+000,3.3429544323e+000,3.0660618707e+000,3.9045638118e+000,2.6861443081e+000,2.3067620451e+000,2.1975853998e+000,1.2992493752e+000,1.4386636392e+000,2.6520373368e+000,2.8029643354e+000,2.8070675781e+000,
4.8750000000e+000,4.1505917445e+000,3.6747677309e+000,3.3909138386e+000,3.4271992288e+000,3.4077311600e+000,3.4959402257e+000,2.7380762906e+000,2.3267170951e+000,2.3035525294e+000,1.5190840910e+000,1.4103572129e+000,2.6695117083e+000,2.8561235870e+000,2.8012949075e+000,
4.9687500000e+000,4.1636255826e+000,3.6683446030e+000,3.5061204440e+000,3.4797062495e+000,3.4699225382e+000,3.3582466559e+000,2.4254616198e+000,2.4021477414e+000,2.3187507364e+000,1.5060688642e+000,1.2051666112e+000,2.6422096450e+000,2.8002495800e+000,2.8286635709e+000,
5.0625000000e+000,4.0997917179e+000,3.6804230171e+000,3.5274125973e+000,3.5263966377e+000,3.4753686856e+000,3.3826624008e+000,2.0633906668e+000,2.4246955022e+000,2.3209569624e+000,1.5041550057e+000,1.1541703672e+000,2.6314087251e+000,2.7467823704e+000,2.8047251638e+000,
5.1562500000e+000,4.1368223022e+000,3.7140857422e+000,3.5255678325e+000,3.5786437241e+000,3.3713460831e+000,3.4767372066e+000,1.9234797954e+000,2.4418132868e+000,2.3172545754e+000,1.6143075492e+000,1.1857944602e+000,2.6455614172e+000,2.7190237028e+000,2.7857113237e+000,
5.2500000000e+000,4.0109532197e+000,3.6413949508e+000,3.4544359127e+000,3.5418585896e+000,3.2003041096e+000,3.4432025057e+000,1.7076430365e+000,2.4207666117e+000,2.2768335794e+000,1.6378811153e+000,1.3198313319e+000,2.6815433958e+000,2.7179098725e+000,2.7642859801e+000,
5.3437500000e+000,3.9165946808e+000,3.6258024393e+000,3.4917783219e+000,3.5947050220e+000,3.2371129936e+000,3.4723671379e+000,1.8020156791e+000,2.4761802027e+000,2.1848514254e+000,1.6485102292e+000,1.4174448395e+000,2.7257243980e+000,2.6658802329e+000,2.8095750703e+000,
5.4375000000e+000,3.9072941712e+000,3.6130640122e+000,3.4469011922e+000,3.5400055352e+000,3.2827135058e+000,3.5136012432e+000,1.9644886121e+000,2.4228184288e+000,2.3195846155e+000,1.6160354008e+000,1.4133956940e+000,2.7131520994e+000,2.5756982153e+000,2.7870511539e+000,
5.5312500000e+000,3.8254433683e+000,3.4904634454e+000,3.4546293887e+000,3.6230589113e+000,3.2325360448e+000,3.5636189376e+000,2.0860889152e+000,2.5463640052e+000,2.2040484202e+000,1.6156802222e+000,1.3892818232e+000,2.6395523208e+000,2.4396917720e+000,2.7634993560e+000,
5.6250000000e+000,3.5084480895e+000,3.2901563085e+000,3.4089947580e+000,3.5471541036e+000,3.2193607526e+000,3.4705494966e+000,2.2932626520e+000,2.6109105729e+000,2.2222482365e+000,1.6559826460e+000,1.4739702336e+000,2.6102927992e+000,2.3782840269e+000,2.7908651266e+000,
5.7187500000e+000,3.5955074195e+000,3.2950931909e+000,3.3734612026e+000,3.5875204404e+000,3.2443679628e+000,3.5638746873e+000,2.3771410107e+000,2.6274409982e+000,2.2334800566e+000,1.6678083824e+000,1.5209646680e+000,2.7366343089e+000,2.3496300530e+000,2.8621056253e+000,
5.8125000000e+000,3.8761496904e+000,3.7496075001e+000,3.6763443425e+000,3.9134964525e+000,3.1044924635e+000,3.7919691113e+000,2.3749312930e+000,2.8630167902e+000,2.4717428961e+000,1.9271409939e+000,1.5558085394e+000,3.1372156301e+000,2.5033028902e+000,3.1639793489e+000,
5.9062500000e+000,3.8754439365e+000,3.7168625033e+000,3.6224120983e+000,3.8645787799e+000,2.7494521719e+000,3.8016012500e+000,2.2744944822e+000,2.7489767321e+000,2.5124091194e+000,1.7959013616e+000,1.6079364276e+000,3.1816885540e+000,2.5213700394e+000,3.1557465778e+000,
6.0000000000e+000,3.8640359373e+000,3.7289178725e+000,3.5431408619e+000,3.8091723617e+000,2.6548516523e+000,3.7979855678e+000,2.2953526361e+000,2.7432826110e+000,2.5055307755e+000,1.8364773459e+000,1.6885422636e+000,3.1708490592e+000,2.5214786134e+000,3.1484845846e+000,
6.0937500000e+000,3.9133600778e+000,3.7478235684e+000,3.5693186013e+000,3.8156388268e+000,2.6310053111e+000,3.7851640452e+000,2.3283660512e+000,2.6559171555e+000,2.5413846192e+000,1.8318127688e+000,1.6915124613e+000,3.1796907584e+000,2.5363086103e+000,3.1624764968e+000,
6.1875000000e+000,3.9164598629e+000,3.7170057610e+000,3.5656129435e+000,3.7527030974e+000,2.6040040106e+000,3.6936603075e+000,2.3912457618e+000,2.5754379974e+000,2.5900019581e+000,1.8237200662e+000,1.6657715043e+000,3.1377294200e+000,2.5257652285e+000,3.1448156836e+000,
6.2812500000e+000,3.9054704551e+000,3.7111606671e+000,3.5680672880e+000,3.7099722456e+000,2.5614592657e+000,3.7176494298e+000,2.3983906647e+000,2.5099049255e+000,2.5288501025e+000,1.8638496552e+000,1.5058939059e+000,3.1162231972e+000,2.4763517970e+000,3.1328874237e+000,
6.3750000000e+000,3.9041189553e+000,3.6372397590e+000,3.5435180870e+000,3.6635874820e+000,2.5054220605e+000,3.6532252227e+000,2.2833883147e+000,2.4812430230e+000,2.5621117493e+000,1.9633889257e+000,1.5792882754e+000,3.0944231008e+000,2.5099158845e+000,3.1483738279e+000,
6.4687500000e+000,3.9407011452e+000,3.6955739952e+000,3.5746763726e+000,3.7263635338e+000,2.4276095034e+000,3.6814733574e+000,2.0804785891e+000,2.4228590747e+000,2.6414122119e+000,1.9697342152e+000,1.7093201753e+000,3.2207229176e+000,2.6445571817e+000,3.2569762474e+000,
6.5625000000e+000,3.9505829399e+000,3.7081071800e+000,3.5847247132e+000,3.7057118550e+000,2.4653065142e+000,3.5813441238e+000,2.0269339997e+000,2.3486880522e+000,2.6615427089e+000,2.0094637789e+000,1.7111489943e+000,3.2198564910e+000,2.7008211247e+000,3.2352866376e+000,
6.6562500000e+000,3.9686211329e+000,3.7118803134e+000,3.5792746162e+000,3.7147537144e+000,2.5065826890e+000,3.5329154225e+000,1.8767244153e+000,2.2909112898e+000,2.6552970972e+000,2.0220596732e+000,1.6748478315e+000,3.2123274680e+000,2.7047708259e+000,3.2421573830e+000,
6.7500000000e+000,3.7919585346e+000,3.7074428867e+000,3.5259043628e+000,3.6030876212e+000,2.4328165519e+000,3.4245656120e+000,1.7979104207e+000,2.1100981802e+000,2.5772305268e+000,2.0060125368e+000,1.5489158600e+000,3.1014325429e+000,2.6216789413e+000,3.1141486710e+000,
6.8437500000e+000,3.7652235024e+000,3.5496694685e+000,3.2603207002e+000,3.2908704290e+000,2.3586017725e+000,3.2071289139e+000,2.0242176624e+000,1.8296653450e+000,2.3680817827e+000,1.7726261654e+000,1.6090073130e+000,2.7319146382e+000,2.4503393701e+000,2.9018464653e+000,
6.9375000000e+000,3.8029853914e+000,3.6493168045e+000,3.3289153775e+000,3.3042537460e+000,2.3833204596e+000,3.3634707505e+000,2.2525788521e+000,1.9975424323e+000,2.2560023795e+000,1.7584364928e+000,1.6056366927e+000,2.7323424787e+000,2.4573736734e+000,2.8784157558e+000,
7.0312500000e+000,3.8746076202e+000,3.6734323489e+000,3.4207402154e+000,3.4361535225e+000,2.5140776656e+000,3.3884232854e+000,2.2279929270e+000,2.0399248585e+000,2.4039278321e+000,1.7562941856e+000,1.6877127271e+000,2.7333226351e+000,2.5479986203e+000,2.8849903786e+000,
7.1250000000e+000,3.8642761350e+000,3.7166751215e+000,3.4864326611e+000,3.5189453902e+000,2.5806332779e+000,3.4542947813e+000,2.1705583472e+000,2.0670060390e+000,2.3752108871e+000,1.7475590942e+000,1.6792809555e+000,2.7330957874e+000,2.5421000986e+000,2.8940755515e+000,
7.2187500000e+000,3.8537645110e+000,3.7216776295e+000,3.5581789132e+000,3.6003796550e+000,2.6555645770e+000,3.5101070474e+000,2.1002633807e+000,2.1815695478e+000,2.4227763671e+000,1.6149253622e+000,1.7253950116e+000,2.7594862107e+000,2.5230767501e+000,2.9386863001e+000,
7.3125000000e+000,3.8888488378e+000,3.7377101796e+000,3.5742784355e+000,3.6282135503e+000,2.6880907497e+000,3.4568343877e+000,2.0720781772e+000,2.1748099697e+000,2.4424058177e+000,1.5000435279e+000,1.6939198569e+000,2.7574627155e+000,2.4723420236e+000,2.8979904270e+000,
7.4062500000e+000,3.8686649668e+000,3.7228259988e+000,3.5353087440e+000,3.7721279663e+000,2.6105992750e+000,3.4215743380e+000,2.0323050680e+000,2.1104213325e+000,2.3391275707e+000,1.9405764749e+000,1.5876975974e+000,2.6849789465e+000,2.3574407845e+000,2.7536760230e+000,
7.5000000000e+000,3.9144353120e+000,3.7797520260e+000,3.6941887464e+000,4.4161486318e+000,2.7302620474e+000,3.5469962913e+000,2.1282791478e+000,2.4052978879e+000,2.4485442615e+000,2.6220140274e+000,1.5730109819e+000,2.8741118230e+000,2.4209771715e+000,2.8040640287e+000,
7.5937500000e+000,3.8978379594e+000,3.7838971113e+000,3.6761002396e+000,4.4491589973e+000,2.7009859817e+000,3.5628615185e+000,2.1040294860e+000,2.4382156837e+000,2.4283624600e+000,2.6394674099e+000,1.5965025948e+000,2.9546999987e+000,2.3627818745e+000,2.8349758618e+000,
7.6875000000e+000,3.8967348524e+000,3.7908651945e+000,3.6955623899e+000,4.4969962804e+000,2.6699330872e+000,3.5553110226e+000,2.0011969949e+000,2.4846317360e+000,2.4694961096e+000,2.6406936130e+000,1.5987967379e+000,3.0565009779e+000,2.4949491365e+000,2.8607942930e+000,
7.7812500000e+000,3.9339200384e+000,3.8179325480e+000,3.7389817140e+000,4.5864500000e+000,2.7324198114e+000,3.5660099876e+000,2.0192452333e+000,2.6678444205e+000,2.5711744541e+000,2.7140398135e+000,1.5517105468e+000,3.1661807202e+000,2.6095270742e+000,2.9923384756e+000,
7.8750000000e+000,3.8811807430e+000,3.5763666713e+000,3.6846662482e+000,4.5602873093e+000,2.7207236004e+000,3.3752686644e+000,1.7601434120e+000,2.6502945062e+000,2.5952199675e+000,2.7628406199e+000,1.4451347220e+000,3.1633690291e+000,2.6088566194e+000,2.8545886724e+000,
7.9687500000e+000,3.8347415835e+000,3.5312292276e+000,3.6361957383e+000,4.5785055024e+000,2.6455554466e+000,3.3079913435e+000,1.6750233369e+000,2.6060965422e+000,2.5922155366e+000,2.8115300285e+000,1.3760640574e+000,3.1599881262e+000,2.5896060747e+000,2.8983794033e+000,
8.0625000000e+000,3.7151668835e+000,3.4821172659e+000,3.5444983635e+000,4.5687226085e+000,2.5345639873e+000,3.1880636880e+000,1.6551668373e+000,2.6274435830e+000,2.5093218229e+000,2.8371332108e+000,1.1268529190e+000,3.1566472613e+000,2.5202381158e+000,2.9580596867e+000,
8.1562500000e+000,3.7258363349e+000,3.6171451828e+000,3.6021886804e+000,4.5760032566e+000,2.5749469460e+000,3.2468478384e+000,1.6873608493e+000,2.6574568225e+000,2.6054769378e+000,2.8769998152e+000,1.1333096942e+000,3.1806567913e+000,2.6391516094e+000,2.9428292275e+000,
8.2500000000e+000,3.6260499017e+000,3.5385560386e+000,3.4669147834e+000,4.5323364370e+000,2.4329004193e+000,3.1298147602e+000,1.6938516060e+000,2.6434553297e+000,2.5798859448e+000,2.8916558820e+000,1.0076246421e+000,3.1614548086e+000,2.6458286546e+000,2.9086070905e+000,
8.3437500000e+000,3.6840942355e+000,3.6433492895e+000,3.5301911875e+000,4.5565794531e+000,2.5850172340e+000,3.2161223917e+000,1.8032437257e+000,2.7396488157e+000,2.6239322530e+000,2.8802246214e+000,1.1223080504e+000,3.1720973759e+000,2.6809841680e+000,2.9330464962e+000,
8.4375000000e+000,3.6073790586e+000,3.6698328022e+000,3.4316361442e+000,4.0435688839e+000,2.4839582856e+000,3.1804763909e+000,1.8174414485e+000,2.7067995847e+000,2.4825690375e+000,2.2789045398e+000,1.1632245357e+000,3.1036115981e+000,2.6664847934e+000,2.9315959731e+000,
8.5312500000e+000,3.4992491317e+000,5.7309200761e+000,3.3334621868e+000,3.9024663786e+000,2.5198488334e+000,3.1600159035e+000,1.8953105814e+000,2.5600761179e+000,2.4416121587e+000,2.1348743306e+000,1.1081702828e+000,2.9833017230e+000,2.5719744778e+000,2.8247645127e+000,
8.6250000000e+000,4.4800984578e+000,1.0423424379e+001,4.6164902367e+000,4.7367853512e+000,3.2424255343e+000,5.5727525663e+000,2.1047938340e+000,2.9810523795e+000,3.6790916246e+000,2.3612193087e+000,1.1622936455e+000,4.0844893634e+000,3.5893650928e+000,3.8676785654e+000,
8.7187500000e+000,4.6829322646e+000,1.0659680569e+001,4.7005326361e+000,4.7529191566e+000,3.3835075451e+000,5.7975394993e+000,2.1880087298e+000,3.2287114279e+000,3.7542603618e+000,2.4172845862e+000,1.1961419353e+000,4.1192756921e+000,3.6011629859e+000,3.8746362934e+000,
8.8125000000e+000,4.6534353522e+000,1.0676450401e+001,4.6885542257e+000,4.7138699475e+000,3.3236300630e+000,5.8031836017e+000,2.0428416656e+000,3.2135839492e+000,3.7330645813e+000,2.3575843377e+000,1.2709374352e+000,4.0749043142e+000,3.5905297447e+000,3.8639827474e+000,
8.9062500000e+000,4.6263479456e+000,1.0677694563e+001,4.6830052988e+000,4.7097210335e+000,3.3026938849e+000,5.8074270644e+000,2.0024916454e+000,3.2444885610e+000,3.7446518933e+000,2.3306649534e+000,1.3172250255e+000,4.0866557474e+000,3.5860420154e+000,3.8739561846e+000,
9.0000000000e+000,4.6301218838e+000,1.0677676437e+001,4.6790090093e+000,4.6777365466e+000,3.3279543264e+000,5.8114754924e+000,1.9719156500e+000,3.2275368331e+000,3.7480512138e+000,2.3052391681e+000,1.3817495229e+000,4.0613254225e+000,3.6034946165e+000,3.8852704720e+000,
9.0937500000e+000,4.6198085133e+000,1.0677594214e+001,4.6567719377e+000,4.6139150179e+000,3.3076492851e+000,5.8014429709e+000,1.9642098641e+000,3.1658360819e+000,3.7116785111e+000,2.2619051703e+000,1.4092940286e+000,4.0392684169e+000,3.5496331886e+000,3.8189720562e+000,
9.1875000000e+000,4.6234096834e+000,1.0677550988e+001,4.6487605447e+000,4.6119643576e+000,3.3088546003e+000,5.8031885157e+000,1.9912854478e+000,3.1586043502e+000,3.7197126423e+000,2.1844481962e+000,1.4573718064e+000,4.0262579242e+000,3.5574729787e+000,3.8062987243e+000,
9.2812500000e+000,4.6049777256e+000,1.0677489424e+001,4.6440141194e+000,4.6120779027e+000,3.2734687534e+000,5.8023625063e+000,2.0074529813e+000,3.1507233849e+000,3.7095784260e+000,2.1622674928e+000,1.5003974746e+000,4.0263535937e+000,3.5591149920e+000,3.8130763751e+000,
9.3750000000e+000,4.6323858449e+000,1.0677483186e+001,4.6541385670e+000,4.6183375556e+000,3.2536622814e+000,5.8013695434e+000,1.8832682370e+000,3.1252170309e+000,3.7256199731e+000,2.1258351170e+000,1.4009921308e+000,4.0481933448e+000,3.5989723791e+000,3.8241626516e+000,
9.4687500000e+000,4.6448834187e+000,1.0677447407e+001,4.6718817658e+000,4.6189049121e+000,3.2694925436e+000,5.7997535192e+000,1.9112303069e+000,3.1138358830e+000,3.7322859070e+000,2.1340545106e+000,1.5103679777e+000,4.0594415492e+000,3.6094113752e+000,3.8257292603e+000,
9.5625000000e+000,4.2720803844e+000,1.0188856579e+001,4.0975590661e+000,4.0083064484e+000,2.6858138986e+000,5.3317561432e+000,1.8516351807e+000,2.9697284640e+000,3.1394198874e+000,2.0801304674e+000,1.4499837537e+000,3.4162830406e+000,3.0227631176e+000,3.2387370684e+000,
9.6562500000e+000,3.7670294114e+000,8.3013808704e+000,3.2765070674e+000,3.3432950597e+000,2.1189909963e+000,4.1746282342e+000,1.6280740282e+000,2.6713795190e+000,2.3223372268e+000,1.7077986566e+000,1.4117397020e+000,2.6090107436e+000,2.5718913610e+000,2.6812073332e+000,
9.7500000000e+000,3.7119532326e+000,6.0921220180e+000,3.2853181565e+000,3.3587707954e+000,2.0961329449e+000,3.1947452273e+000,1.5819085045e+000,2.0487148746e+000,2.3090667551e+000,1.5233443706e+000,1.4661679213e+000,2.6604162441e+000,2.5030473919e+000,2.7410222277e+000,
9.8437500000e+000,3.7945129626e+000,3.5270511226e+000,3.4390769433e+000,3.4472091497e+000,2.1453837107e+000,3.1253184804e+000,1.5951860930e+000,2.0241516693e+000,2.2662984560e+000,1.4916861156e+000,1.4940905758e+000,2.6082178352e+000,2.4993252667e+000,2.6972727754e+000,
9.9375000000e+000,3.7818955715e+000,3.4125753954e+000,3.4402914252e+000,3.4417391436e+000,2.0871744408e+000,3.1275080606e+000,1.6201225653e+000,1.9744653129e+000,2.1165644949e+000,1.4596592735e+000,1.4795846165e+000,2.5531878330e+000,2.4888540913e+000,2.6457504202e+000,
1.0031250000e+001,3.8098848558e+000,3.4333158188e+000,3.4772803474e+000,3.4714582134e+000,2.1041319046e+000,3.0973859470e+000,1.6587264258e+000,1.9834225721e+000,2.3515448912e+000,1.4156608260e+000,1.4892373360e+000,2.6733138983e+000,2.5040805225e+000,2.7488246311e+000,
1.0125000000e+001,3.8156305873e+000,3.3834894292e+000,3.5427538737e+000,3.5062270325e+000,2.1229941126e+000,3.0904043568e+000,1.6345584854e+000,1.9635060617e+000,2.3686178896e+000,1.4988722009e+000,1.4818413870e+000,2.7049069527e+000,2.5172334588e+000,2.8117057539e+000,
1.0218750000e+001,3.9059441776e+000,3.4491990090e+000,3.5698430967e+000,3.5642866678e+000,2.1968407561e+000,3.0787786560e+000,1.5868815318e+000,1.9750440095e+000,2.3381870306e+000,1.5444882913e+000,1.4855623711e+000,2.7187865148e+000,2.4975145585e+000,2.8451581269e+000,
1.0312500000e+001,3.8746015965e+000,3.5047194373e+000,3.5492217787e+000,3.4968388888e+000,2.1650533908e+000,3.0388259806e+000,1.5663007218e+000,1.9210623059e+000,2.2952504663e+000,1.5895041860e+000,1.4321504538e+000,2.6036777127e+000,2.3967961884e+000,2.8601409569e+000,
1.0406250000e+001,3.8187136782e+000,3.4505216068e+000,3.4795160236e+000,3.4738921408e+000,2.1419964682e+000,2.9997110161e+000,1.4756121918e+000,1.8790882746e+000,2.2444092841e+000,1.6255628286e+000,1.5392511500e+000,2.6906823712e+000,2.3183272029e+000,2.8990740663e+000,
1.0500000000e+001,3.7976535145e+000,3.4729758457e+000,3.4620554045e+000,3.5068696743e+000,2.1531477990e+000,3.0787850486e+000,1.3156042257e+000,1.9484830630e+000,2.3152912351e+000,1.6261305909e+000,1.4863560981e+000,2.7167020598e+000,2.3354760989e+000,2.8907013947e+000,
1.0593750000e+001,3.7199805396e+000,3.3435455726e+000,3.4366390984e+000,3.5109362786e+000,2.1596125707e+000,3.0322246759e+000,1.2258736665e+000,1.9251199169e+000,2.3577586671e+000,1.6306738819e+000,1.5051825856e+000,2.7292885201e+000,2.3686649379e+000,2.8861941498e+000,
1.0687500000e+001,3.5239808612e+000,3.2011517345e+000,3.4125199155e+000,3.4444028655e+000,2.0600001245e+000,2.8760836999e+000,1.0374208942e+000,1.9382220237e+000,2.4360612782e+000,1.6163689903e+000,1.5025939495e+000,2.6493558746e+000,2.3566940922e+000,2.8810451407e+000,
1.0781250000e+001,3.5116147699e+000,3.2441912652e+000,3.4013588744e+000,3.5829713876e+000,2.0934301565e+000,3.0617913434e+000,1.1996479532e+000,2.0891442187e+000,2.5513941618e+000,1.6227367790e+000,1.6363214359e+000,2.8143490707e+000,2.4851502728e+000,2.9901036294e+000,
1.0875000000e+001,3.4593056490e+000,3.2374069521e+000,3.2515115694e+000,3.4934183617e+000,2.0694433668e+000,3.1068465164e+000,1.1974155862e+000,2.0866601174e+000,2.5711183273e+000,1.5073665586e+000,1.5992102588e+000,2.8034810459e+000,2.4843940364e+000,3.0218571070e+000,
1.0968750000e+001,3.4829393087e+000,3.2529256033e+000,3.2758567478e+000,3.5564516007e+000,2.0707659075e+000,3.1349270490e+000,1.2434405282e+000,2.1943161811e+000,2.5419913779e+000,1.4855086972e+000,1.5921288784e+000,2.8406186281e+000,2.5750373808e+000,3.0468255328e+000,
1.1062500000e+001,3.4099366445e+000,3.2532021866e+000,3.1796688464e+000,3.5289868302e+000,1.9671687637e+000,3.0790917760e+000,1.3098119610e+000,2.1864864065e+000,2.3746920935e+000,1.3247035485e+000,1.5584046339e+000,2.7700362069e+000,2.5497203004e+000,2.9827678624e+000,
1.1156250000e+001,3.3968191192e+000,3.3073546419e+000,3.2008775927e+000,3.5744749950e+000,2.0367893404e+000,3.0881003875e+000,1.3886655476e+000,2.1716598938e+000,2.4786876480e+000,1.3461558014e+000,1.5357003436e+000,2.8210647617e+000,2.6183248854e+000,3.0183991388e+000,
1.1250000000e+001,3.1909065989e+000,3.1932203091e+000,3.0802304158e+000,3.4624303595e+000,1.9593866318e+000,3.0248952404e+000,1.5558587647e+000,2.1259769391e+000,2.4782610036e+000,1.2858895206e+000,1.5211503202e+000,2.7793500132e+000,2.5892090073e+000,2.9646782004e+000,
1.1343750000e+001,3.2907288664e+000,3.3004757781e+000,3.2879260466e+000,3.5834646826e+000,2.1144088004e+000,3.1801377431e+000,1.7035180592e+000,2.2475376123e+000,2.5462346680e+000,1.2453892497e+000,1.5055052072e+000,2.7687492251e+000,2.5877401932e+000,2.9383289065e+000,
1.1437500000e+001,3.4614072671e+000,5.3889117920e+000,3.4173015111e+000,3.7024692086e+000,2.1979785778e+000,3.2458272810e+000,1.8078590734e+000,2.3831958498e+000,2.6171094161e+000,1.2392171121e+000,1.3508657289e+000,2.6953240478e+000,2.6700796412e+000,3.0556982970e+000,
1.1531250000e+001,4.6698535708e+000,1.1165914359e+001,4.7267189064e+000,5.1175396134e+000,3.2868711686e+000,5.6015230587e+000,2.2559460017e+000,2.7352811920e+000,4.0170195818e+000,2.4429703119e+000,1.4328964835e+000,4.2761848101e+000,3.8630080880e+000,4.1114294712e+000,
1.1625000000e+001,4.8369347962e+000,1.1498529807e+001,4.8219470682e+000,5.1791746933e+000,3.4001760066e+000,5.6764204714e+000,2.3498022424e+000,2.9491175022e+000,4.0934695955e+000,2.4854555545e+000,1.3689941990e+000,4.3731853617e+000,3.9634642718e+000,4.1822458436e+000,
1.1718750000e+001,4.8168670643e+000,1.1527572318e+001,4.8082583951e+000,5.1864276226e+000,3.4111634655e+000,5.6734835038e+000,2.3854184851e+000,3.0574199961e+000,4.0834131097e+000,2.4946008569e+000,1.2733257174e+000,4.3726213798e+000,3.9842649928e+000,4.1722304510e+000,
1.1812500000e+001,4.7850049755e+000,1.1528093605e+001,4.8054890151e+000,5.1719460086e+000,3.3922067417e+000,5.6661436186e+000,2.3625987868e+000,3.0267660824e+000,4.0670683481e+000,2.4951121849e+000,1.0394152538e+000,4.3422540359e+000,3.9653297560e+000,4.1408051499e+000,
1.1906250000e+001,4.7904775696e+000,1.1528155872e+001,4.7990264518e+000,5.1700244319e+000,3.3914316868e+000,5.6643765346e+000,2.3678508337e+000,2.9801676359e+000,4.0684130798e+000,2.4917219880e+000,9.9869727736e-001,4.3383695326e+000,3.9501641533e+000,4.1243746517e+000,
1.2000000000e+001,4.8368117185e+000,1.1528167106e+001,4.8731515405e+000,5.1871513367e+000,3.4467764969e+000,5.6712217423e+000,2.4118146898e+000,2.9778800100e+000,4.1383691973e+000,2.8847609361e+000,9.6539979860e-001,4.3475188660e+000,3.9649929321e+000,4.1527174469e+000,
1.2093750000e+001,4.8533714954e+000,1.1528155934e+001,4.8807128281e+000,5.1886974613e+000,3.4663665457e+000,5.6780759091e+000,2.4262038026e+000,2.9803515609e+000,4.1577398253e+000,3.1112650389e+000,1.0059306953e+000,4.3559599759e+000,3.9832123269e+000,4.1672996418e+000,
1.2187500000e+001,4.8863552169e+000,1.1528206184e+001,4.9234863054e+000,5.2038105270e+000,3.4897827336e+000,5.6906419036e+000,2.4337869439e+000,3.0234347685e+000,4.1730305003e+000,3.1458757218e+000,1.1188113938e+000,4.3768366837e+000,4.0101264694e+000,4.1936073937e+000,
1.2281250000e+001,4.9300292697e+000,1.1528240338e+001,4.9651455069e+000,5.2322449027e+000,3.5110057766e+000,5.6997427983e+000,2.4053476171e+000,3.0629208465e+000,4.2082684143e+000,3.2877925125e+000,1.2057485890e+000,4.4060731373e+000,4.0587404429e+000,4.2435145228e+000,
1.2375000000e+001,4.9462664018e+000,1.1528206647e+001,4.9591858553e+000,5.2091570670e+000,3.5015649129e+000,5.6917513941e+000,2.3274612261e+000,3.0076247476e+000,4.2064288467e+000,3.3170173794e+000,1.2798693905e+000,4.4181133711e+000,4.0646830688e+000,4.2450987922e+000,
1.2468750000e+001,4.8105581286e+000,1.1416271672e+001,4.8594654432e+000,5.0987702836e+000,3.3823839224e+000,5.5844517161e+000,2.2592864345e+000,2.9443969716e+000,4.0902713331e+000,3.2086955251e+000,1.3032306418e+000,4.3416655033e+000,3.9526793027e+000,4.1407714541e+000,
1.2562500000e+001,4.1698274960e+000,1.0273445304e+001,4.0876869023e+000,3.9849779616e+000,2.6525956758e+000,3.7698100131e+000,2.0112399868e+000,2.6787655373e+000,3.1593388764e+000,3.0329042727e+000,1.2737610615e+000,3.2498629934e+000,3.2153796931e+000,3.3132119527e+000,
1.2656250000e+001,3.9639966295e+000,6.4459150395e+000,3.9862019767e+000,3.8907439376e+000,2.5021387797e+000,3.5896878490e+000,2.0007128533e+000,2.4221774927e+000,2.9933884149e+000,3.0313962151e+000,1.3354910326e+000,3.0501496996e+000,3.0294889393e+000,3.1633766965e+000,
1.2750000000e+001,3.9856945410e+000,4.4024871243e+000,4.0431754987e+000,3.9014517322e+000,2.4748996195e+000,3.5958696604e+000,2.0436259101e+000,2.3081196665e+000,3.0099996631e+000,3.0446123236e+000,1.3442650002e+000,3.0136600241e+000,2.9774795573e+000,3.1419506263e+000,
1.2843750000e+001,3.9782310273e+000,3.7179171719e+000,4.0179037519e+000,3.8588848407e+000,2.4739220026e+000,3.5881110909e+000,2.0305543425e+000,2.3220856990e+000,3.0252440241e+000,3.0578250652e+000,1.3393960644e+000,3.0128334497e+000,2.9582924909e+000,3.1481804591e+000,
1.2937500000e+001,4.0183547493e+000,3.6225506509e+000,4.0073517740e+000,3.8446726444e+000,2.4768468523e+000,3.5705282209e+000,2.0286864749e+000,2.3041552472e+000,3.0241654359e+000,3.0339153995e+000,1.3643562828e+000,3.0075798470e+000,2.9502323149e+000,3.1448655595e+000,
1.3031250000e+001,3.9241626512e+000,3.6449133774e+000,3.8865928017e+000,3.8210678383e+000,2.3810314975e+000,3.5338938450e+000,1.9614503097e+000,2.3345935950e+000,2.9403442394e+000,2.5951028886e+000,1.3537832502e+000,2.9508849931e+000,2.9002338900e+000,3.0594962142e+000,
1.3125000000e+001,3.8259574066e+000,3.5613229513e+000,3.7300798615e+000,3.8101868670e+000,2.1988285482e+000,3.5488851626e+000,1.9090954139e+000,2.2614908117e+000,2.8689997289e+000,2.5197191450e+000,1.2810405539e+000,2.8551518715e+000,2.7970301370e+000,2.9997630277e+000,
1.3218750000e+001,3.7528755583e+000,3.4093800800e+000,3.5524794584e+000,3.7065331156e+000,2.1510863352e+000,3.4919145355e+000,1.8796481732e+000,2.1952443557e+000,2.6983977149e+000,2.3374794711e+000,1.1902946467e+000,2.7553186491e+000,2.7328454689e+000,2.9335413236e+000,
1.3312500000e+001,3.7727607276e+000,3.4120747574e+000,3.5551642808e+000,3.7515341921e+000,2.1367470273e+000,3.4670070568e+000,1.8773360873e+000,2.1571244165e+000,2.7107364891e+000,2.0768580441e+000,1.1838072595e+000,2.7029319894e+000,2.6851891167e+000,2.8294803719e+000,
1.3406250000e+001,3.7001865913e+000,3.4184558263e+000,3.4670427413e+000,3.6871735027e+000,2.1479061691e+000,3.4387316261e+000,1.9029506138e+000,2.0553546712e+000,2.6066243381e+000,2.0119516832e+000,1.1701514866e+000,2.6094184841e+000,2.6343542127e+000,2.6802507562e+000,
1.3500000000e+001,3.5817039933e+000,3.3688211756e+000,3.4223896422e+000,3.6101794472e+000,2.1098577164e+000,3.3639756857e+000,1.7710259459e+000,2.0037099729e+000,2.6120178466e+000,1.9429294205e+000,1.1799926490e+000,2.5180687999e+000,2.6127691444e+000,2.6913651958e+000,
1.3593750000e+001,3.6630919934e+000,3.4256782083e+000,3.4841876346e+000,3.7009067925e+000,2.1974176659e+000,3.3001882411e+000,1.8484647076e+000,2.0362937522e+000,2.6453920532e+000,1.8967424060e+000,1.2068752580e+000,2.5003356561e+000,2.5427400180e+000,2.7012042433e+000,
1.3687500000e+001,3.5563363368e+000,3.3099118323e+000,3.4055294596e+000,3.4981630692e+000,2.2323296360e+000,3.2909345277e+000,1.7242633176e+000,1.9205148059e+000,2.6052961435e+000,1.8571530050e+000,1.1743493176e+000,2.4729260587e+000,2.5065554025e+000,2.6786418642e+000,
1.3781250000e+001,3.5213056187e+000,3.3435757400e+000,3.3402522048e+000,3.5317296697e+000,2.3046581269e+000,3.3105181105e+000,1.6125724134e+000,1.8789371122e+000,2.5401011834e+000,1.8435659769e+000,1.1872934529e+000,2.4948352196e+000,2.4682485012e+000,2.7650116832e+000,
1.3875000000e+001,3.5924547720e+000,3.3803365816e+000,3.4949130739e+000,3.6619996134e+000,2.4270989740e+000,3.3758145197e+000,1.7944540871e+000,1.9827747794e+000,2.5852283129e+000,1.8016686313e+000,1.2322316411e+000,2.6308623367e+000,2.4896204596e+000,2.8566848907e+000,
1.3968750000e+001,3.7449211355e+000,3.5247405952e+000,3.5810362348e+000,3.7296540013e+000,2.5141283474e+000,3.5071114618e+000,1.7636280599e+000,2.0304748949e+000,2.5683383549e+000,1.7271019166e+000,1.2156478447e+000,2.6573345177e+000,2.4763241051e+000,2.8247321572e+000,
1.4062500000e+001,3.7970025047e+000,3.5113861103e+000,3.5008167234e+000,3.5457829588e+000,2.4607379835e+000,3.4368422142e+000,1.7724234297e+000,1.9738535772e+000,2.2676908501e+000,1.6193278399e+000,1.2648765726e+000,2.6595035758e+000,2.3874824246e+000,2.8007039161e+000,
1.4156250000e+001,3.8652423118e+000,3.5743699908e+000,3.6221788565e+000,3.6565447750e+000,2.4459079327e+000,3.4760992240e+000,1.7782332321e+000,2.0349412923e+000,2.2852540413e+000,1.6306797669e+000,1.2513260685e+000,2.7134048324e+000,2.4032237117e+000,2.9256977435e+000,
1.4250000000e+001,3.9239806246e+000,3.7600981201e+000,3.6937579181e+000,3.7390759597e+000,2.4825615068e+000,3.4494403724e+000,1.7432884053e+000,1.9682284601e+000,2.3400187183e+000,1.6527890413e+000,1.2360922363e+000,2.7544949476e+000,2.4656055302e+000,2.9242257970e+000,
1.4343750000e+001,3.9342617502e+000,3.7329299575e+000,3.6189703039e+000,3.6543941176e+000,2.4387211567e+000,3.4223964430e+000,1.7008493252e+000,1.9793715941e+000,2.3108107409e+000,1.6298358447e+000,1.1341979446e+000,2.7228144250e+000,2.3844473416e+000,2.9127659698e+000,
1.4437500000e+001,3.9023491632e+000,3.7190235606e+000,3.5561085231e+000,3.6315223639e+000,2.3575314807e+000,3.3706769850e+000,1.6973935563e+000,1.9897166602e+000,2.3920832109e+000,1.5378916014e+000,1.1017343508e+000,2.6356147369e+000,2.2428031564e+000,2.8549268627e+000,
1.4531250000e+001,3.9139658080e+000,3.6973706562e+000,3.5434958512e+000,3.5980902707e+000,2.3537902992e+000,3.3790715205e+000,1.6142414526e+000,1.9315332257e+000,2.3715962345e+000,1.5033032112e+000,1.0462066390e+000,2.6229705503e+000,2.2602465627e+000,2.8744233833e+000,
1.4625000000e+001,3.8416729414e+000,3.6089748263e+000,3.4117548187e+000,3.4754515712e+000,2.2481105389e+000,3.3384337095e+000,1.4756156200e+000,1.8617202421e+000,2.2599933320e+000,1.3631461452e+000,9.8379075890e-001,2.5328247301e+000,2.1162052084e+000,2.8413086721e+000,
1.4718750000e+001,3.8413395138e+000,3.5612449866e+000,3.4161827789e+000,3.5268440269e+000,2.2447210433e+000,3.3636557780e+000,1.4541700200e+000,1.9134068661e+000,2.3252057264e+000,1.3401110044e+000,9.8388202036e-001,2.5860217777e+000,2.1625048671e+000,2.8494624976e+000,
1.4812500000e+001,3.8478191222e+000,3.5155620064e+000,3.3810179420e+000,3.4625301124e+000,2.1697259998e+000,3.3764317917e+000,1.3628471773e+000,1.8988816297e+000,2.4078295451e+000,1.3760877077e+000,9.8473395437e-001,2.5584891095e+000,2.1880657952e+000,2.8645518459e+000,
1.4906250000e+001,3.7838284023e+000,3.5377042568e+000,3.2916187164e+000,3.4151778016e+000,2.0660935974e+000,3.3839948131e+000,1.3355626378e+000,1.8253846728e+000,2.3775733596e+000,1.3979886455e+000,9.1918695707e-001,2.5371461132e+000,2.3311690190e+000,2.8723574810e+000,
1.5000000000e+001,3.5508139297e+000,3.3901857317e+000,3.1662004211e+000,3.2708397437e+000,1.9129402049e+000,3.1924040514e+000,1.3138002017e+000,1.7015639606e+000,2.3801782886e+000,1.3819949214e+000,9.1396966238e-001,2.4887654080e+000,2.3516960834e+000,2.7968283760e+000,
1.5093750000e+001,3.4900879310e+000,3.2696133543e+000,3.1590989157e+000,3.2168959891e+000,1.9410472532e+000,3.0834230011e+000,1.2719966601e+000,1.5802065777e+000,2.4109415691e+000,1.1793917627e+000,8.3931288235e-001,2.2465363955e+000,2.3648651378e+000,2.6847276562e+000,
1.5187500000e+001,3.2036640702e+000,2.9662164068e+000,2.8372599470e+000,2.9221697914e+000,1.9296769177e+000,2.9643601165e+000,1.3746563651e+000,1.5330088284e+000,2.3967368581e+000,1.1034365519e+000,9.1890886516e-001,2.1605184021e+000,2.2332124743e+000,2.5381149042e+000,
1.5281250000e+001,3.2899127372e+000,2.8220315609e+000,2.8723955394e+000,2.9386541576e+000,2.0420588373e+000,2.9983848963e+000,1.3837350022e+000,1.5886291862e+000,2.3427401713e+000,1.0987274166e+000,9.9462016313e-001,2.2071067345e+000,2.3200617500e+000,2.6155563752e+000,
1.5375000000e+001,3.1962711360e+000,2.8343891634e+000,2.8305586647e+000,2.9907525804e+000,2.0374866294e+000,3.0357782422e+000,1.4256512455e+000,1.7704776812e+000,2.2333122384e+000,1.0968548972e+000,1.0015841659e+000,2.3084585285e+000,2.3183537863e+000,2.6775762200e+000,
1.5468750000e+001,3.2870945578e+000,2.9704442197e+000,2.9313078785e+000,3.1722513292e+000,2.2016161627e+000,3.0880867732e+000,1.3798599785e+000,1.8877356507e+000,2.2468605102e+000,1.0945891696e+000,1.0375005695e+000,2.4720365546e+000,2.3855832982e+000,2.7562002841e+000,
1.5562500000e+001,3.3367905384e+000,3.0565870860e+000,3.0064101917e+000,3.2400313709e+000,2.2574782333e+000,3.1014844420e+000,1.4389195410e+000,1.9214336023e+000,2.2591422124e+000,1.0469333055e+000,1.0662990289e+000,2.5442695266e+000,2.4358298112e+000,2.8227543434e+000,
1.5656250000e+001,3.4304470870e+000,3.1592262815e+000,3.0857410791e+000,3.2748839377e+000,2.3244911606e+000,3.0190532579e+000,1.4869659170e+000,2.0543216990e+000,2.2764055945e+000,1.0439581152e+000,1.0501190901e+000,2.5423700874e+000,2.4368549372e+000,2.8230037586e+000,
1.5750000000e+001,3.5126037265e+000,3.2556029097e+000,3.0514594788e+000,3.3053500263e+000,2.3576036916e+000,3.0042766462e+000,1.5729687260e+000,2.0626437975e+000,2.2660924156e+000,1.0657240652e+000,1.0571724117e+000,2.5390910973e+000,2.4512974956e+000,2.8345346618e+000,
1.5843750000e+001,3.5467114437e+000,3.3374359446e+000,3.0682331244e+000,3.3448766164e+000,2.4026831553e+000,2.9170418040e+000,1.5193298934e+000,2.0689967902e+000,2.3789594076e+000,1.2655819084e+000,1.2057371686e+000,2.5893013097e+000,2.4739933617e+000,2.8419025278e+000,
1.5937500000e+001,3.6112426106e+000,3.2919046178e+000,3.0487172602e+000,3.3391382602e+000,2.4216779725e+000,3.0305588282e+000,1.4874064277e+000,2.0507094356e+000,2.3549695852e+000,1.3506124576e+000,1.2495673075e+000,2.5738361911e+000,2.4585015077e+000,2.9246773111e+000,
1.6031250000e+001,3.6025186898e+000,3.3273954650e+000,3.0755922331e+000,3.3836024677e+000,2.4064836245e+000,3.0648669199e+000,1.5432059987e+000,2.1273169783e+000,2.4113866678e+000,1.3566852213e+000,1.2809865134e+000,2.6623459467e+000,2.4551030118e+000,2.9322434317e+000,
1.6125000000e+001,3.6032699255e+000,3.3205893215e+000,3.0872609576e+000,3.4285475075e+000,2.3769487603e+000,2.9897587311e+000,1.5250355813e+000,2.1479699168e+000,2.3698629581e+000,1.4371047181e+000,1.2934783226e+000,2.7830911714e+000,2.4053470968e+000,2.9199521431e+000,
1.6218750000e+001,3.5833614787e+000,3.3747016226e+000,3.1260290998e+000,3.4134714064e+000,2.3323712802e+000,3.0260138126e+000,1.5002859212e+000,2.1115222004e+000,2.3539011738e+000,1.5134210122e+000,1.3180996249e+000,2.7441164208e+000,2.3828530346e+000,2.8716019262e+000,
1.6312500000e+001,3.6134010947e+000,3.4059672187e+000,3.1054155410e+000,3.3946310011e+000,2.3606566442e+000,3.0115284438e+000,1.5034146353e+000,2.0609500563e+000,2.4195330319e+000,1.5160503801e+000,1.3030837206e+000,2.6622808181e+000,2.4218940281e+000,2.8035273001e+000,
1.6406250000e+001,3.5873203184e+000,3.4447718719e+000,3.1583971644e+000,3.3751126744e+000,2.3081597432e+000,3.1633574593e+000,1.5205715505e+000,1.9655273241e+000,2.4473733910e+000,1.5293818284e+000,1.2827869202e+000,2.6427575149e+000,2.3896203113e+000,2.7983190012e+000,
1.6500000000e+001,3.5737586904e+000,3.3938534789e+000,3.1355524602e+000,3.3292669203e+000,2.2551658487e+000,3.3393994622e+000,1.5831959676e+000,1.9538190300e+000,2.3679147601e+000,1.6426012770e+000,1.3233856216e+000,2.5309133293e+000,2.3274885606e+000,2.8028075595e+000,
1.6593750000e+001,3.5081066540e+000,3.3401765044e+000,3.0989783389e+000,3.2774298161e+000,2.2081223525e+000,3.4355165197e+000,1.5803548102e+000,1.9836401027e+000,2.3163682811e+000,1.6517440702e+000,1.2469031026e+000,2.4778439845e+000,2.2835081466e+000,2.6925274696e+000,
1.6687500000e+001,3.4014638834e+000,3.2715278968e+000,2.9762261761e+000,3.2377507215e+000,2.1185469351e+000,3.4288847045e+000,1.5433162179e+000,1.8760595043e+000,2.2990450907e+000,1.6676620094e+000,1.3417125670e+000,2.5423865326e+000,2.3429631604e+000,2.6653260960e+000,
1.6781250000e+001,3.3150066963e+000,3.2262289527e+000,2.9598066526e+000,3.1762630504e+000,2.1009873031e+000,3.4388734204e+000,1.4953550987e+000,1.8940483652e+000,2.2727378646e+000,1.6497047756e+000,1.3499702259e+000,2.5811080714e+000,2.2642807240e+000,2.6416632390e+000,
1.6875000000e+001,3.2172200608e+000,3.1275958291e+000,2.9118198134e+000,3.1140029410e+000,2.0512273736e+000,3.5156751789e+000,1.6063565925e+000,1.9998627814e+000,2.0966345477e+000,1.4437223928e+000,1.2938823738e+000,2.5475823890e+000,2.2943886109e+000,2.6444538838e+000,
1.6968750000e+001,3.1571742464e+000,3.1535261652e+000,2.9517822937e+000,3.1939808843e+000,2.0397457258e+000,3.5446784917e+000,1.5971261186e+000,2.0430059030e+000,1.9690578740e+000,1.3985142078e+000,1.3256995967e+000,2.5328983391e+000,2.2860143328e+000,2.5063066857e+000,
1.7062500000e+001,3.1211540540e+000,3.1965808352e+000,2.9010497784e+000,3.1994231365e+000,2.0560101081e+000,3.6194869415e+000,1.5971315121e+000,2.0394208682e+000,2.0183485480e+000,1.3771263255e+000,1.3528503812e+000,2.5025384806e+000,2.3372951555e+000,2.5534983622e+000,
1.7156250000e+001,3.3135183780e+000,3.2689565081e+000,2.9185517716e+000,3.2787614029e+000,2.1551358802e+000,3.6703599145e+000,1.5755058385e+000,2.0975737472e+000,2.0364476611e+000,1.2735638807e+000,1.3873059343e+000,2.4985314003e+000,2.3225767381e+000,2.5552070335e+000,
1.7250000000e+001,3.1631978762e+000,3.1691154963e+000,2.8641588558e+000,3.2023255053e+000,2.0408179766e+000,3.6457631618e+000,1.5922035725e+000,2.1057970770e+000,2.1677037742e+000,1.1965110682e+000,1.3437482652e+000,2.5009475500e+000,2.2958123740e+000,2.6156322456e+000,
1.7343750000e+001,3.1792996298e+000,3.0736388956e+000,2.8856027815e+000,3.1837415404e+000,2.0619530977e+000,3.5519339882e+000,1.6050319983e+000,2.0858338961e+000,2.1499604006e+000,1.2481252273e+000,1.3611541706e+000,2.6053373298e+000,2.2694557920e+000,2.6467090307e+000,
1.7437500000e+001,3.3021235926e+000,3.1424387848e+000,3.0222382272e+000,3.3189700854e+000,2.2092848807e+000,3.5364702552e+000,1.6426049731e+000,2.1312595888e+000,2.1388081402e+000,1.1241153610e+000,1.3702248435e+000,2.6888177358e+000,2.4373034634e+000,2.7509740784e+000,
1.7531250000e+001,3.2419632617e+000,3.1855284880e+000,3.0444507195e+000,3.2955342729e+000,2.2513241469e+000,3.4520887525e+000,1.6024504751e+000,2.1597707752e+000,2.1563446989e+000,1.2639775952e+000,1.4752019812e+000,2.7967210321e+000,2.4652533028e+000,2.7601986459e+000,
1.7625000000e+001,3.2346467175e+000,3.1730677616e+000,3.1049197759e+000,3.2955293076e+000,2.2232198890e+000,3.5133211112e+000,1.6194840179e+000,2.1166392929e+000,2.1342102857e+000,1.3235547686e+000,1.4326899639e+000,2.8246609075e+000,2.5221119810e+000,2.9282471863e+000,
1.7718750000e+001,3.4155195930e+000,3.2284152153e+000,3.2807292064e+000,3.3917248435e+000,2.4727994876e+000,3.5813529673e+000,1.7000206847e+000,2.1157950352e+000,2.2533470445e+000,1.3270244578e+000,1.3867182946e+000,2.8216329820e+000,2.6096124988e+000,2.9698446536e+000,
1.7812500000e+001,3.4125786694e+000,3.2552272403e+000,3.3302699937e+000,3.4541975431e+000,2.4438477994e+000,3.6123695597e+000,1.6242861659e+000,2.1251116540e+000,2.3312216653e+000,1.3715230498e+000,1.3524395558e+000,2.8672141037e+000,2.5858111075e+000,2.9399268351e+000,
1.7906250000e+001,3.4435132519e+000,3.3010377644e+000,3.3475004715e+000,3.4263199327e+000,2.4373891634e+000,3.6023908952e+000,1.6702443407e+000,2.0528704680e+000,2.3112041838e+000,1.3838643526e+000,1.3212885253e+000,2.8763426839e+000,2.5188760872e+000,2.9117486239e+000,
1.8000000000e+001,3.4783704477e+000,3.3251706336e+000,3.3617767727e+000,3.4313162036e+000,2.4149361517e+000,3.5655983873e+000,1.6113047722e+000,2.0402571531e+000,2.3041053673e+000,1.4352804828e+000,1.3235600876e+000,2.8818939428e+000,2.4736284563e+000,2.8977552514e+000,
1.8093750000e+001,3.4705241777e+000,3.2460831146e+000,3.4070236068e+000,3.3416093448e+000,2.4123652030e+000,3.4583571871e+000,1.6108708491e+000,1.9445098737e+000,2.3520098464e+000,1.4493736984e+000,1.3904662277e+000,2.8436548402e+000,2.4418655745e+000,2.9198183348e+000,
1.8187500000e+001,3.4322523397e+000,3.2294714136e+000,3.4176068330e+000,3.3664098142e+000,2.4141769956e+000,3.4674259518e+000,1.5836387998e+000,1.8805770465e+000,2.3993805601e+000,1.4797813052e+000,1.4264299032e+000,2.9268540416e+000,2.4669402738e+000,2.9053651379e+000,
1.8281250000e+001,3.4245860086e+000,3.2485668564e+000,3.4050706641e+000,3.3906962361e+000,2.3859361160e+000,3.5184416107e+000,1.5402021385e+000,1.8417446114e+000,2.3819070858e+000,1.4070010299e+000,1.4723402324e+000,2.9250392781e+000,2.5646558079e+000,2.8676508417e+000,
1.8375000000e+001,3.4502559533e+000,3.2229285480e+000,3.3771732732e+000,3.3623572288e+000,2.3398132242e+000,3.5302571275e+000,1.5825309959e+000,1.8500518877e+000,2.4695164509e+000,1.3908975298e+000,1.6591695886e+000,2.9475590729e+000,2.5980481935e+000,2.8867499061e+000,
1.8468750000e+001,3.4022074886e+000,3.2115148059e+000,3.3615158062e+000,3.3390425734e+000,2.2571143665e+000,3.5363780513e+000,1.5548051802e+000,1.7777967491e+000,2.5260858344e+000,1.3850394509e+000,1.6467061766e+000,2.9164098093e+000,2.5142865372e+000,2.7884970866e+000,
1.8562500000e+001,3.4849361184e+000,3.1937643562e+000,3.3367138798e+000,3.3105583079e+000,2.2387169360e+000,3.4123682516e+000,1.5748267116e+000,1.7518698281e+000,2.5093979364e+000,1.2931566266e+000,1.5861528963e+000,2.7840980884e+000,2.4339270444e+000,2.6174872500e+000,
1.8656250000e+001,3.4677430645e+000,3.2023718224e+000,3.2557514728e+000,3.2777950693e+000,2.1654789126e+000,3.4039191917e+000,1.5861435388e+000,1.6898742545e+000,2.5277570628e+000,1.3241085477e+000,1.6954342066e+000,2.8235709025e+000,2.3757176660e+000,2.6497337432e+000,
1.8750000000e+001,3.3447402004e+000,3.1182520552e+000,3.1322408229e+000,3.1653627001e+000,1.9962685459e+000,3.2258899811e+000,1.4599082338e+000,1.5736417581e+000,2.4341544745e+000,1.2487950419e+000,1.8223381655e+000,2.7886136090e+000,2.2644652141e+000,2.6366610582e+000,
1.8843750000e+001,3.3581626851e+000,3.0371412780e+000,3.0494003714e+000,3.0830032821e+000,2.0434115124e+000,3.0823646567e+000,1.4921974480e+000,1.5545005292e+000,2.4124634638e+000,1.2777366562e+000,1.8924317624e+000,2.7596356437e+000,2.3009778222e+000,2.6191418099e+000,
1.8937500000e+001,3.3778419032e+000,3.0573145097e+000,3.0858382604e+000,3.1511088229e+000,2.0185972307e+000,3.0469296720e+000,1.4900724494e+000,1.6923797577e+000,2.4254988564e+000,1.3328383211e+000,1.9002743580e+000,2.7153490539e+000,2.3463566157e+000,2.6647600445e+000,
1.9031250000e+001,3.3341221708e+000,3.0400850266e+000,3.0167489892e+000,3.2040677040e+000,2.1356036676e+000,3.0901822605e+000,1.4721554948e+000,1.6755445270e+000,2.3754336067e+000,1.3886940110e+000,1.8168732724e+000,2.6674864320e+000,2.3084092780e+000,2.6911088498e+000,
1.9125000000e+001,3.3208568972e+000,3.0701936405e+000,2.9415261475e+000,3.1867691559e+000,2.0901674427e+000,3.0737155933e+000,1.4957992844e+000,1.7359145270e+000,2.3030994364e+000,1.4633800612e+000,1.8172272403e+000,2.6216833865e+000,2.2950237120e+000,2.6692636614e+000,
1.9218750000e+001,3.3328982424e+000,3.1097817372e+000,2.9593384910e+000,3.1723008667e+000,2.1683572923e+000,3.0526420278e+000,1.6599758107e+000,1.7705207929e+000,2.2642741551e+000,1.4244099795e+000,1.7841015262e+000,2.5241711381e+000,2.2328381815e+000,2.6922658668e+000,
1.9312500000e+001,3.3228100538e+000,3.1475958145e+000,3.0119367632e+000,3.2526286877e+000,2.2605988441e+000,3.1334036250e+000,1.7379051571e+000,1.9189789551e+000,2.2457209424e+000,1.4827613707e+000,1.7800167513e+000,2.5411356010e+000,2.0364767207e+000,2.7361847518e+000,
1.9406250000e+001,3.3122519045e+000,3.1119205141e+000,2.9513715189e+000,3.2069578951e+000,2.2392417571e+000,3.0347113649e+000,1.6862102947e+000,1.9808860018e+000,2.1266185631e+000,1.4855516514e+000,1.6102414046e+000,2.4312810447e+000,1.9778111992e+000,2.7665063284e+000,
1.9500000000e+001,3.2380461038e+000,3.0175704649e+000,2.8183443472e+000,3.2036563407e+000,2.1851784712e+000,2.9639295810e+000,1.5975333871e+000,1.9857574700e+000,2.1777467567e+000,1.4703791211e+000,1.5884443297e+000,2.4228087038e+000,1.9534566277e+000,2.8013871172e+000,
1.9593750000e+001,3.3539177245e+000,3.1543064042e+000,2.9620278210e+000,3.2684421928e+000,2.3483058100e+000,3.0013317711e+000,1.7326190750e+000,2.0995424475e+000,2.2895407782e+000,1.5871792692e+000,1.5456944131e+000,2.5517440231e+000,1.9851274345e+000,2.8501995920e+000,
1.9687500000e+001,3.3839511064e+000,3.1875587520e+000,3.0764554223e+000,3.3863865694e+000,2.4362418691e+000,3.1343793595e+000,1.7882052303e+000,2.1732529516e+000,2.4326389827e+000,1.6151784794e+000,1.4297076961e+000,2.4857622360e+000,2.0610206285e+000,2.7565560115e+000,
1.9781250000e+001,3.4343882455e+000,3.2784534901e+000,3.0711765861e+000,3.4353123522e+000,2.3604988625e+000,3.4383400265e+000,1.7882343262e+000,2.2326577225e+000,2.4148592367e+000,1.6265927747e+000,1.2421523184e+000,2.5951159219e+000,2.2590870595e+000,2.8614591650e+000,
1.9875000000e+001,3.4113438273e+000,3.2390356811e+000,3.0507558306e+000,3.4160027238e+000,2.3631841762e+000,3.4317586082e+000,1.7586227560e+000,2.2373127659e+000,2.5066184419e+000,1.6157661442e+000,1.0455615298e+000,2.5545141655e+000,2.2283087727e+000,2.8337914236e+000,
1.9968750000e+001,3.5922154942e+000,3.3875654526e+000,3.3668914472e+000,3.6077113329e+000,2.5538852549e+000,3.7004922116e+000,1.8203061266e+000,2.3531516063e+000,2.7906613214e+000,1.7678909718e+000,1.0276749748e+000,2.8107057086e+000,2.4592903159e+000,2.9038585018e+000,
2.0062500000e+001,3.6422552648e+000,3.4557453779e+000,3.4888841462e+000,3.6972624484e+000,2.5480832637e+000,3.7363429967e+000,1.8705740314e+000,2.4117306423e+000,2.8878106696e+000,1.7732093893e+000,1.0136236922e+000,2.8838562775e+000,2.5412757676e+000,2.9326721583e+000,
2.0156250000e+001,3.6813029413e+000,3.4954760912e+000,3.5112536772e+000,3.7094063424e+000,2.5395230030e+000,3.7930527575e+000,1.8101200272e+000,2.4135256267e+000,2.8788017463e+000,1.8084849307e+000,1.0576950419e+000,2.8949955899e+000,2.5393416113e+000,2.9093485700e+000,
2.0250000000e+001,3.6289467759e+000,3.4670264926e+000,3.5372987015e+000,3.7641473166e+000,2.6126941437e+000,3.9259132965e+000,1.6026598603e+000,2.4496714249e+000,2.9145967887e+000,1.8334682467e+000,9.3387008566e-001,2.9477505166e+000,2.6795883507e+000,2.9742178183e+000,
2.0343750000e+001,3.7162073876e+000,3.4586801737e+000,3.4800647044e+000,3.7003142727e+000,2.5651429855e+000,4.2735568821e+000,1.5882991743e+000,2.3888311639e+000,2.9043639473e+000,1.8478812099e+000,9.2733014416e-001,2.8991580301e+000,2.7235906364e+000,2.8891962702e+000,
2.0437500000e+001,3.7457109746e+000,3.4795412513e+000,3.5288482691e+000,3.7400433917e+000,2.6235943468e+000,4.4046128557e+000,1.5929973315e+000,2.3275027958e+000,2.8743666968e+000,1.8228301074e+000,9.7776925668e-001,2.9250726798e+000,2.7066651447e+000,2.9282463135e+000,
2.0531250000e+001,3.7050191076e+000,3.3994033943e+000,3.5110205830e+000,3.7257020914e+000,2.6074639176e+000,4.3799615411e+000,1.6234834872e+000,2.3345411384e+000,2.8592492320e+000,1.7936781779e+000,1.0352811324e+000,2.9061475085e+000,2.7992519382e+000,2.8926040404e+000,
2.0625000000e+001,3.7572682047e+000,3.6739612281e+000,3.5686098792e+000,3.7698477422e+000,2.6371864816e+000,4.4597297478e+000,1.5372745355e+000,2.3077931759e+000,2.8189587744e+000,1.7897201536e+000,1.1506291342e+000,2.9174493725e+000,2.8210967576e+000,2.9914427600e+000,
2.0718750000e+001,3.6762425264e+000,3.5899966823e+000,3.4778692854e+000,3.6738273148e+000,2.5500496397e+000,4.4405439140e+000,1.5343523447e+000,2.2511087544e+000,2.7642839040e+000,1.8402141009e+000,1.2831991749e+000,2.8886104426e+000,2.8296879010e+000,3.0070141517e+000,
2.0812500000e+001,3.7037878447e+000,3.6026204672e+000,3.5168676279e+000,3.7152865258e+000,2.5729242948e+000,4.4534108368e+000,1.6340988472e+000,2.3210491063e+000,2.7777626433e+000,1.8949923596e+000,1.4182831360e+000,2.8080715004e+000,2.7165408874e+000,2.9404271304e+000,
2.0906250000e+001,3.7616521659e+000,3.6643721410e+000,3.5705597692e+000,3.7607900309e+000,2.5783140483e+000,4.4835109248e+000,1.6790728616e+000,2.3747649558e+000,2.7501535341e+000,1.8780104551e+000,1.4673250169e+000,2.8448769243e+000,2.7941826499e+000,2.9919323440e+000,
2.1000000000e+001,3.6181954014e+000,3.6485443708e+000,3.3110644131e+000,3.6095614618e+000,2.4240484971e+000,4.4735704008e+000,1.5385244708e+000,2.2566158301e+000,2.4622537117e+000,1.7176194335e+000,1.5022291590e+000,2.6604622802e+000,2.6415024888e+000,2.9114156373e+000,
2.1093750000e+001,3.6892865031e+000,3.6469050968e+000,3.4007049485e+000,3.6555781569e+000,2.4999633398e+000,4.4796122251e+000,1.5537448537e+000,2.2560107104e+000,2.4802761074e+000,1.5855678767e+000,1.5399799397e+000,2.6186074151e+000,2.6145128780e+000,2.8880994875e+000,
2.1187500000e+001,3.6682890378e+000,3.6093812904e+000,3.4187143358e+000,3.6787420881e+000,2.4627819029e+000,4.5403631918e+000,1.5877060256e+000,2.3890520340e+000,2.4409697628e+000,1.6864872556e+000,1.5179282602e+000,2.6424051631e+000,2.6591619855e+000,3.0028186547e+000,
2.1281250000e+001,3.8800384421e+000,3.7429200827e+000,3.7195906669e+000,3.8664349557e+000,2.5352531097e+000,4.4663711994e+000,1.7205639329e+000,2.5199872238e+000,2.5476756770e+000,1.8142688769e+000,1.4873756860e+000,2.8342381762e+000,2.6953392693e+000,3.1548009384e+000,
2.1375000000e+001,3.9516199958e+000,3.8147429670e+000,3.8346206742e+000,3.9496262450e+000,2.5961936154e+000,4.2615409550e+000,1.7879166922e+000,2.5835227383e+000,2.5539970837e+000,1.9125914237e+000,1.4737317319e+000,2.8748967215e+000,2.7540296747e+000,3.1828843309e+000,
2.1468750000e+001,3.9688997657e+000,3.8227461715e+000,3.7839136726e+000,3.9177707492e+000,2.5360277589e+000,4.2444850111e+000,1.7780051391e+000,2.5359354145e+000,2.5791550014e+000,1.8992444766e+000,1.4328686090e+000,2.8941054305e+000,2.7084502017e+000,3.1883556327e+000,
2.1562500000e+001,3.9212929199e+000,3.6660673404e+000,3.7350809177e+000,3.8759614477e+000,2.4764164611e+000,4.2037595476e+000,1.7086353810e+000,2.5138396018e+000,2.6377718325e+000,1.9355976711e+000,1.4350469943e+000,2.8603767294e+000,2.6734077539e+000,3.2111295989e+000,
2.1656250000e+001,4.0308674306e+000,3.6756340358e+000,3.8770864787e+000,3.9246752805e+000,3.0585781611e+000,4.1923746325e+000,1.6700497677e+000,2.5647120788e+000,2.7868394638e+000,1.9816764446e+000,1.3293404729e+000,2.8927197666e+000,2.7879053853e+000,3.2335449851e+000,
2.1750000000e+001,4.0369232066e+000,3.7077978941e+000,4.0079820421e+000,3.9574567487e+000,3.7238528690e+000,4.1456909143e+000,1.7619644836e+000,2.5643498646e+000,2.7633159501e+000,1.9902575667e+000,1.1582633941e+000,2.8423635836e+000,2.8026909875e+000,3.2517989735e+000,
2.1843750000e+001,4.0809812328e+000,3.7962408114e+000,4.0699134830e+000,4.0119326687e+000,3.7970142946e+000,4.1345247620e+000,1.8981874192e+000,2.6028110702e+000,2.8345945740e+000,2.0182045334e+000,1.1073801538e+000,2.9046347676e+000,2.8385245815e+000,3.2704242867e+000,
2.1937500000e+001,4.1896184492e+000,3.8115756362e+000,4.0641784262e+000,3.9941955244e+000,3.7840060660e+000,4.1127631859e+000,1.8448893756e+000,2.5312245689e+000,2.7481559310e+000,2.0665347382e+000,1.1091887217e+000,2.9003657862e+000,2.7852651122e+000,3.2192618933e+000,
2.2031250000e+001,4.1455900446e+000,3.7171049004e+000,4.0362514292e+000,3.9112937874e+000,3.7958932565e+000,3.9912375604e+000,1.8666855222e+000,2.4803854794e+000,2.7482913640e+000,2.0838036212e+000,1.0205123068e+000,2.8486492559e+000,2.7568525526e+000,3.2184026065e+000,
2.2125000000e+001,4.1062391049e+000,3.6857803220e+000,3.9917229555e+000,3.8429587790e+000,3.7931340198e+000,3.9895402297e+000,1.9095069570e+000,2.4792498702e+000,2.7234135543e+000,2.0872779017e+000,9.5970812922e-001,2.8758200475e+000,2.7000389233e+000,3.2218377338e+000,
2.2218750000e+001,4.0482793526e+000,3.6594714981e+000,3.9114485846e+000,3.7341902288e+000,3.8195061788e+000,3.8130075734e+000,2.0375639577e+000,2.4465080638e+000,2.7109178777e+000,2.0594873515e+000,9.1900710401e-001,2.8254522828e+000,2.6402038158e+000,3.0439743131e+000,
2.2312500000e+001,3.8868145511e+000,3.5464680648e+000,3.6997852511e+000,3.5119541363e+000,3.8938187280e+000,3.7750796810e+000,2.3071399549e+000,2.2862484062e+000,2.6696184458e+000,1.8813581029e+000,9.4482386442e-001,2.6542249563e+000,2.4815271450e+000,2.9259844761e+000,
2.2406250000e+001,4.1646476465e+000,3.7542648013e+000,3.7691376525e+000,3.5794284422e+000,3.9271739415e+000,4.0312465196e+000,3.0390541389e+000,2.4272760586e+000,2.7092442402e+000,1.8838084844e+000,9.7953518965e-001,2.6821210823e+000,2.5482154571e+000,2.9361215984e+000,
2.2500000000e+001,4.2068477357e+000,3.8590231691e+000,3.8358161610e+000,3.6445772997e+000,4.4008705177e+000,4.1719598275e+000,3.1196953298e+000,2.5510753972e+000,2.6610343358e+000,1.9304109057e+000,1.0441053596e+000,2.6474297247e+000,2.4619435560e+000,2.9241354068e+000,
2.2593750000e+001,4.2427355058e+000,3.9535312332e+000,3.8174774587e+000,3.6480073237e+000,4.5543547324e+000,4.1651823028e+000,3.1322926868e+000,2.5784181012e+000,2.6198143333e+000,1.9982030199e+000,1.0957251882e+000,2.5960937469e+000,2.3885524436e+000,2.9487700483e+000,
2.2687500000e+001,4.2564693511e+000,3.9852991225e+000,3.4962053745e+000,3.5048463899e+000,4.2341484861e+000,4.1176375327e+000,3.1180694109e+000,2.5574848024e+000,2.4216100087e+000,1.8861706989e+000,1.0987752393e+000,2.5456342100e+000,2.1668918366e+000,2.8414911212e+000,
2.2781250000e+001,4.2532656384e+000,3.9544099775e+000,3.4763726613e+000,3.5242970026e+000,4.3407733001e+000,4.0909185550e+000,3.0711434573e+000,2.6860388935e+000,2.3426948602e+000,1.8851779602e+000,1.2076819788e+000,2.5914502724e+000,2.2333593001e+000,2.8956375724e+000,
2.2875000000e+001,4.2776479291e+000,3.9324260622e+000,3.4233535231e+000,3.4845438938e+000,4.3733174404e+000,4.1258447197e+000,3.0659238846e+000,2.7702144195e+000,2.4432850405e+000,1.8394078277e+000,1.3267190979e+000,2.6180174895e+000,2.2510343852e+000,2.9097756373e+000,
2.2968750000e+001,4.2195095115e+000,3.9107345464e+000,3.3866358643e+000,3.4108543200e+000,4.3694924438e+000,4.1917237161e+000,3.0553358126e+000,2.8256482364e+000,2.3839494212e+000,1.8088781826e+000,1.3412497045e+000,2.6635119291e+000,2.2540172317e+000,2.9149171336e+000,
2.3062500000e+001,4.2361709910e+000,4.0384878825e+000,3.5367007835e+000,3.6344347326e+000,4.3846532977e+000,4.2787897178e+000,3.0704236159e+000,3.0524889833e+000,2.5067955675e+000,1.8773322445e+000,1.4221794891e+000,2.8554420951e+000,2.3230812420e+000,3.0033366812e+000,
2.3156250000e+001,4.2332362806e+000,4.0449817236e+000,3.5148641170e+000,3.6410197381e+000,4.3923876498e+000,4.2938953215e+000,3.0278979099e+000,2.9793558323e+000,2.5398837476e+000,1.8796252730e+000,1.4879964978e+000,2.7918488243e+000,2.3641139432e+000,2.9946377934e+000,
2.3250000000e+001,4.2807541735e+000,4.1275257453e+000,3.6362936488e+000,3.7925828677e+000,4.4623737441e+000,4.3193404508e+000,3.0206317057e+000,3.0696641339e+000,2.7093406827e+000,1.8290583065e+000,1.6157685868e+000,2.8944313610e+000,2.3647934592e+000,3.0778648197e+000,
2.3343750000e+001,4.2545681361e+000,4.1573726403e+000,3.6334733864e+000,3.8625959137e+000,4.5149992398e+000,4.2730576558e+000,2.5141361981e+000,3.1035258816e+000,2.7584580304e+000,1.8496403330e+000,1.6167346555e+000,2.9342847356e+000,2.4168286214e+000,3.1529177434e+000,
2.3437500000e+001,4.0132743929e+000,4.0203317790e+000,3.5470989553e+000,3.8534034507e+000,4.5414619559e+000,4.5391021343e+000,1.7772909901e+000,3.1508497139e+000,2.7656452949e+000,1.8511742870e+000,1.5771314338e+000,3.0104697931e+000,2.4115926451e+000,3.1618734826e+000,
2.3531250000e+001,4.0145043323e+000,4.0378622257e+000,3.5282299017e+000,3.8942113260e+000,4.3933618163e+000,4.8512892550e+000,1.7528412800e+000,3.2526314723e+000,2.8380182784e+000,1.8481516750e+000,1.6374981975e+000,3.1052612520e+000,2.5889372823e+000,3.1892004003e+000,
2.3625000000e+001,3.9228740677e+000,4.0642412671e+000,3.5538216455e+000,4.0474257925e+000,4.5686501553e+000,5.3467732821e+000,1.7331952887e+000,3.3222480402e+000,2.8377512044e+000,1.7404253660e+000,1.6489047911e+000,3.1673347132e+000,2.6419210226e+000,3.2856490281e+000,
2.3718750000e+001,3.8723625981e+000,4.2468873192e+000,3.6007426146e+000,4.2575844704e+000,4.5212334769e+000,5.7368178831e+000,1.8014625214e+000,3.4718006237e+000,2.8215386733e+000,1.7803909278e+000,1.6249710447e+000,3.1951126011e+000,2.6337792022e+000,3.2120273502e+000,
2.3812500000e+001,3.9321067104e+000,4.4198086896e+000,3.6295222435e+000,4.3348757936e+000,4.4822049324e+000,5.9352892742e+000,1.7399408326e+000,3.5094846332e+000,2.8326052876e+000,1.7430784547e+000,1.5768992087e+000,3.1689887423e+000,2.5525231089e+000,3.1693135544e+000,
2.3906250000e+001,3.8946890266e+000,4.6788244305e+000,3.6096201524e+000,4.6383758299e+000,4.4558592519e+000,6.3157742267e+000,1.7334909947e+000,3.9544786548e+000,2.6896295478e+000,1.7819890176e+000,1.4218932907e+000,3.1284827446e+000,2.4931411965e+000,3.1363833857e+000,
2.4000000000e+001,4.1378255201e+000,5.1308558248e+000,3.6864986718e+000,4.9550166615e+000,4.6838155047e+000,6.6414312812e+000,1.7853363523e+000,4.2682327205e+000,2.6762328344e+000,1.7250883912e+000,1.4493521550e+000,3.0717524465e+000,2.4380479967e+000,3.1436311486e+000,
2.4093750000e+001,4.2639163464e+000,5.2746135678e+000,3.8132813968e+000,5.1385789938e+000,4.7422215415e+000,6.7965878911e+000,2.0697809725e+000,4.3969927689e+000,2.6351035321e+000,1.6819512254e+000,1.4388901452e+000,2.9485905048e+000,2.4618704747e+000,3.1231256122e+000,
2.4187500000e+001,4.3295538443e+000,5.8289834087e+000,3.9576211108e+000,5.4042757156e+000,4.7426709800e+000,7.1525607346e+000,2.2380330457e+000,4.5023136809e+000,2.7161938245e+000,1.6202414098e+000,1.4417144464e+000,3.0624937620e+000,2.4481209193e+000,3.2076333562e+000,
2.4281250000e+001,4.3314579401e+000,5.9314000141e+000,4.0026697234e+000,5.4437874267e+000,4.9140353922e+000,7.2374253946e+000,2.2164847878e+000,4.6243641289e+000,2.4531693122e+000,1.6203808105e+000,1.3793739024e+000,2.9768834731e+000,2.4389333025e+000,3.1104111928e+000,
2.4375000000e+001,4.3670078303e+000,5.9722890022e+000,4.1183305644e+000,5.4761622844e+000,5.0179017575e+000,7.2545520539e+000,2.2871743036e+000,4.6755606702e+000,2.5494482719e+000,1.7448863217e+000,1.5412604809e+000,2.9600523254e+000,2.5293571535e+000,3.1516598421e+000,
2.4468750000e+001,4.5033132278e+000,5.9743483602e+000,4.3180037884e+000,5.4867001477e+000,5.2039173687e+000,7.2759207587e+000,2.4496980468e+000,4.7004190969e+000,2.4212164170e+000,1.7297031429e+000,1.4651572830e+000,2.8606053207e+000,2.4350157396e+000,3.0861277186e+000,
2.4562500000e+001,4.6403800238e+000,6.0141288302e+000,4.4187722760e+000,5.4973568316e+000,5.1131764989e+000,7.2922121728e+000,2.4800238677e+000,4.7005676799e+000,2.5025172282e+000,1.7531364116e+000,1.5029260316e+000,2.8393125396e+000,2.3990680187e+000,2.9688843881e+000,
2.4656250000e+001,4.7201317283e+000,6.0192725849e+000,4.5489033296e+000,5.5067598528e+000,5.1583730159e+000,7.2674361481e+000,2.5163506615e+000,4.7094536449e+000,2.6324280458e+000,1.7163061114e+000,1.4900414784e+000,2.8323926876e+000,2.4522751578e+000,2.9119309305e+000,
2.4750000000e+001,4.7428175954e+000,5.9843606729e+000,4.5818679358e+000,5.4668110483e+000,5.1786817004e+000,7.2194521291e+000,2.5221842248e+000,4.6749651186e+000,2.6438741252e+000,1.6052914211e+000,1.4848078590e+000,2.8728829918e+000,2.4659374690e+000,2.9673169351e+000,
2.4843750000e+001,4.7575836233e+000,5.9703074650e+000,4.5950677861e+000,5.4176031628e+000,5.1940874877e+000,7.1464874124e+000,2.5176538087e+000,4.6345916004e+000,2.7337252616e+000,1.5610544560e+000,1.4884112903e+000,2.8889287153e+000,2.4915988555e+000,2.9985341162e+000,
2.4937500000e+001,4.6779051344e+000,5.8529517219e+000,4.6019043378e+000,5.2124405212e+000,5.1388694287e+000,6.9728153138e+000,2.5185515490e+000,4.3410621881e+000,2.7587520112e+000,1.4960065575e+000,1.5610902364e+000,2.8469796013e+000,2.5578570961e+000,3.0257593451e+000,
2.5031250000e+001,4.6784575221e+000,5.7843955199e+000,4.5944961854e+000,5.1834062824e+000,5.0903322766e+000,6.8758953194e+000,2.5466500002e+000,4.3154716521e+000,2.7084954816e+000,1.5904746647e+000,1.5334609542e+000,3.0251636007e+000,2.6313655249e+000,3.1344571673e+000,
2.5125000000e+001,4.9187226377e+000,5.6873520630e+000,4.6925437372e+000,5.0331831804e+000,5.1351518273e+000,6.8363179261e+000,2.5064274856e+000,4.2202197877e+000,2.7691282300e+000,1.5809671714e+000,1.6429761886e+000,3.1405459455e+000,2.8542051704e+000,3.1753977833e+000,
2.5218750000e+001,4.9227584598e+000,4.9532910279e+000,4.6223684161e+000,4.6414366251e+000,5.0456009559e+000,6.2374885734e+000,2.4101826088e+000,4.0485914555e+000,2.7597355094e+000,1.6875982766e+000,1.6768055421e+000,3.1002029479e+000,2.9045157736e+000,3.1762534216e+000,
2.5312500000e+001,4.8999045137e+000,4.7145100712e+000,4.5474429628e+000,4.5338515296e+000,4.9262699133e+000,6.1601365000e+000,2.3732784097e+000,3.8749640065e+000,2.7840245875e+000,1.6675601984e+000,1.7037011712e+000,3.1901621096e+000,2.9291299941e+000,3.1065671050e+000,
2.5406250000e+001,4.9043781706e+000,4.6918404703e+000,4.4970063307e+000,4.4753525856e+000,4.8724661554e+000,6.0985401607e+000,2.2915023042e+000,3.7985793364e+000,2.6883121525e+000,1.5291134332e+000,1.6920792346e+000,3.3264152012e+000,2.8761362207e+000,3.0426488402e+000,
2.5500000000e+001,4.9972695454e+000,4.7212616781e+000,4.4467729063e+000,4.4508287143e+000,4.6225606292e+000,5.9561211102e+000,2.1350966693e+000,3.6816278163e+000,2.7283095887e+000,1.5198182396e+000,1.7388775165e+000,3.3737294525e+000,2.8701274735e+000,3.0515117446e+000,
2.5593750000e+001,4.9216078410e+000,4.5901945672e+000,4.2831545892e+000,4.4009577818e+000,4.3836515401e+000,5.7075541326e+000,2.0385974852e+000,3.7118724981e+000,2.5684521738e+000,1.5368988022e+000,1.6954940891e+000,3.4171878271e+000,2.8138355701e+000,3.1020628331e+000,
2.5687500000e+001,5.0541081322e+000,4.6542220277e+000,4.2311512562e+000,4.3560253503e+000,4.2906656450e+000,5.6269800954e+000,1.9527356824e+000,3.6952827611e+000,2.5864074775e+000,1.5522704122e+000,1.7316921744e+000,3.3950209083e+000,2.8471642990e+000,3.0768536956e+000,
2.5781250000e+001,5.1190514745e+000,4.6793446699e+000,4.2446594358e+000,4.3555537535e+000,4.3352417112e+000,5.6372795622e+000,2.0042890568e+000,3.6767494373e+000,2.5960967512e+000,1.6256129939e+000,1.7524563432e+000,3.4193470782e+000,2.9342143258e+000,3.1152534613e+000,
2.5875000000e+001,5.1648126912e+000,4.5854658564e+000,4.2924244863e+000,4.3149342001e+000,4.3418033712e+000,5.5903814607e+000,2.0317575309e+000,3.5949018640e+000,2.4696536157e+000,1.6888901196e+000,1.7649602964e+000,3.3787414616e+000,2.9203837508e+000,3.1267467595e+000,
2.5968750000e+001,5.1801036713e+000,4.5110796308e+000,4.3006446443e+000,4.2406634557e+000,4.2958809804e+000,5.4060216642e+000,2.0077967762e+000,3.4444433196e+000,2.4911415030e+000,1.8432618071e+000,1.7325356940e+000,3.4026462234e+000,2.8817379198e+000,3.1087730983e+000,
2.6062500000e+001,5.1543483558e+000,4.3654504042e+000,4.1833680950e+000,4.1029200463e+000,4.2586632214e+000,5.1274280794e+000,1.8002331466e+000,3.2807513756e+000,2.5121840599e+000,1.8409791966e+000,1.7555054974e+000,3.3057546510e+000,2.8957103532e+000,3.0657642530e+000,
2.6156250000e+001,4.9913895138e+000,4.3332998244e+000,4.0418676804e+000,4.0933557638e+000,4.1521533534e+000,4.8585217346e+000,1.7129291075e+000,3.2170393985e+000,2.4688476806e+000,1.8752766842e+000,1.6185800551e+000,3.3870325614e+000,2.7842979980e+000,3.2486455595e+000,
2.6250000000e+001,4.9854207652e+000,4.2759966352e+000,4.0408228422e+000,4.0732649286e+000,4.2166814173e+000,4.8121828115e+000,1.7003630335e+000,3.0698552525e+000,2.5407227177e+000,1.8106669016e+000,1.5637472783e+000,3.3817320176e+000,2.7895531106e+000,3.2687091414e+000,
2.6343750000e+001,4.9816085200e+000,4.2710980381e+000,4.0827315744e+000,4.1161763501e+000,3.9570805924e+000,4.6838454164e+000,1.7780922449e+000,3.0079611847e+000,2.4873684099e+000,1.8526680029e+000,1.5325206585e+000,3.2827210099e+000,2.7362277911e+000,3.2315341973e+000,
2.6437500000e+001,4.9546022216e+000,4.2279196692e+000,4.0827990149e+000,4.1184016816e+000,3.9138014247e+000,4.7145250057e+000,1.7200709326e+000,3.0613049863e+000,2.5469648655e+000,1.9887886908e+000,1.4315415872e+000,3.0987949063e+000,2.7716280837e+000,3.2531550233e+000,
2.6531250000e+001,4.7828297239e+000,4.1204736456e+000,4.0022044753e+000,4.0838186882e+000,3.9124708695e+000,4.7769598155e+000,1.7348051989e+000,3.1008430561e+000,2.5781932136e+000,1.9429029494e+000,1.4515585253e+000,3.0604280167e+000,2.8071830946e+000,3.2734742895e+000,
2.6625000000e+001,4.6854147843e+000,3.9173480315e+000,4.0010647453e+000,4.0150867085e+000,3.9072539797e+000,4.7957402683e+000,1.6757175217e+000,3.0278624601e+000,2.5433163832e+000,1.9237571223e+000,1.3988643315e+000,2.9324140525e+000,2.7621997459e+000,3.1861709829e+000,
2.6718750000e+001,4.4429700622e+000,3.7770973112e+000,3.9499886173e+000,4.0474284396e+000,3.8916014345e+000,4.7548241454e+000,1.7412633028e+000,3.0887364377e+000,2.5956197106e+000,1.9256568971e+000,1.3423865246e+000,3.0042779082e+000,2.7521398040e+000,3.2098998309e+000,
2.6812500000e+001,4.2926493200e+000,3.6691002410e+000,3.8512859145e+000,4.0146915264e+000,3.8398760745e+000,4.7532825009e+000,1.6790658436e+000,3.1043727451e+000,2.5815846156e+000,1.8230620467e+000,1.3696445626e+000,2.9848778567e+000,2.6716538786e+000,3.1950596647e+000,
2.6906250000e+001,4.1800321052e+000,3.6431699439e+000,3.7695001912e+000,3.9814862825e+000,3.8310986565e+000,4.7321440812e+000,1.7077395572e+000,3.0851362894e+000,2.6429876320e+000,1.7862437255e+000,1.3835708394e+000,3.0179246120e+000,2.6707368430e+000,3.2041308915e+000,
2.7000000000e+001,4.0601828185e+000,3.5132239010e+000,3.7328586060e+000,3.9226557433e+000,3.7633223112e+000,4.7081071145e+000,1.8171008364e+000,2.9998607163e+000,2.6347053289e+000,1.5668647881e+000,1.3917732476e+000,2.9119396357e+000,2.5946968518e+000,3.2161015872e+000,
2.7093750000e+001,3.9463166666e+000,3.4388885150e+000,3.6646873169e+000,3.8606547750e+000,3.8106439801e+000,4.7595725511e+000,1.7781934195e+000,2.9875192417e+000,2.6274737501e+000,1.4871264371e+000,1.3501556155e+000,2.8713800792e+000,2.4818719189e+000,3.1275969568e+000,
2.7187500000e+001,3.8419926075e+000,3.3736069905e+000,3.4865270632e+000,3.7218157070e+000,3.8068925480e+000,4.7663390219e+000,1.7897290821e+000,2.9131874504e+000,2.5423936019e+000,1.5602132333e+000,1.3621719230e+000,2.7010762684e+000,2.4642564459e+000,2.9009167495e+000,
2.7281250000e+001,3.8183068003e+000,3.3780421440e+000,3.4413538974e+000,3.5575305498e+000,3.7011449904e+000,4.7167462019e+000,1.7428223133e+000,2.8685148843e+000,2.4953128562e+000,1.5311654674e+000,1.4283531971e+000,2.6979108905e+000,2.4206151651e+000,2.8271978588e+000,
2.7375000000e+001,3.8675793821e+000,3.4241833688e+000,3.3386990656e+000,3.4828446963e+000,3.7182422124e+000,4.6798623609e+000,1.8037661566e+000,2.8574396488e+000,2.5753137441e+000,1.4644354229e+000,1.4639100290e+000,2.8287344861e+000,2.4353992108e+000,2.8518518924e+000,
2.7468750000e+001,3.8200294739e+000,3.4034416170e+000,3.3057951048e+000,3.4323244052e+000,3.8432110022e+000,4.6840852514e+000,1.8829287006e+000,2.9059555615e+000,2.4850567985e+000,1.3693264464e+000,1.4518801315e+000,2.8523875673e+000,2.3722078005e+000,2.8184195345e+000,
2.7562500000e+001,3.8443122609e+000,3.4949456306e+000,3.3918939097e+000,3.4857494492e+000,3.8513774038e+000,4.6453818846e+000,1.9184155485e+000,2.8934648391e+000,2.4781923446e+000,1.4565153307e+000,1.5343301654e+000,2.8911260353e+000,2.4080977263e+000,2.8432422559e+000,
2.7656250000e+001,3.7983856389e+000,3.5097554608e+000,3.4869988308e+000,3.5563838823e+000,3.7437913694e+000,4.6782115872e+000,1.9777675272e+000,2.8255420600e+000,2.4988393650e+000,1.5202390342e+000,1.5338089430e+000,2.8813146734e+000,2.4593705964e+000,2.8867363615e+000,
2.7750000000e+001,3.8218794194e+000,3.5860081014e+000,3.5358456469e+000,3.5743245167e+000,3.8001270175e+000,4.5847545538e+000,1.9312317906e+000,2.8691066538e+000,2.4198762859e+000,1.5004524564e+000,1.5255803854e+000,2.8398339521e+000,2.4576717887e+000,2.8435990406e+000,
2.7843750000e+001,3.8417597069e+000,3.5998987057e+000,3.5363941083e+000,3.5954041814e+000,3.7852816750e+000,4.6302342608e+000,1.9034764018e+000,2.9089584752e+000,2.4143665224e+000,1.5469119254e+000,1.4543808527e+000,2.8357360650e+000,2.4883757536e+000,2.8138932389e+000,
2.7937500000e+001,3.8467545246e+000,3.6238724245e+000,3.5643512330e+000,3.6310918653e+000,3.7600383254e+000,4.6400976960e+000,1.8561059453e+000,2.9169448817e+000,2.3963825713e+000,1.5584475693e+000,1.4362453708e+000,2.8381347662e+000,2.4673497228e+000,2.7719981319e+000,
2.8031250000e+001,3.7743389570e+000,3.6464450126e+000,3.5807907172e+000,3.6434130950e+000,3.7904629938e+000,4.7586888363e+000,1.8339962753e+000,2.9610183752e+000,2.4288433683e+000,1.5990698102e+000,1.3745137166e+000,2.9210487806e+000,2.5132940133e+000,2.8715828682e+000,
2.8125000000e+001,3.7412522291e+000,3.6112262831e+000,3.5316303240e+000,3.6031256080e+000,3.6799943627e+000,4.6620514255e+000,1.7992408806e+000,2.9189912087e+000,2.3933775445e+000,1.5704724163e+000,1.3235612982e+000,2.8932511036e+000,2.4892942936e+000,2.7462103880e+000,
2.8218750000e+001,3.7117977640e+000,3.5911343459e+000,3.5168767550e+000,3.6343140703e+000,3.5683965345e+000,4.6546380028e+000,1.7599195799e+000,2.9573777170e+000,2.2811985369e+000,1.5133129105e+000,1.2361850851e+000,2.8108464406e+000,2.4656241090e+000,2.7488003185e+000,
2.8312500000e+001,3.7194879042e+000,3.4612670933e+000,3.5556976193e+000,3.6087245367e+000,3.5773384125e+000,4.6417471852e+000,1.7866616896e+000,3.0010054740e+000,2.2045815684e+000,1.4889056669e+000,1.1663922831e+000,2.7748157800e+000,2.4915484702e+000,2.7699865124e+000,
2.8406250000e+001,3.7328719397e+000,3.4042814417e+000,3.5881983418e+000,3.5475072532e+000,3.3665684418e+000,4.6311174618e+000,1.7536756442e+000,3.0044658593e+000,2.2117080887e+000,1.4477725669e+000,1.2858337898e+000,2.6354725092e+000,2.4657082085e+000,2.7663289690e+000,
2.8500000000e+001,3.8235005473e+000,3.4633997761e+000,3.6375967292e+000,3.5558735167e+000,3.3811086537e+000,4.5541886128e+000,1.6649660937e+000,2.9613627633e+000,2.2206744361e+000,1.5431187060e+000,1.3104898283e+000,2.6960728382e+000,2.5261393525e+000,2.8101004280e+000,
2.8593750000e+001,3.8289091465e+000,3.4838402717e+000,3.5302803466e+000,3.5292566618e+000,3.2969420770e+000,4.6622806742e+000,1.5413849382e+000,2.9398961689e+000,2.1124543808e+000,1.5065932369e+000,1.3546474188e+000,2.6802773830e+000,2.4515495845e+000,2.7762410763e+000,
2.8687500000e+001,3.8030766401e+000,3.3937928002e+000,3.3734643136e+000,3.4415047103e+000,3.1330154396e+000,4.6182513295e+000,1.6871140166e+000,2.9033713552e+000,2.0934522019e+000,1.5585228498e+000,1.3600550960e+000,2.7123335228e+000,2.5059543637e+000,2.8144536396e+000,
2.8781250000e+001,3.8104456816e+000,3.3068441617e+000,3.2825326768e+000,3.2736881735e+000,3.0193190620e+000,4.5043991434e+000,1.6886097870e+000,2.8246050898e+000,2.1080940791e+000,1.5643558660e+000,1.3545304745e+000,2.6960562625e+000,2.4813959655e+000,2.7761731900e+000,
2.8875000000e+001,3.6728355031e+000,3.3371060973e+000,3.2012248456e+000,3.2411081444e+000,3.0055717482e+000,4.4835141279e+000,1.6957915964e+000,2.7999131619e+000,2.1021026722e+000,1.5241677223e+000,1.3983710681e+000,2.6732532077e+000,2.5029009718e+000,2.7804506715e+000,
2.8968750000e+001,3.7370713999e+000,3.4179838555e+000,3.3045520743e+000,3.4016262071e+000,3.1033767313e+000,4.4423429992e+000,1.6935408251e+000,2.7453811268e+000,2.4676247645e+000,1.6139622349e+000,1.4294610270e+000,2.7918509373e+000,2.6688872944e+000,2.9551106947e+000,
2.9062500000e+001,3.7347127570e+000,3.3825614992e+000,3.2923401848e+000,3.3935952330e+000,3.0538824481e+000,4.3213025426e+000,1.7353426993e+000,2.8323698076e+000,2.4336821903e+000,1.6476438189e+000,1.4790894579e+000,2.7116689753e+000,2.6424879033e+000,2.8542923219e+000,
2.9156250000e+001,3.7211214163e+000,3.3868957267e+000,3.3101488039e+000,3.4430945238e+000,3.1685975843e+000,4.3755077467e+000,1.7679433515e+000,2.8605859775e+000,2.4527831004e+000,1.6523028467e+000,1.5235683946e+000,2.7001443575e+000,2.6016675579e+000,2.8634474048e+000,
2.9250000000e+001,3.6453075890e+000,3.4926747615e+000,3.3190188502e+000,3.5001812333e+000,3.1794011745e+000,4.4467539503e+000,1.7484282124e+000,2.8120907744e+000,2.4406727521e+000,1.5976372945e+000,1.5503406354e+000,2.7364588428e+000,2.6035186746e+000,2.7923662657e+000,
2.9343750000e+001,3.5884689560e+000,3.5480414307e+000,3.2434482087e+000,3.5447509550e+000,3.1058840703e+000,4.2714479539e+000,1.6693331619e+000,2.6576907707e+000,2.4155142953e+000,1.5727584501e+000,1.4393569508e+000,2.7434344999e+000,2.5457314351e+000,2.8485507587e+000,
2.9437500000e+001,3.5115882779e+000,3.5576027455e+000,3.1747613886e+000,3.5856659672e+000,3.1498626051e+000,4.2811015094e+000,1.7534740834e+000,2.6770374696e+000,2.3988108325e+000,1.5212155188e+000,1.2985709082e+000,2.6068167580e+000,2.4783630339e+000,2.7850009467e+000,
2.9531250000e+001,3.4560508712e+000,3.5887685497e+000,3.2432375857e+000,3.6794691903e+000,3.0972669133e+000,4.1652219596e+000,1.7505496855e+000,2.6817320694e+000,2.4340134464e+000,1.5017718145e+000,1.2095501595e+000,2.6799416400e+000,2.4793079303e+000,2.8084736293e+000,
2.9625000000e+001,3.3896858835e+000,3.5262873650e+000,3.2160336769e+000,3.6455066855e+000,3.0896133669e+000,4.1935667202e+000,1.6268242833e+000,2.6607512450e+000,2.4408475088e+000,1.4674472408e+000,1.0920410711e+000,2.6370688966e+000,2.4562188877e+000,2.7998187949e+000,
2.9718750000e+001,3.2875215330e+000,3.4909381802e+000,3.2127981703e+000,3.5921363522e+000,3.1788835455e+000,4.1876986963e+000,1.7259159867e+000,2.6907337116e+000,2.4370346573e+000,1.3605135146e+000,1.1496926719e+000,2.6662152810e+000,2.4106601724e+000,2.7347821744e+000,
2.9812500000e+001,3.2982002726e+000,3.5197004397e+000,3.3445198076e+000,3.6665031036e+000,3.2008018716e+000,4.2810920691e+000,1.7512543297e+000,2.7221532142e+000,2.5086819088e+000,1.3608270135e+000,1.1273414595e+000,2.8775874683e+000,2.5049546205e+000,2.8590808357e+000,
2.9906250000e+001,3.2850816709e+000,3.5055904677e+000,3.3460302871e+000,3.7246227557e+000,3.2341170788e+000,4.3836188904e+000,1.7425307918e+000,2.7708575325e+000,2.5342242243e+000,1.3753694727e+000,1.0670995247e+000,2.9170163985e+000,2.5217578490e+000,2.8888270175e+000,
3.0000000000e+001,3.0635860038e+000,3.4037923229e+000,3.1756589529e+000,3.5548460197e+000,3.1885270474e+000,4.3878839542e+000,1.7248525852e+000,2.6961079909e+000,2.2457679382e+000,1.1866588644e+000,1.1143115643e+000,2.7770343617e+000,2.4412415088e+000,2.7034630757e+000,
3.0093750000e+001,3.2252702565e+000,3.4379360756e+000,3.3001137926e+000,3.5912388396e+000,3.2279509422e+000,4.3945870251e+000,1.7016512550e+000,2.6151317194e+000,2.3231867596e+000,1.1339343259e+000,1.0423110062e+000,2.7996573771e+000,2.5061586807e+000,2.7770291450e+000,
3.0187500000e+001,3.3961523939e+000,3.4110018154e+000,3.4124210462e+000,3.4970797305e+000,3.1456376709e+000,4.3428701152e+000,1.7500359852e+000,2.5882836486e+000,2.3819647678e+000,1.1953159332e+000,1.0547743173e+000,2.8275739304e+000,2.5607812495e+000,2.9897132603e+000,
3.0281250000e+001,3.4835777720e+000,3.2576997984e+000,3.4360807018e+000,3.4787726497e+000,3.1360507402e+000,4.2742838209e+000,1.7891510478e+000,2.6308672568e+000,2.3968609086e+000,1.2311853675e+000,1.0792035103e+000,2.7827671628e+000,2.6273575046e+000,3.0341361545e+000,
3.0375000000e+001,3.5022315916e+000,3.2488904983e+000,3.4877181742e+000,3.4990487042e+000,3.0898318751e+000,4.4382975747e+000,1.9313123533e+000,2.6847184552e+000,2.5700588426e+000,1.3274762030e+000,1.1022273473e+000,2.8374498313e+000,2.6627910066e+000,3.0669288472e+000,
3.0468750000e+001,3.6230818611e+000,3.3404686918e+000,3.4509259979e+000,3.4000836694e+000,3.0849872677e+000,4.4453096276e+000,1.8767884770e+000,2.6493443706e+000,2.5977185272e+000,1.2748317712e+000,1.1022745588e+000,2.9259606182e+000,2.7187996172e+000,3.0725232217e+000,
3.0562500000e+001,3.6348543849e+000,3.3612939917e+000,3.4493316103e+000,3.3726902780e+000,3.1407101691e+000,4.4919436845e+000,1.9313673361e+000,2.6120969873e+000,2.7389217813e+000,1.2539344829e+000,1.1640003400e+000,2.9533613121e+000,2.7877914502e+000,3.1013609736e+000,
3.0656250000e+001,3.7287205100e+000,3.4277149505e+000,3.4782618005e+000,3.4177035210e+000,3.0106459294e+000,4.4712927007e+000,1.8799291209e+000,2.6023840827e+000,2.7592480951e+000,1.2712262869e+000,1.3505404305e+000,2.9868984995e+000,2.8205672816e+000,3.2274417975e+000,
3.0750000000e+001,3.8284265106e+000,3.4292165624e+000,3.5128144071e+000,3.4343887367e+000,3.0248473002e+000,4.4410440639e+000,1.7760768077e+000,2.4794892274e+000,2.7434180669e+000,1.3173444020e+000,1.3887128637e+000,2.8069523341e+000,2.7785361899e+000,3.2258457983e+000,
3.0843750000e+001,3.8569562558e+000,3.4431059114e+000,3.5264791783e+000,3.4467216488e+000,3.0002265771e+000,4.4111031950e+000,1.7842554537e+000,2.4412768342e+000,2.7922285456e+000,1.3052160495e+000,1.4475689385e+000,2.7620674813e+000,2.8108215663e+000,3.2995412899e+000,
3.0937500000e+001,3.8728262923e+000,3.4043027437e+000,3.5602260793e+000,3.3898926727e+000,2.9840440452e+000,4.2680281456e+000,1.8195232521e+000,2.3798658862e+000,2.7775078352e+000,1.3329701923e+000,1.4829095983e+000,2.7261901435e+000,2.7982222149e+000,3.2796583706e+000,
3.1031250000e+001,3.9116775716e+000,3.4382731339e+000,3.5515815764e+000,3.3781996719e+000,2.8763713147e+000,4.2806247893e+000,1.8167532156e+000,2.4432680689e+000,2.7472110873e+000,1.3304409645e+000,1.4484275414e+000,2.7047837523e+000,2.7391519759e+000,3.2696921267e+000,
3.1125000000e+001,3.9211132298e+000,3.5126062949e+000,3.5623323986e+000,3.5101001709e+000,2.8413954932e+000,4.2314625458e+000,1.7826204676e+000,2.5050251541e+000,2.7061153500e+000,1.3330993142e+000,1.4459395933e+000,2.7300879621e+000,2.8612735131e+000,3.1982408979e+000,
3.1218750000e+001,3.8522691226e+000,3.5542801132e+000,3.4571037789e+000,3.6430353148e+000,2.7946857632e+000,4.2160422302e+000,1.8016132399e+000,2.6620397758e+000,2.6553267618e+000,1.3553732117e+000,1.4274761986e+000,2.6746209517e+000,2.7740821648e+000,3.1068513394e+000,
3.1312500000e+001,3.8065689498e+000,3.6005376965e+000,3.4337503449e+000,3.6374745404e+000,2.7933265437e+000,4.1216195530e+000,1.7575273585e+000,2.5854747566e+000,2.5635016334e+000,1.1641886681e+000,1.4421335847e+000,2.7101910712e+000,2.8238365734e+000,3.1290711218e+000,
3.1406250000e+001,3.7763292404e+000,3.5495233739e+000,3.3539895659e+000,3.6027720967e+000,2.7954841864e+000,3.9593309941e+000,1.7157439001e+000,2.5396952436e+000,2.4732962865e+000,1.1937163131e+000,1.4670248260e+000,2.6764897139e+000,2.7921180343e+000,3.0768609949e+000,
3.1500000000e+001,3.7269584510e+000,3.4123733856e+000,3.3813803103e+000,3.5946991658e+000,2.8419625372e+000,3.8413453913e+000,1.7007881464e+000,2.4125767667e+000,2.2809535305e+000,1.1760524715e+000,1.4590835018e+000,2.5008097500e+000,2.6809911493e+000,3.0486479462e+000,
3.1593750000e+001,3.7680504771e+000,3.4646578719e+000,3.4470289934e+000,3.6678252555e+000,2.9125224670e+000,3.8616965906e+000,1.8001934349e+000,2.4099100505e+000,2.3960156619e+000,1.2103699525e+000,1.5063118025e+000,2.6432660662e+000,2.7172842813e+000,2.9571740671e+000,
3.1687500000e+001,3.7025701189e+000,3.4750102706e+000,3.4123053726e+000,3.6607861230e+000,2.9489586370e+000,3.8261438843e+000,1.7989819380e+000,2.3977320416e+000,2.3769928818e+000,1.1747361842e+000,1.4424472685e+000,2.5794323775e+000,2.6590766625e+000,2.8526743060e+000,
3.1781250000e+001,3.5542600375e+000,3.4030188596e+000,3.2791217954e+000,3.5328410912e+000,2.9646086916e+000,3.7808742092e+000,1.8110207352e+000,2.3739939356e+000,2.1804462816e+000,1.2174764357e+000,1.3933399860e+000,2.5856125058e+000,2.6171485140e+000,2.7479662468e+000,
3.1875000000e+001,3.5538369391e+000,3.4586792612e+000,3.3642707313e+000,3.6211623121e+000,3.0774390800e+000,3.8058846625e+000,1.7828747646e+000,2.3058984380e+000,2.2024639018e+000,1.3804507636e+000,1.4735114987e+000,2.6378262839e+000,2.6400155506e+000,2.7285228942e+000,
3.1968750000e+001,3.4680034005e+000,3.4396762296e+000,3.3097399690e+000,3.6134895635e+000,3.1156140873e+000,3.7494813846e+000,1.7662559570e+000,2.2556816783e+000,2.1899221947e+000,1.4611333957e+000,1.4344979461e+000,2.6702456355e+000,2.5632890111e+000,2.7125655132e+000,
3.2062500000e+001,3.4908371047e+000,3.3895861733e+000,3.2933523622e+000,3.6059785571e+000,3.1512453201e+000,3.8622712647e+000,1.7867826714e+000,2.1577886426e+000,2.2019056332e+000,1.5158039029e+000,1.4701924631e+000,2.6907548735e+000,2.5079211602e+000,2.6928213816e+000,
3.2156250000e+001,3.4166697764e+000,3.3106072021e+000,3.2477921413e+000,3.4562241221e+000,3.1428775765e+000,3.8891986227e+000,1.6982527167e+000,2.1427172651e+000,2.2764584871e+000,1.4859130410e+000,1.4936493690e+000,2.6752995325e+000,2.4005458937e+000,2.6503045434e+000,
3.2250000000e+001,3.3878704999e+000,3.3226025800e+000,3.2309890166e+000,3.3119695575e+000,3.1289840368e+000,3.9958091979e+000,1.6382436431e+000,1.9716693776e+000,2.3244581099e+000,1.5473612307e+000,1.5468752676e+000,2.6409890217e+000,2.2813521686e+000,2.6040488334e+000,
3.2343750000e+001,3.4418261419e+000,3.3458961114e+000,3.2574046642e+000,3.3600075911e+000,3.1144643580e+000,4.0232197561e+000,1.6004807628e+000,2.1585691354e+000,2.2897614637e+000,1.5607943821e+000,1.6706737469e+000,2.6381451601e+000,2.2872404504e+000,2.5160110387e+000,
3.2437500000e+001,3.4113126285e+000,3.3974696758e+000,3.2448804378e+000,3.4075827427e+000,3.1942448095e+000,4.0587438316e+000,1.5649161686e+000,2.2591205722e+000,2.2851612073e+000,1.5974742594e+000,1.6972866780e+000,2.7262265488e+000,2.3171871345e+000,2.5311295294e+000,
3.2531250000e+001,3.4158032025e+000,3.3620671861e+000,3.1788202558e+000,3.3034384829e+000,3.1915620958e+000,4.0975708351e+000,1.3986628874e+000,2.2758976383e+000,2.3079128610e+000,1.6474211658e+000,1.6765085339e+000,2.7216197057e+000,2.3760259094e+000,2.5263865781e+000,
3.2625000000e+001,3.4012916242e+000,3.3142901664e+000,3.1545727178e+000,3.2811309680e+000,3.0761446370e+000,4.0457939406e+000,1.3245836382e+000,2.2998260773e+000,2.1792324130e+000,1.6999649125e+000,1.5851684240e+000,2.6605303565e+000,2.3427193102e+000,2.5626193498e+000,
3.2718750000e+001,3.3702072241e+000,3.2594338836e+000,3.1117242541e+000,3.2749297839e+000,3.0111999988e+000,4.0928705508e+000,1.3059943752e+000,2.3455407814e+000,2.1441699615e+000,1.7237434938e+000,1.5958169443e+000,2.6367600018e+000,2.3156669445e+000,2.5226204244e+000,
3.2812500000e+001,3.3930834566e+000,3.3222551542e+000,3.1397668539e+000,3.2866789185e+000,3.0280234199e+000,4.0716531870e+000,1.3645227356e+000,2.3509552890e+000,2.1956801130e+000,1.7013828108e+000,1.5485640298e+000,2.6420932701e+000,2.2430154610e+000,2.5424849907e+000,
3.2906250000e+001,3.3028714292e+000,3.2799176315e+000,3.0126610407e+000,3.1119721783e+000,2.8666016876e+000,4.0744302220e+000,1.3412552415e+000,2.4058827102e+000,2.1860782857e+000,1.5385584817e+000,1.5163397837e+000,2.5031771722e+000,2.1517790847e+000,2.5258862516e+000,
3.3000000000e+001,3.2346357944e+000,3.3480265281e+000,2.9757000569e+000,3.2452065306e+000,2.8696550256e+000,4.0447357037e+000,1.2891581315e+000,2.5090950954e+000,2.1295016366e+000,1.5536049455e+000,1.4525336910e+000,2.4797863593e+000,2.1015859293e+000,2.5517978145e+000,
3.3093750000e+001,3.2595487191e+000,3.4360283686e+000,3.0306008359e+000,3.3249446287e+000,2.8387870248e+000,3.9267928210e+000,1.3057696168e+000,2.4741185920e+000,2.1598103036e+000,1.5846327120e+000,1.5574004975e+000,2.4961029705e+000,2.2740544253e+000,2.6684497911e+000,
3.3187500000e+001,3.4179234420e+000,3.4619955577e+000,2.9315801504e+000,3.3049218047e+000,2.8550833414e+000,3.9891110536e+000,1.3136134244e+000,2.3994467052e+000,2.0960812205e+000,1.5812587866e+000,1.5594853007e+000,2.4884779385e+000,2.2481419704e+000,2.6814875633e+000,
3.3281250000e+001,3.4997161482e+000,3.5979670286e+000,3.0449522673e+000,3.4934076608e+000,3.0325976048e+000,4.0688919585e+000,1.3989769299e+000,2.5483835150e+000,2.3120535232e+000,1.6160121873e+000,1.5896646241e+000,2.6240513518e+000,2.2646847578e+000,2.7047197390e+000,
3.3375000000e+001,3.4740303840e+000,3.5732806061e+000,3.0118000183e+000,3.4322953769e+000,3.0565978275e+000,4.1222811297e+000,1.3750686343e+000,2.4996914029e+000,2.3473889284e+000,1.6299549683e+000,1.4740067694e+000,2.5152722002e+000,2.2266832487e+000,2.7830252778e+000,
3.3468750000e+001,3.4635980709e+000,3.5204024037e+000,3.0976257733e+000,3.4163491702e+000,2.9785340228e+000,4.1294829454e+000,1.4019049153e+000,2.4407762059e+000,2.3608735186e+000,1.5605858244e+000,1.3984260914e+000,2.4224043077e+000,2.3295569596e+000,2.8170076563e+000,
3.3562500000e+001,3.5208944378e+000,3.5522692750e+000,3.1958186804e+000,3.4904892020e+000,3.0178929951e+000,4.1277796353e+000,1.4105538431e+000,2.4722238200e+000,2.3930850545e+000,1.5501110841e+000,1.4171287548e+000,2.4124925951e+000,2.2726579806e+000,2.7962404409e+000,
3.3656250000e+001,3.6486785165e+000,3.5963320930e+000,3.2673284551e+000,3.4533401952e+000,3.1108544382e+000,4.0710321558e+000,1.4168385330e+000,2.4880256916e+000,2.4072448476e+000,1.4862482720e+000,1.3839449394e+000,2.3747652542e+000,2.2866438623e+000,2.7373232085e+000,
3.3750000000e+001,3.7457429090e+000,3.6615775965e+000,3.2692655080e+000,3.4461676460e+000,3.1823169618e+000,4.0315492724e+000,1.5101214369e+000,2.4209926368e+000,2.4441677198e+000,1.3808958089e+000,1.4470662303e+000,2.4033130942e+000,2.3765171678e+000,2.7292534129e+000,
3.3843750000e+001,3.7750183193e+000,3.6384302638e+000,3.2721258732e+000,3.4513792561e+000,3.1802453545e+000,4.0975596559e+000,1.4776326688e+000,2.4412975743e+000,2.4794149883e+000,1.4405259606e+000,1.4521958868e+000,2.4502836782e+000,2.4743617256e+000,2.8314852737e+000,
3.3937500000e+001,3.7884658788e+000,3.5527359693e+000,3.2425843629e+000,3.4447257858e+000,3.2473158433e+000,4.0765555073e+000,1.6129398369e+000,2.3335342763e+000,2.4337725723e+000,1.4429097899e+000,1.6038965673e+000,2.5606585978e+000,2.5186996054e+000,2.7612338624e+000,
3.4031250000e+001,3.8021044177e+000,3.5482255998e+000,3.2211046191e+000,3.3966794776e+000,3.2502897747e+000,4.0626191983e+000,1.6941304735e+000,2.3891319037e+000,2.4554238519e+000,1.4122952090e+000,1.6259787083e+000,2.5340501120e+000,2.5133395130e+000,2.7335920450e+000,
3.4125000000e+001,3.6702911452e+000,3.4371281501e+000,3.2430954133e+000,3.4126490392e+000,3.2851606638e+000,4.0730658887e+000,1.7125585733e+000,2.4404900144e+000,2.4962583570e+000,1.4423216915e+000,1.6453547516e+000,2.5908730800e+000,2.4300493556e+000,2.7991586292e+000,
3.4218750000e+001,3.6092311142e+000,3.3510091195e+000,3.2448449482e+000,3.3996607239e+000,3.2472464112e+000,3.9556994741e+000,1.7770286714e+000,2.4147590281e+000,2.5028676610e+000,1.3366672655e+000,1.6126880371e+000,2.6142269517e+000,2.4218391522e+000,2.8648005737e+000,
3.4312500000e+001,3.5838766900e+000,3.2029597831e+000,3.1992583934e+000,3.2311698095e+000,3.1218088327e+000,3.8542071319e+000,1.7922738474e+000,2.3571418693e+000,2.3439522791e+000,1.2587205400e+000,1.6255026808e+000,2.5104342605e+000,2.3626245898e+000,2.7862903943e+000,
3.4406250000e+001,3.6769481583e+000,3.3856567360e+000,3.2076028200e+000,3.2538068021e+000,3.1073395177e+000,3.9168433866e+000,1.7648169217e+000,2.3346155685e+000,2.3895875530e+000,1.2515178367e+000,1.7113954224e+000,2.4993915369e+000,2.3601862993e+000,2.7607974282e+000,
3.4500000000e+001,3.8459281355e+000,3.5474213548e+000,3.2677219430e+000,3.2674322951e+000,3.0334721673e+000,3.9745163299e+000,1.7414315530e+000,2.3493548925e+000,2.4079925250e+000,1.1581900772e+000,1.7215645354e+000,2.5790172825e+000,2.3441426646e+000,2.8519122358e+000,
3.4593750000e+001,3.8547542794e+000,3.6115932899e+000,3.2565537494e+000,3.3175808948e+000,3.0114580081e+000,3.9696244714e+000,1.7647119836e+000,2.3636330410e+000,2.3886971836e+000,1.1574258544e+000,1.7117445232e+000,2.6477878068e+000,2.3574259038e+000,3.0237320314e+000,
3.4687500000e+001,3.5971600238e+000,3.4334588787e+000,3.0990966706e+000,3.2965290641e+000,2.8750665415e+000,4.0124005751e+000,1.7316693608e+000,2.3281097801e+000,2.3874636816e+000,1.1858708250e+000,1.7107968765e+000,2.6459043982e+000,2.3958957615e+000,3.1130689297e+000,
3.4781250000e+001,3.5361987302e+000,3.4103202849e+000,3.0174863696e+000,3.2198182274e+000,2.8293479045e+000,4.0941961565e+000,1.7005239303e+000,2.3845457774e+000,2.3883875461e+000,1.1965713578e+000,1.7074717723e+000,2.5987165456e+000,2.3172754849e+000,3.1306390855e+000,
3.4875000000e+001,3.5215192790e+000,3.4458329363e+000,3.0666814785e+000,3.2160034394e+000,2.8379761424e+000,4.0771595663e+000,1.7979116840e+000,2.3692801405e+000,2.3937414869e+000,1.1228576418e+000,1.6877902106e+000,2.5981494104e+000,2.3062607891e+000,3.1209787453e+000,
3.4968750000e+001,3.5853093256e+000,3.4733399092e+000,3.1357326610e+000,3.2965875333e+000,2.7749907001e+000,4.0238761475e+000,1.7188449191e+000,2.4074718133e+000,2.3980363117e+000,1.0627841507e+000,1.6301512472e+000,2.4981580397e+000,2.2782977482e+000,3.1470126222e+000,
3.5062500000e+001,3.6056422082e+000,3.4691532705e+000,3.1335304393e+000,3.2178313203e+000,2.7334383350e+000,4.0242783857e+000,1.7291789674e+000,2.3972435786e+000,2.3025221543e+000,1.1002227577e+000,1.6164744383e+000,2.3933855052e+000,2.2178155356e+000,3.0696458912e+000,
3.5156250000e+001,3.6161104900e+000,3.4784086918e+000,3.1311758874e+000,3.1979900485e+000,2.7817183304e+000,4.0475461337e+000,1.7698148839e+000,2.4171526785e+000,2.2774095527e+000,1.1322701299e+000,1.5289722820e+000,2.3290316375e+000,2.2119188150e+000,3.0401103015e+000,
3.5250000000e+001,3.5967429270e+000,3.4884441366e+000,3.2089282333e+000,3.2798082790e+000,2.7670679823e+000,4.0508126804e+000,1.7464551577e+000,2.4337959327e+000,2.3485438532e+000,1.2453609645e+000,1.4969300678e+000,2.2864690564e+000,2.2163292389e+000,3.0463793729e+000,
3.5343750000e+001,3.5649669026e+000,3.4816657967e+000,3.1507833925e+000,3.2639944844e+000,2.8087923777e+000,4.1696943012e+000,1.6964080084e+000,2.4713229455e+000,2.3652545450e+000,1.3292554954e+000,1.3791965309e+000,2.3095541488e+000,2.2130198286e+000,3.0285125540e+000,
3.5437500000e+001,3.4419082161e+000,3.4441320371e+000,3.0819122379e+000,3.3542278845e+000,2.8746125099e+000,4.0500644227e+000,1.7527618612e+000,2.5143754446e+000,2.3641541042e+000,1.3976330774e+000,1.2946726821e+000,2.2451751344e+000,2.2130118593e+000,2.9536493432e+000,
3.5531250000e+001,3.2526575736e+000,3.4348822813e+000,3.0375261097e+000,3.3368107306e+000,2.9014368001e+000,4.0825226569e+000,1.7969321596e+000,2.4622169679e+000,2.2769264226e+000,1.4700994560e+000,1.3647812932e+000,2.1829879111e+000,2.3354966647e+000,2.9646808896e+000,
3.5625000000e+001,3.2344334695e+000,3.3590647954e+000,3.0883441067e+000,3.4312558839e+000,2.8858484624e+000,4.1217130501e+000,1.7552593552e+000,2.5217499646e+000,2.3783422170e+000,1.4632607991e+000,1.5178030543e+000,2.1621872233e+000,2.3868163598e+000,2.9063557264e+000,
3.5718750000e+001,3.3347148355e+000,3.4350857317e+000,3.0703223525e+000,3.4227073698e+000,2.8820566128e+000,4.0329618673e+000,1.7120257247e+000,2.4983137965e+000,2.3866101893e+000,1.5189038233e+000,1.5142043546e+000,2.2235374638e+000,2.4078726235e+000,2.8923345983e+000,
3.5812500000e+001,3.3481489148e+000,3.4425251041e+000,3.0375391948e+000,3.4465080838e+000,2.8242825928e+000,3.9334365014e+000,1.6670685276e+000,2.5203452045e+000,2.3292940206e+000,1.5233937226e+000,1.5008419452e+000,2.2806848576e+000,2.5684197486e+000,2.9586885538e+000,
3.5906250000e+001,3.2642599908e+000,3.4649477934e+000,3.0401669262e+000,3.4277275505e+000,2.7898748579e+000,4.0776905930e+000,1.6442328118e+000,2.5891359781e+000,2.3151131376e+000,1.5924935042e+000,1.3838882528e+000,2.3415848626e+000,2.5832413221e+000,3.0185709602e+000,
3.6000000000e+001,3.3119932573e+000,3.4997696223e+000,3.0441802325e+000,3.4216480568e+000,2.7819452215e+000,4.1066151332e+000,1.6700870919e+000,2.5326092969e+000,2.3915702691e+000,1.5762790576e+000,1.4457545625e+000,2.3540193061e+000,2.6456455295e+000,3.0968397778e+000,
3.6093750000e+001,3.3245151589e+000,3.4592705855e+000,3.0627294960e+000,3.5007953555e+000,2.8529529510e+000,4.1143162069e+000,1.6840188528e+000,2.5365127512e+000,2.4664888116e+000,1.4982937666e+000,1.4978317570e+000,2.5258397889e+000,2.8295926671e+000,3.2094718826e+000,
3.6187500000e+001,3.4009588641e+000,3.4782095211e+000,3.1225823190e+000,3.5359192994e+000,2.7878387213e+000,4.1033621835e+000,1.6238873943e+000,2.5371939504e+000,2.4598289656e+000,1.4894675924e+000,1.4830965022e+000,2.5240287266e+000,2.8377180011e+000,3.2543303311e+000,
3.6281250000e+001,3.4251680828e+000,3.5362512896e+000,3.1075322135e+000,3.5404118769e+000,2.7600586155e+000,4.1040912519e+000,1.6361612789e+000,2.4672560353e+000,2.4156267446e+000,1.4155308235e+000,1.4822571163e+000,2.5062167053e+000,2.8312649083e+000,3.2082796472e+000,
3.6375000000e+001,3.4140961484e+000,3.5423759760e+000,3.1811968477e+000,3.5034366783e+000,2.7937533856e+000,3.9300202052e+000,1.7047770413e+000,2.4963362850e+000,2.5085966307e+000,1.3941729358e+000,1.5028674300e+000,2.6017621551e+000,2.8339400141e+000,3.2623883681e+000,
3.6468750000e+001,3.4755387776e+000,3.4170238518e+000,3.3002327575e+000,3.5297137064e+000,2.7245709747e+000,3.9521100134e+000,1.7450245110e+000,2.4686259555e+000,2.4788712541e+000,1.3947019844e+000,1.5269406518e+000,2.6215746171e+000,2.8676652223e+000,3.3249260685e+000,
3.6562500000e+001,3.4360610648e+000,3.3033183796e+000,3.2029742157e+000,3.3669535857e+000,2.8317543057e+000,3.9897569531e+000,1.7525093350e+000,2.4034267597e+000,2.4755002444e+000,1.3323774424e+000,1.4427703473e+000,2.6602234349e+000,2.7009874295e+000,3.2211510380e+000,
3.6656250000e+001,3.4764024602e+000,3.4036598304e+000,3.2048646922e+000,3.3729176002e+000,2.7927825566e+000,4.0213984748e+000,1.7941909930e+000,2.4718790565e+000,2.3992392371e+000,1.2695663622e+000,1.3269991927e+000,2.6092603892e+000,2.6111458160e+000,3.1870664174e+000,
3.6750000000e+001,3.5660558208e+000,3.5238785413e+000,3.3151431849e+000,3.4804208667e+000,2.7924949496e+000,4.0927030752e+000,1.8474425407e+000,2.5268049827e+000,2.3873475579e+000,1.2516583363e+000,1.3242719982e+000,2.5865315075e+000,2.5238117313e+000,3.1752314987e+000,
3.6843750000e+001,3.5805240434e+000,3.5107397708e+000,3.3062535030e+000,3.4815934186e+000,2.7067735745e+000,3.9942308112e+000,1.8669969448e+000,2.5445539691e+000,2.3762738617e+000,1.3339296266e+000,1.3096575309e+000,2.5570311377e+000,2.3871037561e+000,3.0758110882e+000,
3.6937500000e+001,3.6644787974e+000,3.5285459574e+000,3.4881510403e+000,3.5667888324e+000,2.7508070709e+000,3.9453492046e+000,1.8949602845e+000,2.4621827031e+000,2.3601326435e+000,1.3177452106e+000,1.3186329032e+000,2.5805843915e+000,2.4451524162e+000,3.0810681625e+000,
3.7031250000e+001,3.6939492890e+000,3.5133997907e+000,3.5207056495e+000,3.5602766566e+000,2.6823531427e+000,3.9495565671e+000,1.9000566047e+000,2.4565136637e+000,2.3563346938e+000,1.3284498796e+000,1.2641794164e+000,2.5266073470e+000,2.4082141719e+000,3.0329942537e+000,
3.7125000000e+001,3.8976579896e+000,3.6709992527e+000,3.5792059893e+000,3.5123354991e+000,2.6486457250e+000,3.9380604850e+000,1.9297210528e+000,2.4384686860e+000,2.3098511069e+000,1.2975993141e+000,1.1628533092e+000,2.4393963956e+000,2.2560834322e+000,2.9283469868e+000,
3.7218750000e+001,3.8918787870e+000,3.6645431898e+000,3.5712147257e+000,3.4830052513e+000,2.6915954819e+000,3.9213713464e+000,1.9474415933e+000,2.4976069792e+000,2.3507338434e+000,1.2957114832e+000,1.2638356047e+000,2.4585124600e+000,2.2043809047e+000,2.8819179625e+000,
3.7312500000e+001,3.8527378174e+000,3.5874174827e+000,3.5837289744e+000,3.4616874188e+000,2.7047073108e+000,3.9453990776e+000,1.9095584561e+000,2.5706516907e+000,2.1859606407e+000,1.3460396196e+000,1.2772934771e+000,2.4578100678e+000,2.1923754894e+000,2.8630480388e+000,
3.7406250000e+001,3.8510431068e+000,3.5978880468e+000,3.5310321802e+000,3.4432780167e+000,2.6600769947e+000,3.9479148083e+000,1.9249744319e+000,2.4830715843e+000,2.1528082708e+000,1.3139258360e+000,1.2583756727e+000,2.3408119709e+000,2.2203331671e+000,2.8389915372e+000,
3.7500000000e+001,3.7615678793e+000,3.5855833073e+000,3.4979002389e+000,3.4517149030e+000,2.7806568067e+000,3.9276789226e+000,1.8471651204e+000,2.4781966268e+000,2.1670241517e+000,1.2546673615e+000,1.2394309597e+000,2.2580446936e+000,2.2499194525e+000,2.7762681134e+000,
3.7593750000e+001,3.8346368100e+000,3.6010220117e+000,3.6735260634e+000,3.6334062961e+000,2.7449292593e+000,3.9247182762e+000,1.9240572094e+000,2.6660162583e+000,2.0983044937e+000,1.3116165223e+000,1.2764725096e+000,2.3428929456e+000,2.6743395384e+000,2.9392029624e+000,
3.7687500000e+001,3.8849260273e+000,3.5921284316e+000,3.7307097700e+000,3.7799544499e+000,2.8477855870e+000,3.8730481160e+000,1.8962119128e+000,2.5988781196e+000,2.1601979751e+000,1.3204679902e+000,1.2721532610e+000,2.4579301676e+000,2.7086279559e+000,2.9374945016e+000,
3.7781250000e+001,3.8918278087e+000,3.5330624136e+000,3.7232181745e+000,3.7967332446e+000,2.9874496817e+000,3.9572528767e+000,1.8653720825e+000,2.5492048869e+000,2.2089328954e+000,1.2616976112e+000,1.2734512912e+000,2.5827603614e+000,2.6975362346e+000,2.9475016439e+000,
3.7875000000e+001,3.9175999611e+000,3.5131842456e+000,3.7462490961e+000,3.8537807286e+000,3.0539812861e+000,4.0328789820e+000,1.8458456880e+000,2.6775323056e+000,2.2512062543e+000,1.0952267341e+000,1.3972962606e+000,2.5866507479e+000,2.7157463991e+000,2.9496804705e+000,
3.7968750000e+001,3.8614067271e+000,3.4570061139e+000,3.6136148824e+000,3.7805041573e+000,3.0477907961e+000,4.0192681439e+000,1.7900523113e+000,2.6525206802e+000,2.3203212173e+000,1.0564843258e+000,1.4126805048e+000,2.5352815039e+000,2.6914641190e+000,2.9141091108e+000,
3.8062500000e+001,3.6670933033e+000,3.3714366811e+000,3.5025303868e+000,3.7225075001e+000,3.0184459906e+000,4.0535891431e+000,1.6759807246e+000,2.6944308656e+000,2.2664396856e+000,1.0967852144e+000,1.5127248802e+000,2.5429615957e+000,2.6076737459e+000,2.9109663689e+000,
3.8156250000e+001,3.4930279879e+000,3.2373961961e+000,3.4345234077e+000,3.7173433969e+000,2.9722553102e+000,4.0558967990e+000,1.6622742923e+000,2.6924387379e+000,2.2260728721e+000,1.0779000095e+000,1.5520079601e+000,2.5514632020e+000,2.5855727527e+000,2.9093349241e+000,
3.8250000000e+001,3.4930721219e+000,3.3526337998e+000,3.4508056618e+000,3.7950570014e+000,2.9658105359e+000,4.0481543325e+000,1.7459616064e+000,2.7647273783e+000,2.2682112077e+000,1.1407478961e+000,1.6521214617e+000,2.6647773971e+000,2.6757323169e+000,2.9106190486e+000,
3.8343750000e+001,3.4774873591e+000,3.3337814262e+000,3.3685848417e+000,3.7481554222e+000,2.9639679833e+000,4.0179925940e+000,1.6541694981e+000,2.6934571441e+000,2.2843348570e+000,1.1171181149e+000,1.6404897424e+000,2.6143354972e+000,2.7303688873e+000,2.9009120504e+000,
3.8437500000e+001,3.5763777945e+000,3.4700453913e+000,3.4698218004e+000,3.7892281101e+000,2.9857913880e+000,3.9840590495e+000,1.6651181311e+000,2.7673867398e+000,2.3886330695e+000,1.1525479081e+000,1.6767737146e+000,2.6495628765e+000,2.7543317812e+000,2.8541784928e+000,
3.8531250000e+001,3.6553535447e+000,3.5577792384e+000,3.4191014365e+000,3.7513009872e+000,2.9354845003e+000,4.1136026034e+000,1.6249353524e+000,2.7611359501e+000,2.4346071724e+000,1.3166861273e+000,1.6719920773e+000,2.7152849942e+000,2.5951897069e+000,2.7786525258e+000,
3.8625000000e+001,3.5250350628e+000,3.5027164427e+000,3.2549797490e+000,3.5609034288e+000,2.8433607947e+000,4.0293372324e+000,1.6370099256e+000,2.6179388796e+000,2.4556785019e+000,1.2851631545e+000,1.6568830198e+000,2.6879876585e+000,2.3816187572e+000,2.6218235342e+000,
3.8718750000e+001,3.5149770466e+000,3.4167029628e+000,3.2118598600e+000,3.4234774215e+000,2.7592037022e+000,4.2774556118e+000,1.6887951301e+000,2.6685510308e+000,2.5164742251e+000,1.2607256885e+000,1.7257519241e+000,2.6497305660e+000,2.3933642580e+000,2.6220370893e+000,
3.8812500000e+001,3.4784547876e+000,3.4262164763e+000,3.1126333761e+000,3.3464637248e+000,2.6365598346e+000,4.2097431706e+000,1.6526653940e+000,2.7480035167e+000,2.5006111754e+000,1.3802881306e+000,1.6813377094e+000,2.5677429259e+000,2.4075398714e+000,2.5194634330e+000,
3.8906250000e+001,3.4433734809e+000,3.4430824590e+000,3.0523284781e+000,3.2348365486e+000,2.5466871571e+000,4.2322185343e+000,1.7413192149e+000,2.6581602439e+000,2.4861100504e+000,1.4490489660e+000,1.6353828860e+000,2.5247923323e+000,2.3721125252e+000,2.4579000159e+000,
3.9000000000e+001,3.4822908127e+000,3.5404656733e+000,3.1972506748e+000,3.3902678261e+000,2.6281031487e+000,4.2618506636e+000,1.8228361076e+000,2.7639567342e+000,2.5573041964e+000,1.4462066897e+000,1.6891755304e+000,2.6521056373e+000,2.4089185758e+000,2.7231224267e+000,
3.9093750000e+001,3.6198044679e+000,3.6692372643e+000,3.3689419009e+000,3.6237652747e+000,2.6979962833e+000,4.2897747115e+000,1.9220418325e+000,2.7854006066e+000,2.7237635511e+000,1.5004104636e+000,1.5720897971e+000,2.8453684253e+000,2.6705043795e+000,3.0875665583e+000,
3.9187500000e+001,3.6438256308e+000,3.6800130585e+000,3.4398562567e+000,3.6446243753e+000,2.6866396502e+000,4.3593155588e+000,1.9415308412e+000,2.7357134823e+000,2.7710060615e+000,1.4880953499e+000,1.5331325606e+000,2.9012579793e+000,2.7050098636e+000,3.1721029785e+000,
3.9281250000e+001,3.5784222831e+000,3.6092943365e+000,3.4381739538e+000,3.5747344200e+000,2.5562502390e+000,4.3954564077e+000,1.9677472154e+000,2.6614629048e+000,2.7268632993e+000,1.4566081698e+000,1.4612636494e+000,2.7993654176e+000,2.6957744009e+000,3.2843345990e+000,
3.9375000000e+001,3.5826664109e+000,3.6007688191e+000,3.4300851706e+000,3.6152637812e+000,2.6211442204e+000,4.5340055361e+000,2.0216323866e+000,2.7293234016e+000,2.7566205615e+000,1.4840009345e+000,1.4474372354e+000,2.8426746497e+000,2.7813547518e+000,3.2914451231e+000,
3.9468750000e+001,3.5706947841e+000,3.5447065851e+000,3.4225516164e+000,3.6203500973e+000,2.6710896779e+000,4.4832028347e+000,2.0347121240e+000,2.6927888480e+000,2.7156686440e+000,1.4001563904e+000,1.4339396897e+000,2.8996252692e+000,2.8320458038e+000,3.3624916557e+000,
3.9562500000e+001,3.5067256465e+000,3.5131944089e+000,3.3590079089e+000,3.5775961949e+000,2.6360773818e+000,4.4970197514e+000,2.0441345022e+000,2.7403209960e+000,2.7106348404e+000,1.3801592824e+000,1.4054929784e+000,2.8134882551e+000,2.8353369105e+000,3.3475482886e+000,
3.9656250000e+001,3.4855968952e+000,3.5304100258e+000,3.3640540246e+000,3.5904362782e+000,2.7086041168e+000,4.4870340835e+000,2.0463516897e+000,2.7356901282e+000,2.7927429581e+000,1.3675178553e+000,1.4234905755e+000,2.8483482984e+000,2.8291791504e+000,3.3936300285e+000,
3.9750000000e+001,3.4836669007e+000,3.6121864518e+000,3.5483335793e+000,3.7309713805e+000,2.7186701149e+000,4.2733495478e+000,2.0126684820e+000,2.7006146234e+000,2.8768457067e+000,1.4476110481e+000,1.3414143341e+000,2.9902146444e+000,2.9219590291e+000,3.4079130593e+000,
3.9843750000e+001,3.4669124234e+000,3.6461689789e+000,3.5526031104e+000,3.7669003219e+000,2.7492392957e+000,4.2727910033e+000,1.9750779282e+000,2.7492752237e+000,2.9019956098e+000,1.4112722791e+000,1.3121328876e+000,3.1001332375e+000,2.9460296749e+000,3.4132013147e+000,
3.9937500000e+001,3.4955122832e+000,3.6112346566e+000,3.5044234226e+000,3.7002401122e+000,2.7283693075e+000,4.2170092598e+000,1.9668799556e+000,2.6811959280e+000,2.8792143708e+000,1.4149729164e+000,1.1792400326e+000,3.0927070471e+000,2.9758787002e+000,3.3818700480e+000,
4.0031250000e+001,3.5038278664e+000,3.6053360783e+000,3.4838417119e+000,3.7089092687e+000,2.7799837115e+000,4.1394776031e+000,1.8939225381e+000,2.7286381639e+000,2.8311432152e+000,1.4040781163e+000,1.2678698908e+000,3.1083442918e+000,3.0117739229e+000,3.3758832204e+000,
4.0125000000e+001,3.6812338040e+000,3.7389323766e+000,3.5422350402e+000,3.7205390500e+000,2.7720576621e+000,4.0950634750e+000,1.8678853427e+000,2.7167122268e+000,2.6923064139e+000,1.3281772588e+000,1.3168794544e+000,2.9944403250e+000,2.8582304036e+000,3.0745923449e+000,
4.0218750000e+001,3.6996825723e+000,3.7184782907e+000,3.4926343466e+000,3.7432267889e+000,2.8086188807e+000,4.0063944118e+000,1.7786133857e+000,2.7070958305e+000,2.7181430453e+000,1.4345685947e+000,1.2082143245e+000,3.0609515124e+000,2.8212272787e+000,3.0931121198e+000,
4.0312500000e+001,3.7365443655e+000,3.6760142635e+000,3.5028674867e+000,3.7274767729e+000,2.8245577379e+000,3.8147481504e+000,1.7543254552e+000,2.6885215162e+000,2.6229508886e+000,1.4772530062e+000,1.3525467825e+000,3.0744260851e+000,2.6768127463e+000,2.9478364109e+000,
4.0406250000e+001,3.8083739668e+000,3.8395386055e+000,3.6418242116e+000,3.8264354959e+000,2.8946902916e+000,3.6436351579e+000,1.7873513778e+000,2.7320571792e+000,2.6117295447e+000,1.4922877242e+000,1.3792303836e+000,3.0581467197e+000,2.7025701080e+000,3.0438237464e+000,
4.0500000000e+001,3.8012452543e+000,3.7997067239e+000,3.6285159916e+000,3.8022471212e+000,2.9094799080e+000,3.5780065067e+000,1.7285738968e+000,2.7056700046e+000,2.5928737764e+000,1.5042277422e+000,1.3238694200e+000,3.0342837209e+000,2.5898144077e+000,2.9707920973e+000,
4.0593750000e+001,3.8310930122e+000,3.8461192528e+000,3.6856261534e+000,3.8379686107e+000,2.9509904212e+000,3.5599211945e+000,1.6898211096e+000,2.7268791482e+000,2.5379086269e+000,1.4859095915e+000,1.3832755203e+000,3.1026780411e+000,2.6359637248e+000,2.9921656285e+000,
4.0687500000e+001,3.8383239842e+000,3.8288825606e+000,3.5497064384e+000,3.7508155300e+000,2.9927256080e+000,3.6085230177e+000,1.6492777137e+000,2.7389405929e+000,2.3552861180e+000,1.4463542570e+000,1.3805607033e+000,3.0027717504e+000,2.5810570847e+000,2.9946846384e+000,
4.0781250000e+001,3.9237974860e+000,3.8393445296e+000,3.5712523482e+000,3.7498787158e+000,3.0062468150e+000,3.6726156353e+000,1.6512855192e+000,2.6912055824e+000,2.2092578366e+000,1.3906140618e+000,1.4020693740e+000,2.8233821057e+000,2.5267170496e+000,3.0171294061e+000,
4.0875000000e+001,3.9121533937e+000,3.8510326565e+000,3.5642136394e+000,3.7402942242e+000,2.9669747245e+000,3.6653182019e+000,1.6170819281e+000,2.6655705374e+000,2.0956069346e+000,1.3794814878e+000,1.4649915991e+000,2.7161818088e+000,2.4383824690e+000,2.9817748742e+000,
4.0968750000e+001,3.9276398016e+000,3.8383429756e+000,3.5711222848e+000,3.7922383422e+000,3.0081117248e+000,3.7397744423e+000,1.6185108156e+000,2.7060605349e+000,2.0950900917e+000,1.3244195148e+000,1.4386897755e+000,2.7054795323e+000,2.3929832567e+000,2.9990371330e+000,
4.1062500000e+001,3.9078295391e+000,3.8119032342e+000,3.6045922426e+000,3.7955459533e+000,2.9938092753e+000,3.9090789076e+000,1.5997125616e+000,2.5828958611e+000,2.0396271670e+000,1.4164974042e+000,1.3678145928e+000,2.6513344165e+000,2.4035014292e+000,2.9195025379e+000,
4.1156250000e+001,3.6929895827e+000,3.6446746051e+000,3.4741232314e+000,3.5658152963e+000,3.0489689189e+000,3.8623930799e+000,1.5447582524e+000,2.4935197426e+000,2.0278035272e+000,1.4517740270e+000,1.3571132305e+000,2.5314382546e+000,2.3662499478e+000,2.9531678906e+000,
