Time (s),AF3,AF4,F3,F4,F7,F8,FC5,FC6,T7,T8,P7,P8,O1,O2,Sampling Rate
0.0000000000e+000,4.9848711133e+000,5.2133182118e+000,5.0923931325e+000,4.7084913526e+000,4.8407460638e+000,3.5655703448e+000,2.7100704416e+000,1.1670328224e+000,1.1605847408e+001,5.1134612431e+000,3.9155299367e+000,5.6161644900e+000,2.6798112646e+000,2.3839564571e+000,1
9.3750000000e-002,5.0759399204e+000,5.2542800266e+000,5.1607197997e+000,4.8022382387e+000,5.0870980328e+000,3.5873129828e+000,2.7032239936e+000,1.1748680382e+000,1.1733266716e+001,5.2267928339e+000,3.9055422576e+000,5.7332049689e+000,2.8051093294e+000,2.5511994275e+000,
1.8750000000e-001,5.1301916326e+000,5.2946525590e+000,5.2110625628e+000,4.8357031593e+000,5.4692168175e+000,3.6139778095e+000,2.7566174993e+000,1.2392966873e+000,1.2454858415e+001,5.2670590312e+000,3.9501724002e+000,5.7640029197e+000,2.8566040733e+000,2.6252358290e+000,
2.8125000000e-001,5.1383070335e+000,5.3191630486e+000,5.2172722965e+000,4.8485702628e+000,5.5231964428e+000,3.6624821233e+000,2.6798972591e+000,1.2318769588e+000,1.2506089465e+001,5.2937320392e+000,3.9696217305e+000,5.8082752143e+000,2.8854546390e+000,2.6662378120e+000,
3.7500000000e-001,5.1767757427e+000,5.3514095460e+000,5.2475530826e+000,4.8613415423e+000,5.5754066624e+000,3.6843582537e+000,2.7715888259e+000,1.1914154816e+000,1.2544740715e+001,5.3124893068e+000,3.9583349846e+000,5.8562505157e+000,2.9323759868e+000,2.6946351454e+000,
4.6875000000e-001,5.2047744557e+000,5.3973458112e+000,5.2762619090e+000,4.9063848761e+000,5.6155162231e+000,3.6739802298e+000,2.8889690519e+000,1.0818607092e+000,1.2564376785e+001,5.3640137104e+000,3.9751168168e+000,5.8439329420e+000,3.0070069039e+000,2.7394316225e+000,
5.6250000000e-001,5.1982638516e+000,5.3735516272e+000,5.2710520975e+000,4.8861037962e+000,5.6226443749e+000,3.6206704818e+000,2.8951436724e+000,1.1686700175e+000,1.2569010941e+001,5.3621968935e+000,3.9572504777e+000,5.9088914450e+000,3.0275798628e+000,2.7782103432e+000,
6.5625000000e-001,5.1571927800e+000,5.3368959304e+000,5.2453508323e+000,4.8541242407e+000,5.6277236581e+000,3.6091596801e+000,2.8858664030e+000,1.2168833659e+000,1.2569750970e+001,5.3269599351e+000,4.0002826192e+000,6.0073122712e+000,3.0543218692e+000,2.8025602433e+000,
7.5000000000e-001,5.1485487587e+000,5.3391111733e+000,5.2379540692e+000,4.8493324363e+000,5.5932800839e+000,3.6080929300e+000,3.0102976012e+000,1.1761819299e+000,1.2531921990e+001,5.3291546049e+000,4.1498302360e+000,6.4365976356e+000,3.1890630983e+000,2.8780290810e+000,
8.4375000000e-001,5.0707961725e+000,5.2219960746e+000,5.1215433489e+000,4.7765553488e+000,5.5767986524e+000,3.4092694075e+000,3.0350156647e+000,1.1500222658e+000,1.2512616965e+001,5.1356733428e+000,4.0319870586e+000,6.3067377713e+000,3.1611958789e+000,2.7804376615e+000,
9.3750000000e-001,4.5538171539e+000,4.7744097855e+000,4.5508000903e+000,4.2783286721e+000,5.3896973370e+000,3.0930387969e+000,2.9137918203e+000,1.2109154987e+000,1.2255988373e+001,4.7561020715e+000,3.6501378038e+000,6.2394410574e+000,2.8291626286e+000,2.5827253116e+000,
1.0312500000e+000,4.3051650459e+000,4.5470338229e+000,4.3039983049e+000,4.0437244196e+000,5.1282055728e+000,2.9240061499e+000,2.7637754899e+000,1.1932992354e+000,1.2138111952e+001,4.4707901115e+000,3.5424231274e+000,6.2332465406e+000,2.7478643507e+000,2.5716593310e+000,
1.1250000000e+000,4.1092005185e+000,4.4002451288e+000,4.1262239699e+000,3.8381949131e+000,4.6631113232e+000,2.6897128269e+000,2.7755579780e+000,1.1593486230e+000,1.1837106535e+001,4.2771041363e+000,3.4589373397e+000,6.1853022283e+000,2.6457623326e+000,2.4667849621e+000,
1.2187500000e+000,4.0718814145e+000,4.3742805995e+000,4.0767523210e+000,3.7981010047e+000,4.1007022909e+000,2.5114937164e+000,2.7799535713e+000,1.1355167427e+000,1.0449127098e+001,4.2269535945e+000,3.3745836490e+000,6.2478624642e+000,2.6143586363e+000,2.3827798209e+000,
1.3125000000e+000,3.9233424292e+000,4.2635804693e+000,3.9339332658e+000,3.7227876547e+000,3.8298786910e+000,2.4114687454e+000,2.7262077131e+000,1.1814441062e+000,1.0151654645e+001,4.1052445442e+000,3.3496651969e+000,6.2748086288e+000,2.5583771171e+000,2.3818932075e+000,
1.4062500000e+000,4.0111766329e+000,4.2621129629e+000,3.9953907637e+000,3.7609156180e+000,3.4662072575e+000,2.5313893010e+000,2.7157290513e+000,1.1827042523e+000,9.4845896396e+000,4.0782848972e+000,3.3726482327e+000,6.2764312011e+000,2.5293820451e+000,2.3805254033e+000,
1.5000000000e+000,3.9301661077e+000,4.1420795716e+000,3.9058220335e+000,3.6251255494e+000,3.1394513552e+000,2.4979549230e+000,2.6602369553e+000,1.1918953198e+000,9.1124647039e+000,3.8927785149e+000,3.2850400734e+000,6.2742832652e+000,2.4219119210e+000,2.2942220633e+000,
1.5937500000e+000,3.9238883982e+000,4.1346063982e+000,3.9013948893e+000,3.6276000800e+000,3.0549396786e+000,2.5459525401e+000,2.6608580085e+000,1.1442458567e+000,9.0641082634e+000,3.8853700472e+000,3.2790443727e+000,6.1093788231e+000,2.3858318648e+000,2.2083427637e+000,
1.6875000000e+000,3.9200594918e+000,4.0917020429e+000,3.9189714527e+000,3.5786214465e+000,2.9640940910e+000,2.5279933093e+000,2.6405176162e+000,1.1283563293e+000,9.2096646876e+000,3.8324703148e+000,3.1030670087e+000,6.0700817903e+000,2.3458303307e+000,2.1614227800e+000,
1.7812500000e+000,3.6163193171e+000,3.7540763225e+000,3.7339419515e+000,3.3196019759e+000,2.7174672476e+000,2.2920862497e+000,2.4821633395e+000,1.0425724682e+000,9.1778527557e+000,3.3830899421e+000,2.5267130823e+000,5.2002896213e+000,1.9924229770e+000,1.9825710164e+000,
1.8750000000e+000,3.6185198013e+000,3.7888916237e+000,3.7094475577e+000,3.3230736658e+000,2.1968301287e+000,2.3586825214e+000,2.2698004962e+000,1.0757681695e+000,8.7457154852e+000,3.4113169212e+000,2.5685450520e+000,5.0459703630e+000,2.0459702705e+000,1.9577638001e+000,
1.9687500000e+000,3.5651010346e+000,3.6866081898e+000,3.6784450040e+000,3.2294538123e+000,2.0934020585e+000,2.3542297666e+000,2.2655361671e+000,1.0384272008e+000,8.6262117657e+000,3.3529527006e+000,2.5309945238e+000,4.9529990385e+000,2.1092612219e+000,1.9632687123e+000,
2.0625000000e+000,3.5189139894e+000,3.6922679080e+000,3.6384513804e+000,3.2530070128e+000,2.1462790495e+000,2.3519506866e+000,2.2303298671e+000,1.0603358473e+000,8.5545143953e+000,3.3325654890e+000,2.6077565604e+000,4.7189221381e+000,2.2688221437e+000,1.9728273337e+000,
2.1562500000e+000,3.4068631608e+000,3.5476440408e+000,3.5303353678e+000,3.2004347827e+000,2.1320750792e+000,2.4278946096e+000,2.0883667240e+000,1.0494256247e+000,8.5270403087e+000,3.2495848923e+000,2.6221574295e+000,4.5770517411e+000,2.2733104291e+000,1.9424539199e+000,
2.2500000000e+000,3.4569373219e+000,3.4971401952e+000,3.5385115816e+000,3.1933757501e+000,2.2279356372e+000,2.3826639597e+000,2.1099638996e+000,1.0535854101e+000,8.5007072818e+000,3.1832939452e+000,2.6287103495e+000,3.9668260526e+000,2.2861003656e+000,1.9461557983e+000,
2.3437500000e+000,3.5927604815e+000,3.6030249736e+000,3.6824640242e+000,3.3362585416e+000,2.2187703967e+000,2.3655756844e+000,2.0075808874e+000,1.0495220792e+000,8.4604121055e+000,3.2367968926e+000,2.6470207155e+000,3.2049379564e+000,2.4557181392e+000,1.9586877567e+000,
2.4375000000e+000,3.5013973276e+000,3.6254184176e+000,3.6294438295e+000,3.3144966383e+000,2.0324473834e+000,2.3323371553e+000,1.9868081584e+000,1.0904292483e+000,8.2171419960e+000,3.1832321226e+000,2.6770383941e+000,3.1705578674e+000,2.4790017959e+000,2.0225017636e+000,
2.5312500000e+000,3.5509880206e+000,3.7889815684e+000,3.6950095766e+000,3.3328822480e+000,2.0757392927e+000,2.4107712898e+000,1.9330020197e+000,1.0792531123e+000,8.1870164461e+000,3.2831077025e+000,2.6805440829e+000,3.3039712580e+000,2.5561729201e+000,2.0529412993e+000,
2.6250000000e+000,3.5545542702e+000,3.8152916570e+000,3.7135896800e+000,3.3397527594e+000,2.0475237962e+000,2.3908746375e+000,1.9425920998e+000,1.0276572508e+000,7.5360598031e+000,3.3378682374e+000,2.6903491356e+000,3.2966689996e+000,2.5341941131e+000,2.0673809039e+000,
2.7187500000e+000,3.4941993122e+000,3.8541488626e+000,3.6192140773e+000,3.4088282518e+000,2.1490665799e+000,2.3773931941e+000,1.7384957627e+000,1.0018311025e+000,7.0233288015e+000,3.5184958626e+000,2.6654544172e+000,3.5939570639e+000,2.5306009082e+000,2.0387900543e+000,
2.8125000000e+000,3.4019168604e+000,3.8007166226e+000,3.5132086172e+000,3.2998993328e+000,2.0675197676e+000,2.2765195790e+000,1.6789420642e+000,1.0106872394e+000,7.0854110501e+000,3.6729888155e+000,2.5659746033e+000,3.7981395064e+000,2.4257736878e+000,2.0156069187e+000,
2.9062500000e+000,3.3608193111e+000,3.8331449525e+000,3.4966006204e+000,3.2812087402e+000,2.0765142412e+000,2.3524777843e+000,1.9477937850e+000,9.8223945882e-001,7.1042373461e+000,3.6867329399e+000,2.5238454938e+000,3.8885528326e+000,2.4014540715e+000,1.9490937219e+000,
3.0000000000e+000,3.4010143425e+000,3.8082524360e+000,3.5353079327e+000,3.2830473010e+000,1.9985796546e+000,2.3980139456e+000,1.9550068949e+000,9.7049102291e-001,7.1136161672e+000,3.7302161474e+000,2.5517933270e+000,3.9556941643e+000,2.3666394915e+000,1.8657262070e+000,
3.0937500000e+000,3.3700942148e+000,3.8014144244e+000,3.5039034994e+000,3.2529304721e+000,1.9651070859e+000,2.3635445479e+000,1.9282238760e+000,9.1452676191e-001,7.1771349204e+000,3.7095776341e+000,2.5922771512e+000,3.9459529108e+000,2.1999236785e+000,1.7730122186e+000,
3.1875000000e+000,3.3753788774e+000,3.8371169040e+000,3.5370742603e+000,3.3340369199e+000,1.8449530576e+000,2.3068408412e+000,1.8953009878e+000,9.1061412739e-001,7.1254469289e+000,3.7272100757e+000,2.7550347542e+000,3.9050881407e+000,2.2203296398e+000,1.8500290395e+000,
3.2812500000e+000,6.3307596355e+000,6.4527822738e+000,6.5696554556e+000,6.0039953947e+000,4.0714781920e+000,4.7480378834e+000,4.0477898599e+000,9.1685861488e-001,7.5441377432e+000,6.4550911959e+000,6.5778642058e+000,6.1417082539e+000,5.5866854977e+000,4.2421022595e+000,
3.3750000000e+000,6.6457858800e+000,6.7259102690e+000,6.8928224405e+000,6.2602593821e+000,4.3639935434e+000,5.0783961334e+000,4.3241786741e+000,9.1814322759e-001,7.6847330949e+000,6.7616370640e+000,6.8462030053e+000,6.4186330343e+000,5.8602978314e+000,4.5467791288e+000,
3.4687500000e+000,6.6502325069e+000,6.7319911586e+000,6.8974916423e+000,6.2661692817e+000,4.3771997858e+000,5.0767814373e+000,4.3240051543e+000,9.1888172544e-001,7.7081323725e+000,6.7652894231e+000,6.8525199288e+000,6.4414523347e+000,5.8640151908e+000,4.5570980116e+000,
3.5625000000e+000,6.6481726976e+000,6.7280548244e+000,6.8948942981e+000,6.2662082123e+000,4.3759236633e+000,5.0756058718e+000,4.3312608430e+000,9.8866870662e-001,7.7145249458e+000,6.7632093636e+000,6.8514132378e+000,6.4543868141e+000,5.8632997088e+000,4.5556157611e+000,
3.6562500000e+000,6.6517272374e+000,6.7301956529e+000,6.8959511247e+000,6.2692842309e+000,4.3829241597e+000,5.0777441375e+000,4.3405011778e+000,1.0566675714e+000,7.7026030560e+000,6.7647569422e+000,6.8513156770e+000,6.4748727041e+000,5.8643471213e+000,4.5574919305e+000,
3.7500000000e+000,6.6506324012e+000,6.7271049386e+000,6.8932413151e+000,6.2645877135e+000,4.3770153942e+000,5.0734077434e+000,4.3415219464e+000,1.1003858674e+000,7.6852402147e+000,6.7579769656e+000,6.8512518451e+000,6.4728945190e+000,5.8637572174e+000,4.5576387962e+000,
3.8437500000e+000,6.6505831943e+000,6.7270071791e+000,6.8921490649e+000,6.2655206382e+000,4.3825575663e+000,5.0751586924e+000,4.3389059816e+000,1.1612321357e+000,7.6765932288e+000,6.7518384534e+000,6.8509862973e+000,6.4665157866e+000,5.8647227646e+000,4.5582109506e+000,
3.9375000000e+000,6.6506843448e+000,6.7265791228e+000,6.8930130399e+000,6.2666854211e+000,4.3829448384e+000,5.0755043248e+000,4.3249596636e+000,1.1567352617e+000,7.6873387916e+000,6.7500028839e+000,6.8509714935e+000,6.4677103380e+000,5.8675877335e+000,4.5594129144e+000,
4.0312500000e+000,6.6531935286e+000,6.7316420253e+000,6.8924627733e+000,6.2680172997e+000,4.3870358642e+000,5.0784148297e+000,4.3330271399e+000,1.1746448087e+000,7.6430119430e+000,6.7538371367e+000,6.8498620918e+000,6.4687942249e+000,5.8675489470e+000,4.5648536079e+000,
4.1250000000e+000,6.6546208187e+000,6.7318960538e+000,6.8942380289e+000,6.2653129060e+000,4.3895476878e+000,5.0877439764e+000,4.3374981245e+000,1.1588859624e+000,7.6585122379e+000,6.7569809038e+000,6.8480093300e+000,6.4722061984e+000,5.8676484919e+000,4.5722515074e+000,
4.2187500000e+000,6.5143673498e+000,6.5868997874e+000,6.7544590037e+000,6.1047456079e+000,4.2423218050e+000,4.9553492832e+000,4.2027767366e+000,1.1690753464e+000,7.7931653501e+000,6.6242816538e+000,6.6921280851e+000,6.3330853026e+000,5.7077474201e+000,4.4348038979e+000,
4.3125000000e+000,4.1353866226e+000,4.3569919895e+000,4.2068361812e+000,3.8035658771e+000,2.4465044971e+000,3.0312868326e+000,2.4163683411e+000,1.1858378266e+000,7.2007704876e+000,4.3920500787e+000,4.0177215842e+000,4.6230735998e+000,3.1275475903e+000,2.4209928134e+000,
4.4062500000e+000,3.3355039625e+000,3.7889184580e+000,3.1901036049e+000,3.1223007844e+000,2.0341329185e+000,2.3954519003e+000,2.0774600133e+000,1.1807389423e+000,7.1460802708e+000,3.6057320803e+000,2.5913007613e+000,4.3143262258e+000,2.1837468128e+000,2.0568898010e+000,
4.5000000000e+000,3.3044730449e+000,3.5982858291e+000,3.1246464096e+000,2.9394579705e+000,2.0424001887e+000,2.3496154391e+000,2.0478734937e+000,1.1530060842e+000,7.0362617240e+000,3.5193790357e+000,2.1367859436e+000,4.2018947087e+000,2.0787494093e+000,1.9648678874e+000,
4.5937500000e+000,3.2828037724e+000,3.5269947766e+000,3.1546327027e+000,2.8994905838e+000,2.0331118769e+000,2.3583122431e+000,2.0813853478e+000,1.1026815251e+000,7.0311848317e+000,3.4999779367e+000,2.1596442212e+000,3.8402740043e+000,2.0051138769e+000,1.9234125216e+000,
4.6875000000e+000,3.1714018713e+000,3.4575673039e+000,3.1417710362e+000,2.8119763611e+000,1.9518141827e+000,2.2760881775e+000,1.9541415431e+000,1.0829800455e+000,7.0251858646e+000,3.4077217317e+000,2.1844207771e+000,3.7105823785e+000,2.0485841573e+000,1.8926754167e+000,
4.7812500000e+000,3.1761237086e+000,3.4465791842e+000,3.1647264302e+000,2.7644385902e+000,2.1278757118e+000,2.2687952928e+000,2.0062941794e+000,1.0388305141e+000,6.9653515465e+000,3.3148083130e+000,2.1241473665e+000,3.5533292850e+000,2.0180455483e+000,1.8761524064e+000,
4.8750000000e+000,3.9916861770e+000,4.4604964642e+000,4.2191431578e+000,3.8406986930e+000,2.1712015216e+000,2.7883461467e+000,2.0958525318e+000,1.0788113976e+000,6.8915139942e+000,4.2315322180e+000,3.4760602398e+000,4.0466956970e+000,2.2772215788e+000,2.1373087204e+000,
4.9687500000e+000,4.0431954797e+000,4.5559096581e+000,4.3323729494e+000,3.9411086446e+000,2.2544638575e+000,2.8226405002e+000,2.0810149430e+000,1.0927292446e+000,6.8473200796e+000,4.3144354382e+000,3.6585175715e+000,4.2602658627e+000,2.2908121285e+000,2.1808574810e+000,
5.0625000000e+000,4.0286527838e+000,4.5294126672e+000,4.3415021996e+000,3.9342325057e+000,2.3588212392e+000,2.8071122657e+000,2.0614756459e+000,1.0682810756e+000,6.7853777466e+000,4.2522540966e+000,3.6666708084e+000,4.2491183605e+000,2.3597449251e+000,2.1339637955e+000,
5.1562500000e+000,3.9981219538e+000,4.5162137775e+000,4.3096889291e+000,3.9286722963e+000,2.4284476287e+000,2.7284859806e+000,2.0362316107e+000,1.0153706402e+000,6.6775714808e+000,4.2458699306e+000,3.6630492071e+000,4.2414969794e+000,2.3899436668e+000,2.0980996213e+000,
5.2500000000e+000,3.9733936191e+000,4.4981555289e+000,4.3209573379e+000,3.9202320287e+000,2.3932137812e+000,2.6479289939e+000,1.9638258981e+000,1.0398185177e+000,5.7447828418e+000,4.1933347951e+000,3.6552514339e+000,4.3378335856e+000,2.3798732952e+000,2.0427521622e+000,
5.3437500000e+000,3.9774651494e+000,4.4818023815e+000,4.3258511164e+000,3.9004713646e+000,2.4323880046e+000,2.6317724255e+000,1.9325941515e+000,1.0319148522e+000,5.7948992231e+000,4.2073024884e+000,3.6539101371e+000,4.3359497820e+000,2.3616892397e+000,2.0318117647e+000,
5.4375000000e+000,3.9674547687e+000,4.5065412734e+000,4.3367861146e+000,3.9232489047e+000,2.4089429913e+000,2.6397094490e+000,1.9974661887e+000,9.6372608788e-001,5.7755621108e+000,4.2040416448e+000,3.7290549760e+000,4.4332200898e+000,2.3242729080e+000,2.0296694152e+000,
5.5312500000e+000,4.0109705959e+000,4.5205920554e+000,4.3574359244e+000,3.9194727293e+000,2.4311487188e+000,2.6732519934e+000,1.9409663142e+000,9.4247113101e-001,5.8264895229e+000,4.2262688278e+000,3.7877604372e+000,4.6631622280e+000,2.2802122724e+000,2.0611388924e+000,
5.6250000000e+000,4.9329326577e+000,5.3806067472e+000,5.2527269816e+000,4.8364125618e+000,2.8424674274e+000,3.6363998464e+000,2.1770985174e+000,1.1266156900e+000,6.3154737094e+000,5.3435317794e+000,4.9323394228e+000,5.4834600984e+000,2.9521228643e+000,2.8828705543e+000,
5.7187500000e+000,6.1414486387e+000,6.5874553294e+000,6.5002725738e+000,6.0393842810e+000,3.7245860826e+000,4.8869949947e+000,2.5487049969e+000,1.6056946483e+000,7.2167408006e+000,6.7099156857e+000,6.4032656456e+000,6.4623534673e+000,4.0768150085e+000,3.9757328070e+000,
5.8125000000e+000,6.4003082928e+000,6.8238466109e+000,6.7536150522e+000,6.2732100289e+000,3.9035272208e+000,5.1155237238e+000,2.6163089058e+000,1.7540879558e+000,7.4295276704e+000,6.9240333650e+000,6.6506197266e+000,6.6424826441e+000,4.3205189740e+000,4.1727068049e+000,
5.9062500000e+000,6.3581501946e+000,6.7761431067e+000,6.7061735834e+000,6.2279648810e+000,3.9237822184e+000,5.0859993465e+000,2.5758076703e+000,1.6943125989e+000,7.4458210666e+000,6.9035864140e+000,6.6251475943e+000,6.5944156992e+000,4.2895803101e+000,4.1416155534e+000,
6.0000000000e+000,6.3653462598e+000,6.7826447949e+000,6.7096125254e+000,6.2320136432e+000,3.9130473002e+000,5.0860413897e+000,2.5589291895e+000,1.6967187384e+000,7.4755172175e+000,6.9018125346e+000,6.6235801229e+000,6.5983965515e+000,4.2910800755e+000,4.1425665422e+000,
6.0937500000e+000,6.3640188184e+000,6.7783771005e+000,6.7091570841e+000,6.2307925222e+000,3.9068223167e+000,5.0820101971e+000,2.5977636694e+000,1.7148441298e+000,7.4937459650e+000,6.9033426371e+000,6.6237420537e+000,6.6197038813e+000,4.2785806191e+000,4.1487154224e+000,
6.1875000000e+000,6.3700148851e+000,6.7825501983e+000,6.7158663075e+000,6.2339451957e+000,3.8927838787e+000,5.0858754290e+000,2.5944938589e+000,1.7056877792e+000,7.5164615581e+000,6.9070768350e+000,6.6256415816e+000,6.6440695972e+000,4.2918459027e+000,4.1508321894e+000,
6.2812500000e+000,6.3762886788e+000,6.7874678218e+000,6.7188454962e+000,6.2421185924e+000,3.8907940702e+000,5.0939199114e+000,2.6383479464e+000,1.7599101440e+000,7.5225535995e+000,6.9130719407e+000,6.6290197402e+000,6.6440642443e+000,4.3058592316e+000,4.1591797466e+000,
6.3750000000e+000,6.4034520676e+000,6.8108186687e+000,6.7349613332e+000,6.2695672768e+000,3.8879690732e+000,5.1177705584e+000,2.7249779584e+000,1.7580084302e+000,7.5700604909e+000,6.9292369510e+000,6.6373369856e+000,6.6602555537e+000,4.3285793737e+000,4.1800126065e+000,
6.4687500000e+000,6.4062402113e+000,6.8140446780e+000,6.7369747836e+000,6.2715597448e+000,3.8849105339e+000,5.1217155263e+000,2.8099011035e+000,1.7927299347e+000,7.5954833985e+000,6.9330989725e+000,6.6416975313e+000,6.6520963264e+000,4.3418549524e+000,4.1799753136e+000,
6.5625000000e+000,6.4159855006e+000,6.8183079872e+000,6.7419578696e+000,6.2776263650e+000,3.8639771416e+000,5.1240990584e+000,2.8595630670e+000,1.7931023853e+000,7.6105626940e+000,6.9374858485e+000,6.6483526663e+000,6.6291546944e+000,4.3483002273e+000,4.1903514354e+000,
6.6562500000e+000,6.2537204517e+000,6.6665320222e+000,6.5981206334e+000,6.1249315696e+000,3.7253395633e+000,4.9474997111e+000,2.8553558439e+000,1.6645713467e+000,7.6359757450e+000,6.7719830076e+000,6.4840396784e+000,6.4461249694e+000,4.2473387469e+000,4.0168341510e+000,
6.7500000000e+000,5.0403699295e+000,5.4991650125e+000,5.3350027245e+000,4.9845091643e+000,2.9217063632e+000,3.8428131212e+000,2.8274474198e+000,1.3226290322e+000,7.1230547709e+000,5.5336112371e+000,5.1655870419e+000,5.4806571023e+000,3.4356691974e+000,3.0360902725e+000,
6.8437500000e+000,4.6741985979e+000,5.1668193716e+000,4.9471742449e+000,4.6970660707e+000,2.4868026985e+000,3.5952096002e+000,2.8902422118e+000,1.2296052597e+000,7.1341336495e+000,5.2808445076e+000,4.8565038223e+000,5.4906838321e+000,3.3841355718e+000,2.8773384945e+000,
6.9375000000e+000,5.4592065568e+000,5.6822233189e+000,5.6761026561e+000,5.2035781817e+000,3.1265185425e+000,4.0524294546e+000,3.4873968627e+000,1.2468023496e+000,7.1655972487e+000,5.8949416104e+000,5.5974287379e+000,5.9702308360e+000,4.4917710245e+000,3.5055858788e+000,
7.0312500000e+000,5.5661897358e+000,5.7960375996e+000,5.7982550509e+000,5.3015236238e+000,3.2406940628e+000,4.1633952202e+000,3.6052343263e+000,1.2699966943e+000,7.2926425992e+000,6.0127170889e+000,5.7326026131e+000,6.0985030334e+000,4.6041071234e+000,3.5506361681e+000,
7.1250000000e+000,5.5699032720e+000,5.8091077416e+000,5.8195908834e+000,5.3050966964e+000,3.2108536070e+000,4.1800171893e+000,3.6459351813e+000,1.2780106935e+000,7.3637252013e+000,6.0415534787e+000,5.7415991285e+000,6.2453662487e+000,4.6094178995e+000,3.5676553744e+000,
7.2187500000e+000,5.5521267720e+000,5.7889708660e+000,5.8355077398e+000,5.2859326417e+000,3.2317086053e+000,4.1954155818e+000,3.6961468255e+000,1.3224983335e+000,7.3737795771e+000,6.0229081248e+000,5.7341294279e+000,6.2738045494e+000,4.5922619078e+000,3.5366007524e+000,
7.3125000000e+000,5.5246189251e+000,5.7584784863e+000,5.8298701568e+000,5.2599972675e+000,3.2194849213e+000,4.2055731838e+000,3.7163655472e+000,1.2674521494e+000,7.3859532080e+000,6.0012928253e+000,5.7266197907e+000,6.2826384837e+000,4.5855866372e+000,3.5127269104e+000,
7.4062500000e+000,5.4735951220e+000,5.7107337186e+000,5.8749818594e+000,5.2146245685e+000,3.2064331248e+000,4.1737964356e+000,3.7162028681e+000,1.2176000005e+000,7.4346879139e+000,5.9732061707e+000,5.7097204820e+000,6.2620445035e+000,4.5694463153e+000,3.4866008038e+000,
7.5000000000e+000,5.4597785574e+000,5.7089389291e+000,5.9286081179e+000,5.2098851117e+000,3.2197767278e+000,4.1885287984e+000,3.6880957896e+000,1.2023355859e+000,7.4720665780e+000,5.9673867211e+000,5.6896467913e+000,6.2640860912e+000,4.5620195640e+000,3.4773839402e+000,
7.5937500000e+000,5.3809863070e+000,5.6342179461e+000,5.9043982592e+000,5.1165149001e+000,3.1888615600e+000,4.1256846156e+000,3.6740825946e+000,1.1859608753e+000,7.6233833567e+000,5.8872416034e+000,5.6135862757e+000,6.2050022369e+000,4.5163309933e+000,3.3921809624e+000,
7.6875000000e+000,5.3164176678e+000,5.5069406474e+000,5.9992089465e+000,4.9801109770e+000,3.1318297814e+000,4.0046446118e+000,3.6217328438e+000,1.1063627503e+000,7.6432727197e+000,5.7987776833e+000,5.5298932855e+000,6.1591230998e+000,4.4573794952e+000,3.2956243465e+000,
7.7812500000e+000,5.3143164811e+000,5.4220327815e+000,6.1352091255e+000,4.8730553389e+000,3.1146838340e+000,3.9379416254e+000,3.5737897945e+000,1.0595538901e+000,7.8592905483e+000,5.6752183905e+000,5.3364112725e+000,6.0305332820e+000,4.3891644141e+000,3.2356450923e+000,
7.8750000000e+000,5.1894888232e+000,5.3295207655e+000,6.1730639693e+000,4.7796555309e+000,3.0770479441e+000,3.9045273508e+000,3.5042919992e+000,1.0366897211e+000,7.9625473950e+000,5.5602123691e+000,5.3414195298e+000,6.5202072151e+000,4.4619088958e+000,3.4245254683e+000,
7.9687500000e+000,4.4698904625e+000,4.8546103005e+000,5.9083521993e+000,4.2042872335e+000,2.5193076603e+000,3.5114172392e+000,3.1168209531e+000,1.0383613229e+000,7.9789080122e+000,4.8932300202e+000,4.9925492160e+000,6.7548747362e+000,4.1169486618e+000,3.3760667897e+000,
8.0625000000e+000,4.4834477961e+000,4.8565377929e+000,5.8938527346e+000,4.2051175967e+000,2.4839944186e+000,3.4906074219e+000,3.0743178221e+000,9.6641129630e-001,8.0557662214e+000,4.8289843270e+000,4.9644115546e+000,6.6655496522e+000,4.0843336517e+000,3.4019432942e+000,
8.1562500000e+000,4.7115309841e+000,4.9769397288e+000,5.9488261402e+000,4.4048432122e+000,2.7164206641e+000,3.6575272596e+000,3.1188438149e+000,9.5574890926e-001,8.2486756148e+000,4.9403683413e+000,4.9565535811e+000,6.6314822931e+000,4.1327932441e+000,3.4324802970e+000,
8.2500000000e+000,4.7264649554e+000,4.9811191829e+000,5.9102171620e+000,4.3951968134e+000,2.7409782320e+000,3.5906240543e+000,2.9840427320e+000,8.4478545195e-001,8.2595273125e+000,4.9370235451e+000,4.9639925401e+000,6.7000870684e+000,4.1660556160e+000,3.4551034549e+000,
8.3437500000e+000,4.7624638542e+000,5.0326896907e+000,5.8443885598e+000,4.4205805385e+000,2.7598015773e+000,3.5469489526e+000,2.9474843422e+000,8.8456904464e-001,8.3420260142e+000,4.9943928045e+000,4.9761602496e+000,6.7173246730e+000,4.1781967257e+000,3.4770863824e+000,
8.4375000000e+000,4.7742775315e+000,5.0437001509e+000,5.8324580150e+000,4.4405589700e+000,2.7798989750e+000,3.5412932934e+000,2.9497280396e+000,9.0207059066e-001,8.3331401442e+000,5.0272171406e+000,4.9938137130e+000,6.7260638280e+000,4.1839141870e+000,3.4824247719e+000,
8.5312500000e+000,4.7700490970e+000,5.0435151569e+000,5.8866611768e+000,4.4461691366e+000,2.7485620884e+000,3.5520101729e+000,3.0672563420e+000,9.3455868862e-001,8.4373572865e+000,5.0362549805e+000,5.0025613857e+000,6.7538746921e+000,4.1932848965e+000,3.4837815017e+000,
8.6250000000e+000,4.7869533796e+000,5.0256353439e+000,5.8014571083e+000,4.4599085547e+000,2.7512217904e+000,3.5343078545e+000,3.1218318975e+000,9.8755341305e-001,8.4037649995e+000,5.0423776862e+000,4.9956965596e+000,6.7544276385e+000,4.2058187573e+000,3.4979094543e+000,
8.7187500000e+000,4.7198697002e+000,4.9679724286e+000,5.5520085775e+000,4.3666384166e+000,2.6836356510e+000,3.4629677334e+000,3.0348800034e+000,9.5044016986e-001,8.3234813889e+000,4.9056145940e+000,4.9730331263e+000,6.7291926375e+000,4.2115734394e+000,3.4275779702e+000,
8.8125000000e+000,4.6177870714e+000,4.8668479782e+000,5.1017654828e+000,4.3134848553e+000,2.5893636221e+000,3.3564544327e+000,2.9681537419e+000,9.5757988332e-001,8.2794406429e+000,4.8670213855e+000,4.9444149341e+000,6.6510156927e+000,4.1843380576e+000,3.4121424279e+000,
8.9062500000e+000,4.2726747059e+000,4.4529099263e+000,4.8391690946e+000,3.9491969844e+000,2.4472746391e+000,3.0061296330e+000,2.8259068979e+000,9.5275467762e-001,8.2859442368e+000,4.3805601643e+000,3.8466333768e+000,5.6997882914e+000,3.2074015843e+000,2.5891236906e+000,
9.0000000000e+000,3.9897601394e+000,4.0099665213e+000,4.6570041823e+000,3.6494966943e+000,2.2741361257e+000,2.8515028912e+000,2.7503316917e+000,9.9682992535e-001,8.3413250929e+000,4.0745107159e+000,2.9702554788e+000,5.1578310382e+000,2.7206794858e+000,2.1112851971e+000,
9.0937500000e+000,3.9132973423e+000,3.9196237660e+000,4.6988008613e+000,3.5581190663e+000,2.3549817645e+000,2.8316814888e+000,2.8247922813e+000,1.0366702800e+000,8.4420080807e+000,4.0174979402e+000,2.8918278087e+000,5.0542168087e+000,2.6829941430e+000,1.9790195041e+000,
9.1875000000e+000,7.3691589752e+000,7.7371279238e+000,7.6155612578e+000,7.1581945180e+000,2.4590675306e+000,5.9208132782e+000,6.0447200564e+000,3.8864890282e+000,8.9026233288e+000,7.7060204836e+000,7.6446222766e+000,7.5719272663e+000,5.9709707921e+000,4.8153254221e+000,
9.2812500000e+000,1.0455872562e+001,1.1202394518e+001,9.4937622980e+000,1.0435681548e+001,7.4872707504e+000,9.4688065031e+000,8.5073943835e+000,7.5071789451e+000,1.1277124981e+001,1.1215146572e+001,1.0909965428e+001,1.1025804730e+001,9.3085194409e+000,8.7264220013e+000,
9.3750000000e+000,1.0486928487e+001,1.1235352105e+001,9.5332422088e+000,1.0465524751e+001,7.5374182790e+000,9.4991023187e+000,8.5271986652e+000,7.5465061572e+000,1.1327499772e+001,1.1251022821e+001,1.0944025865e+001,1.1057021794e+001,9.3384333715e+000,8.7567743144e+000,
9.4687500000e+000,1.0488027009e+001,1.1236439935e+001,9.5364340596e+000,1.0466332491e+001,7.5411575059e+000,9.5001446712e+000,8.5279863773e+000,7.5488533281e+000,1.1331096853e+001,1.1252231468e+001,1.0945056539e+001,1.1057913256e+001,9.3393567621e+000,8.7580155982e+000,
9.5625000000e+000,1.0488148447e+001,1.1236475899e+001,9.5360028551e+000,1.0466362741e+001,7.5415546816e+000,9.5001798505e+000,8.5273170294e+000,7.5488865425e+000,1.1330981907e+001,1.1252275589e+001,1.0945046663e+001,1.1057671358e+001,9.3393409376e+000,8.7580529401e+000,
9.6562500000e+000,1.0488148375e+001,1.1236454196e+001,9.5362280414e+000,1.0466333901e+001,7.5414988433e+000,9.5001855568e+000,8.5272606879e+000,7.5488177670e+000,1.1336598950e+001,1.1252268799e+001,1.0945049984e+001,1.1057673151e+001,9.3393019335e+000,8.7579872298e+000,
9.7500000000e+000,1.0488682259e+001,1.1236849911e+001,9.9813196812e+000,1.0466675769e+001,7.5415404728e+000,9.5005351657e+000,8.5278610297e+000,7.5491790619e+000,1.1340276470e+001,1.1252517150e+001,1.0945350828e+001,1.1057947871e+001,9.3393700561e+000,8.7580881967e+000,
9.8437500000e+000,1.0489058368e+001,1.1237039577e+001,1.0188685016e+001,1.0466925833e+001,7.5419284517e+000,9.5006266331e+000,8.5283767475e+000,7.5494203207e+000,1.1349291586e+001,1.1252681987e+001,1.0945528121e+001,1.1058129721e+001,9.3394426823e+000,8.7582462567e+000,
9.9375000000e+000,1.0516929610e+001,1.1261052627e+001,1.2110553288e+001,1.0492092163e+001,7.5590313139e+000,9.5211212653e+000,8.5611408951e+000,7.5720408134e+000,1.1367500425e+001,1.1281482033e+001,1.0972761997e+001,1.1081981665e+001,9.3597569013e+000,8.7739507571e+000,
1.0031250000e+001,1.0519678644e+001,1.1263504127e+001,1.2243981371e+001,1.0494559959e+001,7.5644187554e+000,9.5231320667e+000,8.5644862437e+000,7.5751156324e+000,1.1366440282e+001,1.1284655417e+001,1.0975743403e+001,1.1084465735e+001,9.3618063641e+000,8.7758734790e+000,
1.0125000000e+001,1.0520035114e+001,1.1263779313e+001,1.2261017356e+001,1.0494875370e+001,7.5637632248e+000,9.5232741123e+000,8.5641998298e+000,7.5754271162e+000,1.1362420762e+001,1.1284825376e+001,1.0975956072e+001,1.1084591132e+001,9.3619805712e+000,8.7759785539e+000,
1.0218750000e+001,8.9363924927e+000,9.7131513225e+000,1.2226320453e+001,8.8931066085e+000,6.6941854129e+000,7.8930304861e+000,6.9462416968e+000,6.2467928430e+000,1.0136352831e+001,9.8211957476e+000,9.4651287233e+000,9.5141368709e+000,7.7195097702e+000,7.1492688490e+000,
1.0312500000e+001,7.5271165560e+000,8.1630764477e+000,1.2337394330e+001,7.3927975478e+000,4.8664637772e+000,6.2913804841e+000,5.6920643907e+000,4.6391086225e+000,9.2251175517e+000,8.3425106444e+000,7.9930426480e+000,7.9678673303e+000,6.0938769500e+000,5.4046572401e+000,
1.0406250000e+001,8.0072136156e+000,8.5548430038e+000,1.3118371449e+001,7.8432283155e+000,4.7300993677e+000,6.6365949651e+000,6.0184554111e+000,4.8652371457e+000,9.3502335471e+000,8.7381232943e+000,8.4137583553e+000,8.3634366568e+000,6.5524639116e+000,5.7134414504e+000,
1.0500000000e+001,8.0216409335e+000,8.5715750738e+000,1.3390130823e+001,7.8597889682e+000,4.7300692808e+000,6.6514301970e+000,6.0295794029e+000,4.8978721394e+000,9.3280963346e+000,8.7541765670e+000,8.4331857203e+000,8.3787286386e+000,6.5711517749e+000,5.7258051538e+000,
1.0593750000e+001,8.0209471534e+000,8.5714782423e+000,1.3393790344e+001,7.8592878200e+000,4.7295325779e+000,6.6502295585e+000,6.0297584844e+000,4.8995653406e+000,9.3562879323e+000,8.7536878974e+000,8.4332449171e+000,8.3785663296e+000,6.5717389508e+000,5.7246075455e+000,
1.0687500000e+001,8.0209428917e+000,8.5724460261e+000,1.3394067289e+001,7.8606163288e+000,4.7326772509e+000,6.6517528695e+000,6.0302223678e+000,4.8988771671e+000,9.3104556746e+000,8.7545015041e+000,8.4333511720e+000,8.3790345242e+000,6.5735839732e+000,5.7266014491e+000,
1.0781250000e+001,8.0756506077e+000,8.6257621717e+000,1.3449970410e+001,7.9178187414e+000,4.7590442602e+000,6.7079801096e+000,6.0842556427e+000,4.9364726664e+000,9.2884808631e+000,8.8127522761e+000,8.4886627795e+000,8.4330875849e+000,6.6286833914e+000,5.7818950875e+000,
1.0875000000e+001,8.0840561995e+000,8.6378857187e+000,1.3490852129e+001,7.9244949034e+000,4.8137157277e+000,6.7288283937e+000,6.0584122101e+000,4.9538519253e+000,9.2637405119e+000,8.8337041828e+000,8.4983881499e+000,8.4488386970e+000,6.6356488810e+000,5.7970621240e+000,
1.0968750000e+001,7.7388813823e+000,8.2650276050e+000,1.3293247105e+001,7.5591200451e+000,4.4412186185e+000,6.3481588578e+000,5.6140221104e+000,4.5926269595e+000,9.0959709801e+000,8.4574560390e+000,8.1362928374e+000,8.0760290413e+000,6.3048074699e+000,5.4554113510e+000,
1.1062500000e+001,7.7364000982e+000,8.2664503133e+000,1.3320553547e+001,7.5585336830e+000,4.4309078781e+000,6.3455710679e+000,5.6162991955e+000,4.5920263284e+000,9.1251173884e+000,8.4547938473e+000,8.1286493901e+000,8.0739060661e+000,6.2968858596e+000,5.4508700030e+000,
1.1156250000e+001,7.7335445500e+000,8.2651120530e+000,1.3333664895e+001,7.5554834348e+000,4.4600178137e+000,6.3426635274e+000,5.6286703638e+000,4.6033966231e+000,9.0546006167e+000,8.4569039666e+000,8.1320301409e+000,8.0788480181e+000,6.3026750779e+000,5.4531507072e+000,
1.1250000000e+001,7.7340693557e+000,8.2656456773e+000,1.3336602604e+001,7.5549689860e+000,4.4627807205e+000,6.3412157264e+000,5.6309213468e+000,4.6051101249e+000,9.0207869769e+000,8.4574770368e+000,8.1327374776e+000,8.0799770966e+000,6.3049285024e+000,5.4521052859e+000,
1.1343750000e+001,6.6182821216e+000,7.1880954001e+000,1.2869880608e+001,6.4400207062e+000,3.7623169242e+000,5.2753818456e+000,4.5438883900e+000,3.6227273419e+000,8.3449494914e+000,7.3922456544e+000,6.9982892083e+000,6.9720852904e+000,5.1925239192e+000,4.3629132016e+000,
1.1437500000e+001,6.1318540551e+000,6.6921605170e+000,1.2582034301e+001,5.9550794154e+000,3.2779487540e+000,4.8444681101e+000,4.2229757459e+000,3.1989376862e+000,8.3034122769e+000,6.9393992576e+000,6.4908268287e+000,6.5134700098e+000,4.7193302967e+000,3.9164385459e+000,
1.1531250000e+001,6.0846505055e+000,6.6369928917e+000,1.2015709665e+001,5.9096306668e+000,3.2010054725e+000,4.7911461266e+000,4.2305514795e+000,3.0452687045e+000,8.1178476118e+000,6.8834500833e+000,6.4032562909e+000,6.4546101744e+000,4.6311366710e+000,3.8686377753e+000,
1.1625000000e+001,6.7496165261e+000,7.2500656463e+000,1.2089437854e+001,6.5619852978e+000,3.3602196493e+000,5.3871198224e+000,4.8473850733e+000,3.4583943691e+000,8.3235116948e+000,7.4270345707e+000,7.0564292954e+000,7.0726134378e+000,5.2698594298e+000,4.4335398287e+000,
1.1718750000e+001,7.7290788305e+000,8.2532189433e+000,1.3179435390e+001,7.5569338620e+000,4.1351827005e+000,6.3748926444e+000,5.6429679865e+000,4.3999527614e+000,9.0280672702e+000,8.4283107937e+000,8.0783022972e+000,8.0394381429e+000,6.2805424690e+000,5.4237419778e+000,
1.1812500000e+001,7.6459993590e+000,8.1747480781e+000,1.3563946319e+001,7.4767035817e+000,4.0150168317e+000,6.2905340246e+000,5.6015702422e+000,4.3306675289e+000,9.0259768616e+000,8.3473744861e+000,7.9997415206e+000,7.9550245775e+000,6.2155900344e+000,5.3605954867e+000,
1.1906250000e+001,7.5849646067e+000,8.1176137949e+000,1.3531354298e+001,7.4231768224e+000,3.9610585477e+000,6.2282394057e+000,5.5554147739e+000,4.2696909371e+000,9.0079210067e+000,8.2805387879e+000,7.9444528727e+000,7.8901516315e+000,6.1609697019e+000,5.3064015757e+000,
1.2000000000e+001,7.5714321570e+000,8.1011261949e+000,1.3512122604e+001,7.4093254199e+000,3.9811744828e+000,6.2124620151e+000,5.5386286946e+000,4.2607771057e+000,9.1148658874e+000,8.2648000740e+000,7.9337803056e+000,7.8765632832e+000,6.1445652068e+000,5.2873693610e+000,
1.2093750000e+001,7.5609592206e+000,8.0871998856e+000,1.3485486831e+001,7.3976647932e+000,3.9347146374e+000,6.2042718757e+000,5.5096029351e+000,4.2239470998e+000,9.1123984814e+000,8.2501547488e+000,7.9198725184e+000,7.8611100634e+000,6.1355877530e+000,5.2773201918e+000,
1.2187500000e+001,7.5572292058e+000,8.0825932866e+000,1.3469837218e+001,7.3939349711e+000,3.8851686370e+000,6.2010762482e+000,5.4906315292e+000,4.1945597221e+000,9.0935249701e+000,8.2440787104e+000,7.9123001226e+000,7.8523503334e+000,6.1252227351e+000,5.2697352081e+000,
1.2281250000e+001,7.5604081310e+000,8.0840233247e+000,1.3466851279e+001,7.3961491001e+000,3.8967216090e+000,6.2049624052e+000,5.4925112600e+000,4.1913203583e+000,9.1041639336e+000,8.2461341298e+000,7.9164038631e+000,7.8545078421e+000,6.1259882445e+000,5.2743335681e+000,
1.2375000000e+001,7.5672253638e+000,8.0892879027e+000,1.3466524754e+001,7.4010501993e+000,3.9248985150e+000,6.2099131972e+000,5.4925490674e+000,4.1875409027e+000,9.1319391781e+000,8.2527037375e+000,7.9276237327e+000,7.8644072002e+000,6.1353172355e+000,5.2846931379e+000,
1.2468750000e+001,7.5682043990e+000,8.0884538019e+000,1.3466522379e+001,7.4008099291e+000,3.9557892916e+000,6.2109826606e+000,5.4896280500e+000,4.1842116247e+000,9.1306705727e+000,8.2526969833e+000,7.9282399682e+000,7.8643076468e+000,6.1367152854e+000,5.2855202742e+000,
1.2562500000e+001,7.5645662340e+000,8.0854824491e+000,1.3466516612e+001,7.3982392433e+000,3.9827432229e+000,6.2088439001e+000,5.4816394896e+000,4.1883582704e+000,9.1365602881e+000,8.2514780125e+000,7.9281447917e+000,7.8633343870e+000,6.1371268738e+000,5.2862159910e+000,
1.2656250000e+001,5.9529826239e+000,6.5186244068e+000,1.3342186857e+001,5.7831072631e+000,3.3276883923e+000,4.7038711662e+000,4.3023725991e+000,2.7857612702e+000,8.5467539512e+000,6.7262541218e+000,6.3761779487e+000,6.2002128192e+000,4.4756466092e+000,3.8114903870e+000,
1.2750000000e+001,4.3543822147e+000,4.6415498014e+000,1.2390087832e+001,4.0721052035e+000,2.8873755329e+000,3.1064873077e+000,2.7786310495e+000,1.3681438868e+000,8.4134250969e+000,4.9979155973e+000,4.6452877664e+000,4.6016761273e+000,3.0308472015e+000,2.6113165051e+000,
1.2843750000e+001,5.0277408257e+000,5.5010684965e+000,8.2841055018e+000,4.9082716049e+000,3.3409215176e+000,4.0031170501e+000,2.6125676817e+000,1.3798110114e+000,8.5657172876e+000,5.8383044614e+000,5.4769761400e+000,5.3707375169e+000,3.3372045094e+000,3.0709222282e+000,
1.2937500000e+001,5.5572317364e+000,6.0669610935e+000,6.5890716410e+000,5.4609205175e+000,3.6179912834e+000,4.4644166546e+000,3.0102646940e+000,1.5449188578e+000,8.4577123625e+000,6.3207140374e+000,5.9629889588e+000,5.8366710503e+000,3.7369212840e+000,3.5026836677e+000,
1.3031250000e+001,5.5935788468e+000,6.1112538643e+000,6.1326007688e+000,5.4940654767e+000,3.6747326345e+000,4.4920480084e+000,3.0411531240e+000,1.6322933313e+000,8.1615529923e+000,6.3429317381e+000,6.0063170127e+000,5.8625552629e+000,3.7811918570e+000,3.5356655537e+000,
1.3125000000e+001,5.5949260239e+000,6.1123095061e+000,6.1216426079e+000,5.4944938982e+000,3.6796025823e+000,4.4989309300e+000,3.0564545616e+000,1.6437476293e+000,8.2385262678e+000,6.3487475838e+000,6.0105477547e+000,5.8634635018e+000,3.7913226454e+000,3.5503071220e+000,
1.3218750000e+001,5.5972940475e+000,6.1103243268e+000,6.1146486063e+000,5.4882055190e+000,3.6755186869e+000,4.4921300600e+000,3.1150921383e+000,1.6707598440e+000,8.3540766527e+000,6.3492669005e+000,6.0060343757e+000,5.8689901735e+000,3.7853225077e+000,3.5321464473e+000,
1.3312500000e+001,5.5459472195e+000,6.0641051770e+000,6.0490447773e+000,5.4376860815e+000,3.6258700718e+000,4.4490419302e+000,2.9975922322e+000,1.6174047965e+000,8.3017347337e+000,6.2856404213e+000,5.9214665314e+000,5.8307967619e+000,3.6806677896e+000,3.4969197577e+000,
1.3406250000e+001,5.5144564559e+000,6.0458720648e+000,6.0033365170e+000,5.4191329966e+000,3.6357295481e+000,4.4358346423e+000,2.9332725318e+000,1.6236300680e+000,8.8568361911e+000,6.2591865951e+000,5.8975867401e+000,5.8068488335e+000,3.5954884268e+000,3.4553960852e+000,
1.3500000000e+001,5.5746968346e+000,6.0973796745e+000,6.0584610236e+000,5.4711673138e+000,3.6785372671e+000,4.4897296781e+000,2.9302765308e+000,1.6592999401e+000,8.9700926555e+000,6.3209028065e+000,5.9577643043e+000,5.8696878977e+000,3.6551876201e+000,3.4643092288e+000,
1.3593750000e+001,6.1475518308e+000,6.5818823704e+000,6.5772878288e+000,5.9791550271e+000,3.8515326189e+000,4.9397632280e+000,3.0749598037e+000,1.9394130273e+000,8.9736998079e+000,6.7976852948e+000,6.4368662797e+000,6.3790702439e+000,3.9511154429e+000,3.7724225569e+000,
1.3687500000e+001,6.2109736303e+000,6.6467770582e+000,6.6437812158e+000,6.0441729909e+000,3.8619496615e+000,4.9803449434e+000,3.0284261773e+000,1.9666096186e+000,8.9721610126e+000,6.8401318690e+000,6.4726379564e+000,6.4238232301e+000,3.9872164590e+000,3.8204634101e+000,
1.3781250000e+001,6.1838136140e+000,6.6284229074e+000,6.6094105852e+000,6.0249112695e+000,3.8439545227e+000,4.9563819356e+000,3.0188495249e+000,1.9410946361e+000,8.9215295144e+000,6.8087817955e+000,6.4419896625e+000,6.3932454728e+000,3.9399989858e+000,3.7792117181e+000,
1.3875000000e+001,5.8096662396e+000,6.1624710726e+000,6.1795112168e+000,5.5901466654e+000,3.3778175651e+000,4.4732978053e+000,2.4921568005e+000,1.7243239244e+000,8.7840935135e+000,6.3027620986e+000,5.9166002743e+000,5.9730168243e+000,3.4512248839e+000,3.2694587724e+000,
1.3968750000e+001,5.6585620317e+000,5.9761579072e+000,6.0117507507e+000,5.4003278654e+000,3.1591644573e+000,4.3057683061e+000,2.3132235047e+000,1.6400751645e+000,8.7967069573e+000,6.1210921515e+000,5.7454085455e+000,5.8022773720e+000,3.2306971233e+000,3.0245361850e+000,
1.4062500000e+001,5.6605368829e+000,5.9755703695e+000,6.0066868948e+000,5.4031477217e+000,3.1207723119e+000,4.2968361709e+000,2.3824543646e+000,1.6259862043e+000,8.7761982485e+000,6.1108524084e+000,5.7135557571e+000,5.7998824211e+000,3.2273055378e+000,3.0228890926e+000,
1.4156250000e+001,5.6710537953e+000,5.9876271585e+000,6.0133681982e+000,5.4098719480e+000,3.1853048143e+000,4.3059502277e+000,2.3600026087e+000,1.6170010761e+000,8.7483785507e+000,6.1206712633e+000,5.7238209703e+000,5.8100814423e+000,3.1953118176e+000,3.0158044895e+000,
1.4250000000e+001,6.0183968330e+000,6.3682415754e+000,6.3544444030e+000,5.7589464234e+000,3.3728217871e+000,4.6221374407e+000,2.4907864520e+000,2.1439977928e+000,9.1347443107e+000,6.4957703557e+000,6.1156640514e+000,6.1373009739e+000,3.4794224945e+000,3.2317337350e+000,
1.4343750000e+001,6.2280880445e+000,6.5779202614e+000,6.5596613165e+000,5.9550419902e+000,3.6242422512e+000,4.8211455265e+000,2.5897972518e+000,2.4758639046e+000,9.4975519061e+000,6.7382861019e+000,6.3362621421e+000,6.3310370512e+000,3.6279042181e+000,3.3789597965e+000,
1.4437500000e+001,6.2978957073e+000,6.6456693330e+000,6.6312828925e+000,6.0220315817e+000,3.6642116945e+000,4.8829557273e+000,2.6938153625e+000,2.5643251043e+000,9.2578933931e+000,6.8201838006e+000,6.4100396562e+000,6.4073157290e+000,3.6935299701e+000,3.4398673724e+000,
1.4531250000e+001,6.1760357707e+000,6.5370911352e+000,6.5013314736e+000,5.9021558607e+000,3.5210433644e+000,4.7474704483e+000,2.6131485548e+000,2.5225491866e+000,9.2654963442e+000,6.6707749523e+000,6.2337947827e+000,6.2435190067e+000,3.5747815935e+000,3.3217646083e+000,
1.4625000000e+001,5.7106933978e+000,6.0778794379e+000,6.0080569149e+000,5.4120863156e+000,3.3381919678e+000,4.2868262835e+000,2.5652044428e+000,2.4190385904e+000,9.2856272169e+000,6.2404633883e+000,5.7964918078e+000,5.7918624927e+000,3.1897646586e+000,2.8487112498e+000,
1.4718750000e+001,5.7356264021e+000,6.1070290529e+000,6.0278846329e+000,5.4298744984e+000,3.2822960161e+000,4.3143958910e+000,2.5880287615e+000,2.4508128649e+000,9.3023678582e+000,6.2487388530e+000,5.8002390352e+000,5.8072825712e+000,3.1990825373e+000,2.8589507111e+000,
1.4812500000e+001,6.1307683870e+000,6.4793676793e+000,6.4626637630e+000,5.7874689600e+000,3.5228436088e+000,4.6177873078e+000,2.8221083899e+000,2.9137921026e+000,9.3460126855e+000,6.6168705630e+000,6.2869695559e+000,6.2197788602e+000,3.4616512453e+000,3.0675710164e+000,
1.4906250000e+001,6.2719562740e+000,6.6223647613e+000,6.6077373348e+000,5.9165323056e+000,3.7197055374e+000,4.7686467322e+000,2.8588202086e+000,3.1182437614e+000,9.5480219858e+000,6.7579601879e+000,6.4141364582e+000,6.3441289353e+000,3.5310390847e+000,3.1136455340e+000,
1.5000000000e+001,6.3089471139e+000,6.6577292703e+000,6.6463666154e+000,5.9434066492e+000,3.8258969913e+000,4.8064531944e+000,2.9262850228e+000,3.2078103324e+000,9.5752413465e+000,6.7963273598e+000,6.4628355988e+000,6.3832759056e+000,3.5745736236e+000,3.1278123787e+000,
1.5093750000e+001,6.3187759257e+000,6.6622432322e+000,6.6520356504e+000,5.9491150902e+000,3.8226616919e+000,4.8055677730e+000,2.9249062087e+000,3.2165500066e+000,9.5744409645e+000,6.8024824381e+000,6.4671098495e+000,6.3767658098e+000,3.5548547325e+000,3.0983343410e+000,
1.5187500000e+001,6.2945277477e+000,6.6411651125e+000,6.6330546594e+000,5.9335901885e+000,3.7941590604e+000,4.7926717823e+000,2.9465059049e+000,3.1950869605e+000,9.5185682792e+000,6.7836933699e+000,6.4454443139e+000,6.3583637419e+000,3.5397234465e+000,3.0473754252e+000,
1.5281250000e+001,6.0496314965e+000,6.3569551985e+000,6.3892109452e+000,5.6380533011e+000,3.6230368188e+000,4.5126572745e+000,2.8570329828e+000,3.0442771508e+000,9.0026404959e+000,6.5032115841e+000,6.1751773996e+000,6.0820944454e+000,3.3150515142e+000,2.7716503408e+000,
1.5375000000e+001,5.7614529760e+000,6.0374336439e+000,6.1011537852e+000,5.3054517337e+000,3.4338605988e+000,4.1685514626e+000,2.7442538707e+000,2.8710557445e+000,8.9425553894e+000,6.1138473480e+000,5.8426560759e+000,5.7113149584e+000,3.0377716500e+000,2.5036236481e+000,
1.5468750000e+001,5.7221032241e+000,6.0060978089e+000,6.0552347200e+000,5.2667647338e+000,3.3447626504e+000,4.1368214377e+000,2.7102347376e+000,2.8197955740e+000,8.9138501851e+000,6.0585331671e+000,5.7913528030e+000,5.6562679364e+000,2.9368343862e+000,2.5069882422e+000,
1.5562500000e+001,5.7166377379e+000,6.0091485803e+000,6.0524542867e+000,5.2729210229e+000,3.3500224028e+000,4.1210398534e+000,2.7118912748e+000,2.8231387375e+000,8.8543843474e+000,6.0641700884e+000,5.7876251695e+000,5.6567147513e+000,2.9856338878e+000,2.5836624746e+000,
1.5656250000e+001,5.7308480689e+000,6.0095152135e+000,6.0582917928e+000,5.2814348520e+000,3.3931144267e+000,4.1143766103e+000,2.6287982852e+000,2.8024276565e+000,8.7854596587e+000,6.0564199092e+000,5.7873102964e+000,5.6482378728e+000,2.9776869307e+000,2.5769673872e+000,
1.5750000000e+001,5.6734952629e+000,5.9107394754e+000,5.9745077151e+000,5.1825081493e+000,3.4165991038e+000,4.0330742292e+000,2.6320482217e+000,2.7801443684e+000,8.6969837066e+000,5.9726574133e+000,5.7125952489e+000,5.5346934270e+000,2.9029449465e+000,2.4098983639e+000,
1.5843750000e+001,4.8869719359e+000,5.0434154620e+000,5.0906853836e+000,4.3586219359e+000,2.9720791784e+000,3.2447635288e+000,2.3795739018e+000,2.0809470203e+000,8.6524937385e+000,5.0708277172e+000,4.5097129481e+000,4.4408437872e+000,2.3945275084e+000,2.1324984679e+000,
1.5937500000e+001,4.2540359344e+000,4.2313624267e+000,4.2636518999e+000,3.6874912106e+000,2.4018284971e+000,2.5008507284e+000,2.2549967257e+000,1.4068518823e+000,8.7838408894e+000,4.0511399272e+000,3.2689471838e+000,3.3038808312e+000,2.2010794025e+000,1.9138979653e+000,
1.6031250000e+001,4.0463342901e+000,4.0069916942e+000,3.9458282064e+000,3.4534247634e+000,2.3502780492e+000,2.2527664058e+000,2.2410269499e+000,1.2191662089e+000,8.8502172116e+000,3.6471226193e+000,2.2386712937e+000,2.5584172230e+000,2.0692665619e+000,2.0029601453e+000,
1.6125000000e+001,3.9951723929e+000,4.0099415388e+000,3.9491969187e+000,3.4280728539e+000,2.3769131326e+000,2.0900721331e+000,2.0631710413e+000,1.1286571580e+000,8.8653913744e+000,3.5893533246e+000,2.1290170392e+000,2.6193468154e+000,2.1814450039e+000,2.0789911482e+000,
1.6218750000e+001,3.9798459192e+000,3.9651457675e+000,3.8928046675e+000,3.4021383650e+000,2.3551692395e+000,2.0620894234e+000,2.1489558552e+000,1.1685307005e+000,9.6680370224e+000,3.5768193816e+000,2.2330550147e+000,2.7420743312e+000,2.1652076514e+000,2.0609338932e+000,
1.6312500000e+001,3.9064737634e+000,3.9836703450e+000,3.7954781332e+000,3.3964459355e+000,2.3290622740e+000,2.1582234046e+000,2.1972222771e+000,1.1841461707e+000,9.7144669370e+000,3.6565723437e+000,2.2187818344e+000,2.9474273809e+000,2.1171767873e+000,2.0271175220e+000,
1.6406250000e+001,3.8170826310e+000,3.8645316099e+000,3.7149974922e+000,3.3226865096e+000,2.2800931794e+000,2.1467155839e+000,2.2700973441e+000,1.1553316570e+000,9.7736529654e+000,3.6704276991e+000,2.2598907600e+000,2.9926296189e+000,2.1747197196e+000,2.0002228800e+000,
1.6500000000e+001,3.9356444798e+000,3.7440838491e+000,3.8665641388e+000,3.2949354316e+000,2.1993334667e+000,1.9870244668e+000,2.2272871502e+000,1.1565001939e+000,9.8040407482e+000,3.6939674145e+000,2.3091458383e+000,2.9401634014e+000,2.1554212183e+000,1.9385485424e+000,
1.6593750000e+001,4.0106510102e+000,3.9068600401e+000,3.9449613718e+000,3.3470259236e+000,2.7641872815e+000,1.9652858067e+000,2.2939967202e+000,1.1049535527e+000,1.0276506369e+001,3.7123874578e+000,2.2603833784e+000,2.9961226294e+000,2.1701320687e+000,1.9095154352e+000,
1.6687500000e+001,3.8682149268e+000,3.8901808625e+000,3.8192006422e+000,3.2329641170e+000,2.8777062415e+000,1.8742795448e+000,2.2150470884e+000,1.1441491168e+000,1.0408668382e+001,3.7310960695e+000,2.3118665491e+000,3.0229036365e+000,2.1991876651e+000,1.9282620288e+000,
1.6781250000e+001,3.8066506750e+000,3.9255409056e+000,3.8096265113e+000,3.2233789509e+000,2.8344467290e+000,2.1018125676e+000,2.1705629575e+000,1.1358125517e+000,1.0410923019e+001,3.7664865225e+000,2.2917818065e+000,3.0793841667e+000,2.1422587674e+000,1.9883656965e+000,
1.6875000000e+001,3.8927277654e+000,3.8806381545e+000,3.8600064846e+000,3.1656298236e+000,2.8321366315e+000,1.9865190475e+000,2.2435177305e+000,1.0907556132e+000,1.0406553752e+001,3.6734358657e+000,2.2670846534e+000,3.1374706449e+000,2.0824426463e+000,1.9816318368e+000,
1.6968750000e+001,3.9350205315e+000,3.8813187378e+000,3.9289031045e+000,3.1919710026e+000,2.9612796297e+000,1.9825644028e+000,2.3508742696e+000,1.0873074134e+000,1.0277143373e+001,3.6396509351e+000,2.2748018281e+000,3.0891317839e+000,2.0556002799e+000,2.1127553533e+000,
1.7062500000e+001,3.8692958205e+000,3.7965400651e+000,3.8885438861e+000,3.1220112254e+000,2.9961503769e+000,2.0034973099e+000,2.3738875304e+000,1.0833218516e+000,1.0271820268e+001,3.4983551712e+000,2.2458084089e+000,3.0263843349e+000,1.8593523424e+000,2.0225145768e+000,
1.7156250000e+001,3.8123122267e+000,3.6301025286e+000,3.7849073862e+000,2.9904463616e+000,2.9708046315e+000,1.9994063870e+000,2.2776422080e+000,1.0546760020e+000,1.0218937104e+001,3.4335856006e+000,2.2148051124e+000,2.9739993967e+000,1.7955646262e+000,2.0439254030e+000,
1.7250000000e+001,3.8135396503e+000,3.7626766721e+000,3.8205146528e+000,3.1145789155e+000,3.0353341550e+000,2.0821782736e+000,2.2957449256e+000,1.0813892748e+000,9.9337194714e+000,3.4639058001e+000,2.2228388516e+000,2.9362429344e+000,1.9342190238e+000,2.1217818072e+000,
1.7343750000e+001,3.8351734623e+000,3.8161688994e+000,3.8523543415e+000,3.1389206321e+000,3.0423182904e+000,2.0199834592e+000,2.3170445651e+000,1.0064699529e+000,9.9260086842e+000,3.3689510257e+000,2.3181468987e+000,2.8127880661e+000,2.0387545801e+000,2.0975648237e+000,
1.7437500000e+001,3.8733250263e+000,3.8877386433e+000,3.8983706643e+000,3.2021346575e+000,3.0865509185e+000,2.0317177659e+000,2.4049914604e+000,9.7704949726e-001,9.8959895467e+000,3.3706370493e+000,2.2867731568e+000,2.7783938601e+000,1.9980606011e+000,2.0652340358e+000,
1.7531250000e+001,3.6766492766e+000,3.8289716420e+000,3.7832201614e+000,3.1830442584e+000,3.0922562599e+000,2.1970044641e+000,2.3549486091e+000,9.7945019303e-001,9.8242822616e+000,3.1923251058e+000,2.2569233975e+000,2.9102416363e+000,1.9377952109e+000,2.0050592270e+000,
1.7625000000e+001,3.7074533178e+000,3.7572653745e+000,3.8414683152e+000,3.2413270363e+000,2.6966693485e+000,2.4484145964e+000,2.3868429162e+000,9.7827367931e-001,8.7557233136e+000,3.3631958165e+000,2.3245850705e+000,2.9912200248e+000,2.0297480018e+000,2.1436894739e+000,
1.7718750000e+001,3.8586333447e+000,3.8792249985e+000,4.0149809970e+000,3.4195932933e+000,3.2260051317e+000,2.7006684294e+000,2.4593337575e+000,9.2622778810e-001,9.2775107714e+000,3.5363051293e+000,2.4447862387e+000,3.0653428511e+000,2.0520692932e+000,2.2456593378e+000,
1.7812500000e+001,4.2074357479e+000,4.2416158668e+000,4.2966810039e+000,3.7473808141e+000,3.4405305500e+000,2.8554754392e+000,2.5778403387e+000,9.2996629415e-001,9.3501513046e+000,3.9171123228e+000,2.6822587338e+000,3.6262410608e+000,2.0853274432e+000,2.2417399329e+000,
1.7906250000e+001,4.4360071019e+000,4.4634962656e+000,4.4810095747e+000,3.9764951523e+000,3.4655916225e+000,3.0739820439e+000,2.4834712990e+000,9.7666187354e-001,9.3222961923e+000,4.2413848629e+000,2.8748761515e+000,3.7405866757e+000,2.1916840226e+000,2.2007074023e+000,
1.8000000000e+001,4.4497081247e+000,4.4954412910e+000,4.4802692598e+000,4.0031962518e+000,3.5074077304e+000,3.1075129270e+000,2.3675664472e+000,1.0739299434e+000,1.0062065367e+001,4.2511758896e+000,2.9429534818e+000,3.9657229607e+000,2.2373641986e+000,2.1625897369e+000,
1.8093750000e+001,4.4594408611e+000,4.5060931222e+000,4.4753422394e+000,4.0394278385e+000,4.1862487068e+000,3.1014662191e+000,2.3453045156e+000,1.1074139594e+000,1.0770586990e+001,4.2510236419e+000,3.0160002159e+000,4.0164468107e+000,2.2722686806e+000,2.1362444039e+000,
1.8187500000e+001,4.4685537767e+000,4.5167475372e+000,4.4814165113e+000,4.0530723445e+000,4.5542406867e+000,3.1268825769e+000,2.3170414698e+000,1.0916283155e+000,1.1758490301e+001,4.2466133843e+000,3.0169286250e+000,4.0829037950e+000,2.2247485525e+000,2.0771862076e+000,
1.8281250000e+001,4.4460628082e+000,4.4313132045e+000,4.4465010966e+000,3.9830347164e+000,4.6705946092e+000,3.0959771125e+000,2.2257235392e+000,1.0725986887e+000,1.2205798806e+001,4.2308168066e+000,3.0761139606e+000,4.1149611185e+000,2.0930272849e+000,2.0520288988e+000,
1.8375000000e+001,4.4303886274e+000,4.4190801373e+000,4.4242199240e+000,3.9905538804e+000,4.7446591858e+000,3.1149745212e+000,2.0359910331e+000,1.0722339663e+000,1.2236441311e+001,4.2119933518e+000,3.0825704974e+000,4.1192820032e+000,2.0450255075e+000,2.0557364430e+000,
1.8468750000e+001,4.4150295893e+000,4.4109495991e+000,4.4110489060e+000,3.9834716972e+000,5.1697345196e+000,3.1361289654e+000,2.0044711504e+000,1.0534552313e+000,1.2346365207e+001,4.1943308845e+000,3.1111468215e+000,4.1509577407e+000,2.0671920898e+000,2.0617847618e+000,
1.8562500000e+001,4.4025474873e+000,4.3847606951e+000,4.3915919073e+000,3.9342300680e+000,5.2265486579e+000,3.0829977141e+000,2.0408611679e+000,1.1137265040e+000,1.2366365383e+001,4.2000564476e+000,3.1236002370e+000,4.0975221247e+000,2.0551276838e+000,2.0301432806e+000,
1.8656250000e+001,4.3657922693e+000,4.4028042180e+000,4.3455666061e+000,3.9596394881e+000,5.2025404269e+000,3.0064495305e+000,1.8366789499e+000,1.0942509737e+000,1.2357355403e+001,4.1879344337e+000,3.1342258668e+000,4.1836246038e+000,2.0304287704e+000,1.9096439553e+000,
1.8750000000e+001,4.2348275770e+000,4.3062758012e+000,4.1877113346e+000,3.8671278187e+000,5.1861465339e+000,2.8215926854e+000,1.7163101760e+000,1.1049618916e+000,1.2350128091e+001,4.0609930455e+000,3.0038615821e+000,4.1319157434e+000,1.9668802044e+000,1.8382740804e+000,
1.8843750000e+001,3.8215846465e+000,3.9734682292e+000,3.7727018428e+000,3.5984372032e+000,5.1704153294e+000,2.6061353480e+000,1.1356714487e+000,1.0737013922e+000,1.2350967701e+001,3.7398934102e+000,2.8861252733e+000,3.8741341248e+000,1.8939449748e+000,1.7905679918e+000,
1.8937500000e+001,3.2032995343e+000,3.4566788124e+000,3.2240818283e+000,3.1317678997e+000,5.1586821322e+000,2.2710621586e+000,1.0223890967e+000,9.7576651459e-001,1.2351570953e+001,3.1957605903e+000,2.6619103366e+000,3.7480381823e+000,1.8364837478e+000,1.7236862954e+000,
1.9031250000e+001,3.1600810312e+000,3.4594352068e+000,3.1739132837e+000,3.0746358489e+000,5.1110870600e+000,2.2708399554e+000,1.0137057224e+000,9.1186650162e-001,1.2279592273e+001,3.2408065355e+000,2.6933346382e+000,3.4777221593e+000,1.8149280459e+000,1.7189892629e+000,
1.9125000000e+001,3.1781484322e+000,3.4520050573e+000,3.1970139164e+000,3.0261544015e+000,4.8346810002e+000,2.2635374265e+000,1.1890433157e+000,8.6094071326e-001,1.1876233309e+001,3.2532690626e+000,2.5731687224e+000,3.3698000955e+000,1.7703032879e+000,1.9015660658e+000,
1.9218750000e+001,3.1308859045e+000,3.3999256172e+000,3.1721169940e+000,2.9921734227e+000,4.6390159028e+000,2.2016838152e+000,1.3595689345e+000,8.3739715246e-001,1.1423527923e+001,3.2645963304e+000,2.4146796790e+000,3.2289761557e+000,1.7251244219e+000,1.8885189094e+000,
1.9312500000e+001,3.2014082919e+000,3.4839627874e+000,3.2534332029e+000,3.0663772738e+000,4.5642178198e+000,2.2049975873e+000,1.3808659645e+000,8.2314529627e-001,1.0576875684e+001,3.2809882057e+000,2.3707866641e+000,3.1768170516e+000,1.7560522544e+000,1.9009080053e+000,
1.9406250000e+001,3.0290104255e+000,3.3920119942e+000,3.1366400806e+000,2.9839709285e+000,4.0413327399e+000,2.0249220629e+000,1.3464804897e+000,8.1903238376e-001,1.0094815507e+001,3.2076966961e+000,2.2876567152e+000,3.1459726376e+000,1.7301829593e+000,1.8458367959e+000,
1.9500000000e+001,2.9826634056e+000,3.2874053923e+000,3.1535189315e+000,2.9519504770e+000,3.1595025498e+000,2.0101451193e+000,1.4219824711e+000,9.0259319030e-001,9.2922486231e+000,3.2055280670e+000,2.3352520014e+000,3.1368425336e+000,1.8042403153e+000,1.9001852953e+000,
1.9593750000e+001,3.0967270377e+000,3.3139376866e+000,3.2492262009e+000,2.9317599492e+000,2.6281633355e+000,2.0417631530e+000,1.4331468434e+000,8.1243909664e-001,8.8334571360e+000,3.1029449334e+000,2.4175116397e+000,3.1410791974e+000,1.7948491748e+000,1.9024467453e+000,
1.9687500000e+001,3.1584509750e+000,3.2888303059e+000,3.2529204471e+000,2.7774310779e+000,2.5419778127e+000,2.0161147981e+000,1.4493181446e+000,8.8340692330e-001,9.0346771174e+000,3.0258629897e+000,2.4031920526e+000,2.9100102274e+000,1.7469208823e+000,1.7490296785e+000,
1.9781250000e+001,3.2556869596e+000,3.2590594588e+000,3.3839311017e+000,2.8311758500e+000,1.9744147274e+000,2.0015685559e+000,1.4313274413e+000,8.6974340447e-001,8.9656639017e+000,3.1135224433e+000,2.4407820010e+000,2.8999697588e+000,1.7847988036e+000,1.7792733076e+000,
1.9875000000e+001,3.3104945568e+000,3.3187149782e+000,3.4552627728e+000,2.8649080577e+000,1.9877928838e+000,1.9373450627e+000,1.4443928677e+000,8.6802454991e-001,9.0015332671e+000,3.1850910930e+000,2.4943381601e+000,2.9464325710e+000,1.8189273498e+000,1.8492003653e+000,
1.9968750000e+001,3.4779656233e+000,3.5510405158e+000,3.5339770629e+000,2.9441024576e+000,2.1175140027e+000,1.9913570825e+000,1.4729291272e+000,8.8255289527e-001,9.0438503973e+000,3.4041231332e+000,2.7323049637e+000,3.0712047837e+000,1.7616792079e+000,1.8334311263e+000,
2.0062500000e+001,3.4965642947e+000,3.5971608313e+000,3.5412481648e+000,2.9705854466e+000,2.1038692338e+000,2.0873769482e+000,1.5593673719e+000,9.0065320648e-001,9.0864023325e+000,3.4076341922e+000,2.6990435817e+000,3.1199019177e+000,1.7742233946e+000,1.8383042661e+000,
2.0156250000e+001,3.4858935475e+000,3.5982926182e+000,3.5251779920e+000,2.9828318834e+000,2.0692768547e+000,2.0578820119e+000,1.4096999959e+000,9.0783289841e-001,9.1064240888e+000,3.3176843712e+000,2.6727866025e+000,3.1746116502e+000,1.7768531213e+000,1.6465472521e+000,
2.0250000000e+001,3.4490028444e+000,3.5587460165e+000,3.4888404833e+000,2.9614625423e+000,1.8687544693e+000,2.0363149871e+000,1.4189914588e+000,9.7183696199e-001,9.2547468614e+000,3.3233866470e+000,2.7421138989e+000,3.2120383631e+000,1.8067253289e+000,1.6327527274e+000,
2.0343750000e+001,3.3785216548e+000,3.4485751736e+000,3.3996234102e+000,2.8310366116e+000,1.7966176061e+000,1.9962855240e+000,1.4855355979e+000,9.6767904765e-001,9.4383950156e+000,3.2590563951e+000,2.6768288056e+000,3.1827006517e+000,1.8355767707e+000,1.6096479618e+000,
2.0437500000e+001,3.3051727920e+000,3.3880359345e+000,3.2895296396e+000,2.7527534535e+000,1.7675940638e+000,2.0098209280e+000,1.5101970050e+000,1.0076039365e+000,9.7305699120e+000,3.3036709075e+000,2.6760501035e+000,3.2231561695e+000,1.7936457809e+000,1.6203824096e+000,
2.0531250000e+001,3.2978465740e+000,3.5249926541e+000,3.3024566943e+000,2.8845728760e+000,1.7425585680e+000,2.0048185081e+000,1.4364323674e+000,1.0020552844e+000,9.7567321688e+000,3.3968520322e+000,2.6150915329e+000,3.2040276081e+000,1.7588327659e+000,1.6092642525e+000,
2.0625000000e+001,3.1416452846e+000,3.3981896410e+000,3.1688102389e+000,2.8445152343e+000,1.6543629357e+000,1.9527790895e+000,1.4439863021e+000,1.0179250900e+000,9.7340053495e+000,3.3638002445e+000,2.5991288978e+000,3.1760717713e+000,1.7631256558e+000,1.6074982840e+000,
2.0718750000e+001,3.1642550476e+000,3.4039455907e+000,3.2543689234e+000,2.8025838061e+000,1.5795334399e+000,1.9366756560e+000,1.5344833471e+000,1.0084034767e+000,9.5958878939e+000,3.3942103700e+000,2.6043081774e+000,3.1339845010e+000,1.7583593508e+000,1.5540340059e+000,
2.0812500000e+001,3.0042603708e+000,3.3491978055e+000,3.1031258192e+000,2.7077384391e+000,1.5401728115e+000,1.8570758730e+000,1.5883270588e+000,1.0626543944e+000,9.4841046429e+000,3.2717853164e+000,2.5062213993e+000,3.1150132649e+000,1.7160080999e+000,1.3842499430e+000,
2.0906250000e+001,3.0208331005e+000,3.3594764859e+000,3.1875234469e+000,2.6751520533e+000,1.3351599244e+000,1.9195775016e+000,1.6774939017e+000,1.0870510172e+000,9.5041433900e+000,3.2235709858e+000,2.4552371607e+000,3.1540955357e+000,1.7846594151e+000,1.4254655762e+000,
2.1000000000e+001,2.8012907225e+000,3.1263201389e+000,3.1386603784e+000,2.6109316086e+000,1.1822026951e+000,1.8893361847e+000,1.6783943367e+000,1.0364976755e+000,9.4382892818e+000,3.0276303122e+000,2.2231544518e+000,3.0475362951e+000,1.8248369665e+000,1.5581896106e+000,
2.1093750000e+001,2.7730175877e+000,3.0604015685e+000,3.1100907679e+000,2.6003195780e+000,1.2658548088e+000,1.7458076869e+000,1.6750544927e+000,1.0499123524e+000,9.5073963764e+000,2.9588368075e+000,2.2135777977e+000,2.9494801142e+000,1.8307235331e+000,1.7328918591e+000,
2.1187500000e+001,2.8034223401e+000,3.0633766529e+000,3.1287186193e+000,2.5670428668e+000,1.3295098186e+000,1.8081027038e+000,1.7845800729e+000,1.0606156512e+000,9.3743004348e+000,2.9505227422e+000,2.1825625366e+000,2.8715500780e+000,1.7885868196e+000,1.7096938996e+000,
2.1281250000e+001,2.8499255455e+000,3.2219220939e+000,3.1667195776e+000,2.6993083233e+000,1.3624760053e+000,1.8610206383e+000,1.9330707690e+000,1.0411694974e+000,9.2522745094e+000,2.9609093671e+000,2.1427299698e+000,2.7669986894e+000,1.7933690715e+000,1.7520372278e+000,
2.1375000000e+001,3.0099023657e+000,3.3749091132e+000,3.2095464129e+000,2.8685375025e+000,1.3066496519e+000,1.9212679954e+000,1.9382673245e+000,1.2041486275e+000,8.8407262988e+000,3.0956303104e+000,2.3773666056e+000,2.7957437702e+000,1.7845262609e+000,1.7693208559e+000,
2.1468750000e+001,3.0495995217e+000,3.3288394049e+000,3.1527852044e+000,2.7373929227e+000,1.3163998939e+000,1.9356289261e+000,2.0647205920e+000,1.1750822549e+000,8.6026876350e+000,2.9046076206e+000,2.4055058625e+000,2.6243013906e+000,1.8082918970e+000,1.7328594221e+000,
2.1562500000e+001,3.1749417578e+000,3.3192880701e+000,3.2490750054e+000,2.7650638193e+000,1.3059290678e+000,1.9954604242e+000,2.1165930625e+000,1.1781652569e+000,8.7020903015e+000,3.0417963797e+000,2.4552434501e+000,2.7496582815e+000,1.8033614976e+000,1.7388436822e+000,
2.1656250000e+001,3.2212572935e+000,3.3345218399e+000,3.2649633420e+000,2.8089367535e+000,1.2941035587e+000,2.0114008881e+000,2.2326729056e+000,1.2156374914e+000,8.6921167588e+000,2.9766012714e+000,2.4372167413e+000,2.7058947498e+000,1.8083344174e+000,1.7457598488e+000,
2.1750000000e+001,3.1610933719e+000,3.3679329515e+000,3.2222903147e+000,2.7912511820e+000,1.2372334290e+000,2.0065379563e+000,2.2341279462e+000,1.2292392066e+000,8.6839376051e+000,2.8880803177e+000,2.4119151258e+000,2.5931092349e+000,1.8083405361e+000,1.7941301818e+000,
2.1843750000e+001,3.2388872180e+000,3.5108018534e+000,3.2292053394e+000,2.8175164082e+000,1.2330754906e+000,2.0619133351e+000,2.2850786493e+000,1.1977310303e+000,8.6328283908e+000,3.0949233207e+000,2.4496840585e+000,2.6312555630e+000,1.7833350852e+000,1.8242780477e+000,
2.1937500000e+001,3.3629883953e+000,3.5440520466e+000,3.2830893425e+000,2.8912050903e+000,1.3884619807e+000,2.0886012345e+000,2.2404797408e+000,1.2517763396e+000,8.5850439000e+000,3.0906452337e+000,2.4502767846e+000,2.6166698496e+000,1.7580099486e+000,1.7376050450e+000,
2.2031250000e+001,3.3066104807e+000,3.6204882258e+000,3.2456412509e+000,2.9540389034e+000,1.3459338806e+000,2.1037999702e+000,2.2354758013e+000,1.2889811099e+000,8.5630133953e+000,3.1337359284e+000,2.5165205735e+000,2.6596766752e+000,1.7299628590e+000,1.6014726687e+000,
2.2125000000e+001,3.3270348859e+000,3.6799588220e+000,3.3040691308e+000,3.0525273838e+000,1.3993368880e+000,2.1321746626e+000,2.1938926793e+000,1.2954297151e+000,8.3513289139e+000,3.1944312892e+000,2.5716865824e+000,2.7380608862e+000,1.7576788479e+000,1.5032115144e+000,
2.2218750000e+001,3.3483042076e+000,3.7794554942e+000,3.3372484949e+000,3.0637313843e+000,1.3837189404e+000,2.1745704284e+000,2.1382695789e+000,1.2531141761e+000,8.2226099539e+000,3.2744271904e+000,2.5765589199e+000,2.8758031009e+000,1.7537031969e+000,1.4324792669e+000,
2.2312500000e+001,3.3670749842e+000,3.6554203348e+000,3.3780239798e+000,2.9511451416e+000,1.3745700261e+000,2.1169677153e+000,2.0556741726e+000,1.1183356766e+000,8.2023062601e+000,3.2317396835e+000,2.5432422142e+000,2.9162161552e+000,1.7537421768e+000,1.3493356286e+000,
2.2406250000e+001,3.2828819507e+000,3.6616357980e+000,3.3573899626e+000,2.8754093597e+000,1.3440453668e+000,2.1517024738e+000,2.0047226126e+000,1.0828350876e+000,7.9994101193e+000,3.2898807245e+000,2.3605689267e+000,2.9104669045e+000,1.5743773605e+000,1.3517789060e+000,
2.2500000000e+001,3.2119329102e+000,3.6438239028e+000,3.3123720827e+000,2.8209407016e+000,1.2964840017e+000,2.1008525417e+000,1.9027602726e+000,1.0905446929e+000,7.4616115217e+000,3.2677777169e+000,2.1975494052e+000,2.8168278913e+000,1.4847884075e+000,1.3246423183e+000,
2.2593750000e+001,3.0552776637e+000,3.5631443103e+000,3.1682411989e+000,2.7537812431e+000,1.4701684758e+000,1.9227800801e+000,1.9711064561e+000,1.0755783322e+000,7.1455232450e+000,3.1605897199e+000,2.1244843088e+000,2.7523692838e+000,1.4725525277e+000,1.1513222616e+000,
2.2687500000e+001,3.0780977239e+000,3.5779188991e+000,3.1709394579e+000,2.7284440533e+000,1.4712628198e+000,1.9118552195e+000,1.8691978131e+000,1.0293003805e+000,7.0700404054e+000,3.2298727618e+000,2.1171573719e+000,2.7752963947e+000,1.5689482822e+000,1.0912516660e+000,
2.2781250000e+001,3.0220675740e+000,3.4794830454e+000,3.0330509711e+000,2.6915037209e+000,1.4011712165e+000,1.8513842895e+000,1.8701178671e+000,1.0297945222e+000,7.1208503871e+000,3.1704008534e+000,2.1549762639e+000,2.8165928153e+000,1.5895091547e+000,1.0251133236e+000,
2.2875000000e+001,3.1208574812e+000,3.5950758283e+000,3.2815273602e+000,2.9686605623e+000,1.3944062618e+000,1.9168157565e+000,1.8589759921e+000,1.0381981956e+000,7.2586414496e+000,3.2638324187e+000,2.6089208389e+000,3.0172902485e+000,1.7338624173e+000,8.7068406145e-001,
2.2968750000e+001,3.3172628550e+000,3.6751167863e+000,3.4487490623e+000,3.0075317772e+000,1.6380250275e+000,1.9176605026e+000,1.8558587214e+000,9.7862601738e-001,7.2523432405e+000,3.3283301147e+000,2.6804040583e+000,3.0889465135e+000,1.7795396467e+000,9.0667788491e-001,
2.3062500000e+001,3.3050917301e+000,3.6262703136e+000,3.4275717924e+000,2.9481772895e+000,1.6707954551e+000,1.9161649322e+000,1.8196147044e+000,9.5335124393e-001,7.4485328668e+000,3.3206901444e+000,2.6434694583e+000,3.0807918112e+000,1.7613037488e+000,1.0703645887e+000,
2.3156250000e+001,3.2952029080e+000,3.5645066589e+000,3.3961002470e+000,2.9448870786e+000,1.7902647473e+000,1.9633027600e+000,1.8071724460e+000,9.9077507288e-001,7.5494129102e+000,3.3366773767e+000,2.6072558562e+000,3.1071359897e+000,1.7400194531e+000,1.1528769705e+000,
2.3250000000e+001,3.3082119669e+000,3.5847958212e+000,3.4152642107e+000,3.0400222068e+000,1.9170034366e+000,2.0137456043e+000,1.7730834113e+000,1.0630987247e+000,7.7888527060e+000,3.3667989232e+000,2.6745837958e+000,3.1047730156e+000,1.7570081480e+000,1.2708505059e+000,
2.3343750000e+001,3.2653942048e+000,3.5427663003e+000,3.3504690959e+000,3.0243699039e+000,1.9347947858e+000,1.9924981518e+000,1.7063166702e+000,1.0396126454e+000,7.9725490327e+000,3.3703653984e+000,2.6884376896e+000,3.1104294608e+000,1.7646121236e+000,1.3708719978e+000,
2.3437500000e+001,3.2547851653e+000,3.5036261172e+000,3.3754877262e+000,3.0394517307e+000,1.9354063579e+000,1.8702247190e+000,1.6705655760e+000,1.0722549568e+000,7.9288403808e+000,3.2898366821e+000,2.7055863429e+000,3.1095123492e+000,1.7808685434e+000,1.4323445593e+000,
2.3531250000e+001,3.3771305605e+000,3.6850035064e+000,3.5242643726e+000,3.1550761348e+000,1.9138552334e+000,2.0304587170e+000,1.4027580242e+000,1.1584263458e+000,8.0053350682e+000,3.4926183360e+000,2.9093562511e+000,3.3893277589e+000,1.8420776608e+000,1.5148499097e+000,
2.3625000000e+001,3.3776197962e+000,3.6607219751e+000,3.5054545855e+000,3.1295371056e+000,1.9045045483e+000,2.0879354361e+000,1.3078258248e+000,1.1545954740e+000,8.0894402431e+000,3.5244236984e+000,2.9662614720e+000,3.4921377039e+000,1.8174709157e+000,1.5171286882e+000,
2.3718750000e+001,3.3941559385e+000,3.6425045687e+000,3.5432006375e+000,3.1354648845e+000,1.9780446972e+000,2.1339377653e+000,1.4164971626e+000,1.2101303511e+000,8.1684016251e+000,3.5156274995e+000,2.9770462016e+000,3.5065484859e+000,1.7376403595e+000,1.5164273670e+000,
2.3812500000e+001,3.4520125893e+000,3.6524498650e+000,3.5785530858e+000,3.1566073698e+000,2.0396434489e+000,2.1351737044e+000,1.4037082108e+000,1.2445456165e+000,8.2135584868e+000,3.5377383445e+000,2.9784082439e+000,3.4904419889e+000,1.7171631474e+000,1.5050729759e+000,
2.3906250000e+001,3.1704706502e+000,3.4106198180e+000,3.2461977108e+000,2.9125371039e+000,2.1501391844e+000,2.0373513719e+000,1.4281338749e+000,1.2289572503e+000,8.6384930933e+000,3.3459304848e+000,2.6001847708e+000,3.3661547213e+000,1.4540026334e+000,1.5159995487e+000,
2.4000000000e+001,3.1509894525e+000,3.5267990110e+000,3.3023581659e+000,2.9470398245e+000,2.0163652610e+000,2.2536908449e+000,1.5320073316e+000,1.2835627992e+000,8.9699727545e+000,3.3271254834e+000,2.5121833931e+000,3.3464720601e+000,1.4646737984e+000,1.4104157269e+000,
2.4093750000e+001,3.4823420805e+000,3.7523665692e+000,3.6483384527e+000,3.1426110111e+000,1.9695596725e+000,2.3842534438e+000,1.6133782400e+000,1.3237977694e+000,8.9614666897e+000,3.3462513184e+000,2.6848623620e+000,3.3467862607e+000,1.5958231498e+000,1.4257112248e+000,
2.4187500000e+001,3.5246106031e+000,3.7949126980e+000,3.6914105277e+000,3.2038601373e+000,1.9535748381e+000,2.4803078962e+000,1.7360460990e+000,1.3156961772e+000,8.9387590027e+000,3.3964109912e+000,2.7634789968e+000,3.3096228892e+000,1.6195796095e+000,1.3249826917e+000,
2.4281250000e+001,3.9271023617e+000,4.2698724416e+000,4.1156969433e+000,3.5153875016e+000,2.0796044851e+000,2.6470022278e+000,1.8651569223e+000,1.7171962949e+000,8.8336772213e+000,4.0201493954e+000,3.5370719333e+000,3.7672088253e+000,1.8130293952e+000,1.3808988277e+000,
2.4375000000e+001,4.3309473062e+000,4.7026463747e+000,4.5504800705e+000,3.8887536190e+000,2.3266139641e+000,2.9402877068e+000,2.0145176601e+000,2.0958226811e+000,8.8444243973e+000,4.4162895772e+000,4.1120782216e+000,4.0789545347e+000,1.9776478014e+000,1.2340704764e+000,
2.4468750000e+001,4.3199035742e+000,4.6991545563e+000,4.5433564767e+000,3.8601205906e+000,2.3334321071e+000,2.9474861296e+000,2.0875210032e+000,2.1060697885e+000,8.8549429383e+000,4.4388567430e+000,4.0987589252e+000,4.0962681230e+000,1.9745503936e+000,1.1792527510e+000,
2.4562500000e+001,4.3340730715e+000,4.6988505002e+000,4.5426972206e+000,3.8805679805e+000,2.3711644546e+000,2.9653018349e+000,2.1339190724e+000,2.0870769561e+000,8.8249355949e+000,4.4222843149e+000,4.0403031528e+000,3.9681923331e+000,1.9640878353e+000,1.2035520040e+000,
2.4656250000e+001,4.3770433902e+000,4.7231654595e+000,4.5657284675e+000,3.9080620985e+000,2.3177250709e+000,2.9606175799e+000,2.1883496454e+000,2.0955572974e+000,8.7598416586e+000,4.4414585195e+000,4.0377465287e+000,3.9906671334e+000,2.0249929071e+000,1.3521825711e+000,
2.4750000000e+001,4.4424456694e+000,4.7575702693e+000,4.6297970491e+000,3.9832975743e+000,2.3322981830e+000,2.9977404285e+000,2.1671474697e+000,2.0303055373e+000,8.8000597067e+000,4.4662008172e+000,4.0459453345e+000,3.9890180217e+000,2.0991103544e+000,1.4806807621e+000,
2.4843750000e+001,4.5155147268e+000,4.8300145642e+000,4.6815099552e+000,4.0615447716e+000,2.3250783171e+000,3.0390240764e+000,2.1921054697e+000,2.0387743661e+000,8.6386475666e+000,4.4874175779e+000,4.0699620268e+000,3.9859131651e+000,2.2121765161e+000,1.6334996361e+000,
2.4937500000e+001,4.5440753742e+000,4.8344056664e+000,4.7078111314e+000,4.0829629567e+000,2.5409627869e+000,3.0268446720e+000,2.1501760237e+000,2.0811524729e+000,8.8856701978e+000,4.5053388411e+000,4.1020966513e+000,4.0008430988e+000,2.2559639710e+000,1.6628283352e+000,
2.5031250000e+001,4.4899517657e+000,4.7898817395e+000,4.6311672034e+000,4.0160982094e+000,2.6435885340e+000,2.9340220929e+000,2.1577665109e+000,2.1046864972e+000,8.8674626743e+000,4.5029822345e+000,4.1152038560e+000,3.9995874170e+000,2.2582180680e+000,1.6618164356e+000,
2.5125000000e+001,4.4257909477e+000,4.7305283969e+000,4.5739589366e+000,3.9395550153e+000,2.6742199619e+000,2.9015011869e+000,2.0727809440e+000,2.1082511101e+000,8.8969073204e+000,4.4651680754e+000,4.0911120431e+000,3.9718223972e+000,2.2198359465e+000,1.6069005008e+000,
2.5218750000e+001,4.4242611385e+000,4.7311162401e+000,4.5878314778e+000,3.9372286742e+000,2.7350322305e+000,2.8586411635e+000,2.1318201168e+000,2.1021993386e+000,8.9425225002e+000,4.4471967691e+000,4.0627620686e+000,3.9570105436e+000,2.2971954921e+000,1.7742978265e+000,
2.5312500000e+001,3.8420568499e+000,3.9922872537e+000,3.9030498438e+000,3.3724742910e+000,2.6001235914e+000,2.3435732486e+000,1.9858549553e+000,1.4715292834e+000,8.9615073370e+000,3.6184920056e+000,2.9196533211e+000,3.1509275159e+000,2.0984195309e+000,1.7306079806e+000,
2.5406250000e+001,3.7792561386e+000,3.9099279517e+000,3.7678225697e+000,3.3459230304e+000,2.5734066927e+000,2.2734598181e+000,1.9393307275e+000,1.3351332774e+000,8.9667564875e+000,3.4310715120e+000,2.5308197708e+000,2.9450899268e+000,2.0964456226e+000,1.8515438632e+000,
2.5500000000e+001,3.7789991956e+000,3.8932041363e+000,3.7635243416e+000,3.3190232455e+000,2.6400822063e+000,2.2127378114e+000,1.8865939935e+000,1.3384431271e+000,9.0036583505e+000,3.3695258252e+000,2.5534443287e+000,2.8361904396e+000,2.0728427544e+000,1.8395588676e+000,
2.5593750000e+001,3.7927604184e+000,3.9607872819e+000,3.8545442864e+000,3.3872464073e+000,2.6312461562e+000,2.2023717915e+000,1.8326588055e+000,1.4742669879e+000,9.0254113373e+000,3.4338724614e+000,2.7812517551e+000,2.9780237934e+000,2.0896091526e+000,1.8043960472e+000,
2.5687500000e+001,3.7822889759e+000,4.0007521698e+000,3.8784388297e+000,3.4008675612e+000,2.6787462165e+000,2.2300046937e+000,1.7935713857e+000,1.5432624069e+000,9.0211178933e+000,3.4701397888e+000,2.8861926501e+000,3.0121896000e+000,2.0053280696e+000,1.8463490340e+000,
2.5781250000e+001,3.6495139483e+000,3.9250030231e+000,3.7221814199e+000,3.2247763420e+000,2.7006245295e+000,2.1392463606e+000,1.6110538939e+000,1.5790976119e+000,8.9871340460e+000,3.3258869428e+000,2.8335796318e+000,3.0560721488e+000,2.0353423593e+000,1.7408026064e+000,
2.5875000000e+001,3.4719891229e+000,3.7818508173e+000,3.5644645809e+000,3.0264196565e+000,2.6692639507e+000,2.0589330587e+000,1.5426568878e+000,1.5670508456e+000,8.9702577650e+000,3.2573912867e+000,2.7092811869e+000,2.9749894981e+000,1.8992500791e+000,1.7109735348e+000,
2.5968750000e+001,3.4118647386e+000,3.7029332370e+000,3.4958740285e+000,2.9114495658e+000,2.3072829553e+000,1.9344371070e+000,1.6161001038e+000,1.4866154362e+000,8.0046403933e+000,3.1798779106e+000,2.6478960766e+000,2.8641374653e+000,1.9157086298e+000,1.7690226410e+000,
2.6062500000e+001,3.3724383734e+000,3.6593042362e+000,3.4811128887e+000,2.9337695159e+000,2.3019119952e+000,1.8621355171e+000,1.5232237961e+000,1.3919540501e+000,7.8519968879e+000,3.1565973052e+000,2.5679041552e+000,2.8733992398e+000,1.9041731510e+000,1.7824265948e+000,
2.6156250000e+001,3.3643850233e+000,3.6086348457e+000,3.4710462165e+000,2.9225698293e+000,2.1933623504e+000,1.8135915387e+000,1.5711154383e+000,1.3320222768e+000,7.7523385223e+000,3.1792828799e+000,2.6030873759e+000,2.8611450897e+000,1.8383795350e+000,1.6908871462e+000,
2.6250000000e+001,3.4476501218e+000,3.6360539261e+000,3.4855654110e+000,2.9576802938e+000,2.1992248477e+000,1.8807330728e+000,1.4356447032e+000,1.3163633521e+000,7.6010829709e+000,3.3385960926e+000,2.5960397341e+000,2.9497950273e+000,1.7490476277e+000,1.6205688004e+000,
2.6343750000e+001,3.6293021059e+000,3.7874299589e+000,3.6174684624e+000,3.1299612367e+000,2.1715893270e+000,2.0622279462e+000,1.3934931958e+000,1.3581428526e+000,7.5442088839e+000,3.4067317519e+000,2.5579587722e+000,2.9370862697e+000,1.7875635043e+000,1.6165334349e+000,
2.6437500000e+001,3.5345217023e+000,3.6466318667e+000,3.5453496443e+000,2.9828761078e+000,2.1706541842e+000,2.0233366566e+000,1.3622474419e+000,1.3747193339e+000,7.5322876473e+000,3.3845030727e+000,2.5362747009e+000,2.8623306417e+000,1.8100301361e+000,1.5417200291e+000,
2.6531250000e+001,3.5180942417e+000,3.6209960387e+000,3.5297136643e+000,2.9786575105e+000,2.1371919058e+000,2.0416980232e+000,1.2919916422e+000,1.3415642317e+000,7.2648523861e+000,3.3956614989e+000,2.4863444826e+000,2.8369956541e+000,1.7900936073e+000,1.4969970747e+000,
2.6625000000e+001,3.3608129732e+000,3.3837058445e+000,3.3101519070e+000,2.7716539036e+000,2.0974115219e+000,1.8860792389e+000,1.3124176086e+000,1.0880349211e+000,7.1599876727e+000,3.1926942183e+000,2.1864023875e+000,2.6028957674e+000,1.7261148016e+000,1.3893538310e+000,
2.6718750000e+001,3.3354359617e+000,3.3684190596e+000,3.2447390300e+000,2.7560659046e+000,1.9699413331e+000,1.8341114022e+000,1.1969258923e+000,1.0348337842e+000,6.9936376719e+000,3.1283706905e+000,2.0267555318e+000,2.5470199064e+000,1.6881707833e+000,1.3168935784e+000,
2.6812500000e+001,3.2764748606e+000,3.3314991951e+000,3.1980593099e+000,2.7083599734e+000,1.8778977587e+000,1.9104708010e+000,1.2848731558e+000,1.0189169229e+000,6.9204265263e+000,3.1092374870e+000,2.0517768689e+000,2.5178905000e+000,1.6080303241e+000,1.2674587857e+000,
2.6906250000e+001,3.2775893025e+000,3.3501649642e+000,3.2756602654e+000,2.7821051904e+000,1.8103124856e+000,1.9517652648e+000,1.1865016975e+000,1.0792069587e+000,6.9214476394e+000,3.1149259947e+000,1.9858452211e+000,2.5787579082e+000,1.5850254008e+000,1.2175320745e+000,
2.7000000000e+001,3.3490389517e+000,3.4345769489e+000,3.3065158168e+000,2.8522304026e+000,1.7651057405e+000,2.0551904341e+000,1.1228049543e+000,1.1763152091e+000,6.9528208033e+000,3.1473426435e+000,2.0076854990e+000,2.5721651552e+000,1.4896942021e+000,1.2981211065e+000,
2.7093750000e+001,3.4805933405e+000,3.5397154827e+000,3.4680567155e+000,2.9764405837e+000,1.8116108594e+000,2.0990729931e+000,1.2002174235e+000,1.2060107938e+000,7.3399375482e+000,3.1787127219e+000,1.9664792352e+000,2.6250423109e+000,1.5483812478e+000,1.3519609150e+000,
2.7187500000e+001,3.4694982624e+000,3.6902917583e+000,3.4578091080e+000,3.0274674156e+000,1.7213852436e+000,2.1753704186e+000,1.5615162083e+000,1.2456495226e+000,7.4041887603e+000,3.1222586754e+000,2.0089319559e+000,2.6688599128e+000,1.6249766487e+000,1.3669575933e+000,
2.7281250000e+001,3.4276425251e+000,3.6989477630e+000,3.4327912244e+000,3.0803031434e+000,1.6829493229e+000,2.1840740653e+000,1.7144210681e+000,1.2057297120e+000,8.3863531307e+000,3.1760559792e+000,2.0413438372e+000,2.6816618984e+000,1.7831995986e+000,1.3350127722e+000,
2.7375000000e+001,3.2521907869e+000,3.5638976804e+000,3.3625694484e+000,3.0141175909e+000,1.6577692132e+000,2.1198686857e+000,1.7557628699e+000,1.2460903598e+000,9.0163316825e+000,3.2180817686e+000,2.0800957286e+000,2.8359816684e+000,1.8579267460e+000,1.4241236767e+000,
2.7468750000e+001,3.4918938574e+000,3.6353189210e+000,3.5856157439e+000,3.1334914689e+000,1.8468108583e+000,2.2051145242e+000,1.7540613136e+000,1.2282401792e+000,9.0576143123e+000,3.1905267113e+000,2.1504367033e+000,2.9197342383e+000,1.9094889170e+000,1.3964426213e+000,
2.7562500000e+001,3.4904143989e+000,3.6222410235e+000,3.5835889643e+000,3.1277187046e+000,1.8081794973e+000,2.2631087528e+000,1.7635337117e+000,1.1919243191e+000,9.1464335105e+000,3.1721653668e+000,2.2031745923e+000,3.0077390120e+000,1.9212723692e+000,1.4513056993e+000,
2.7656250000e+001,3.5006940715e+000,3.6036650380e+000,3.5854580050e+000,3.1058845064e+000,1.7873938242e+000,2.3278656184e+000,1.7246188694e+000,1.2248003279e+000,9.2613052351e+000,3.1746479562e+000,2.2706847894e+000,2.9951082665e+000,1.9089687371e+000,1.4430703479e+000,
2.7750000000e+001,3.4533370891e+000,3.5662286342e+000,3.5798325909e+000,3.1173410285e+000,1.8453314070e+000,2.2934279673e+000,1.7240449958e+000,1.2394838539e+000,9.3268039174e+000,3.1830156196e+000,2.4010948285e+000,2.9870509003e+000,1.9812087560e+000,1.4777966781e+000,
2.7843750000e+001,3.4632171610e+000,3.6258643878e+000,3.6460225196e+000,3.1765245243e+000,1.8628029512e+000,2.2633863292e+000,1.6544021579e+000,1.2193803375e+000,9.3469386779e+000,3.1957927526e+000,2.5174741656e+000,3.0057344505e+000,1.9800260319e+000,1.4661562142e+000,
2.7937500000e+001,3.3482567743e+000,3.6051228816e+000,3.5543357718e+000,3.1311220791e+000,1.8551966312e+000,2.2957558871e+000,1.6475207017e+000,1.1176838469e+000,9.3799859830e+000,3.1740976729e+000,2.5212228548e+000,2.9680602172e+000,2.0243787577e+000,1.3291591728e+000,
2.8031250000e+001,3.2016534707e+000,3.4916179820e+000,3.4647343146e+000,3.0641241457e+000,1.9136068995e+000,2.1937137443e+000,1.6225167374e+000,1.0934160720e+000,9.4052853393e+000,3.1712848817e+000,2.5113546471e+000,3.0022468031e+000,2.0336245594e+000,1.4362854607e+000,
2.8125000000e+001,3.1812446025e+000,3.4527625700e+000,3.3979157053e+000,2.9917249786e+000,1.9153314565e+000,2.1742707662e+000,1.5494757456e+000,1.0949286089e+000,9.4908395432e+000,3.1634835586e+000,2.5478749818e+000,2.9840702985e+000,2.0386311091e+000,1.5194280483e+000,
2.8218750000e+001,3.0650114452e+000,3.2389139085e+000,3.3151344557e+000,2.8736331460e+000,1.8623691968e+000,2.1263658011e+000,9.9757498596e-001,1.0353615227e+000,9.4464294554e+000,3.1195619330e+000,2.4626860572e+000,2.9270208999e+000,1.9589236467e+000,1.6564093799e+000,
2.8312500000e+001,3.1672239134e+000,3.3555354516e+000,3.3936010407e+000,2.9094965825e+000,1.8349740004e+000,2.2464698405e+000,9.8483418274e-001,9.7529576589e-001,9.1492202970e+000,2.9603845677e+000,2.4872264080e+000,2.8926712659e+000,1.8281510044e+000,1.6223878861e+000,
2.8406250000e+001,3.2402647134e+000,3.4255073851e+000,3.4440225839e+000,2.8910612465e+000,1.8614722781e+000,2.2712041324e+000,1.0377352966e+000,8.9412463177e-001,9.1864754689e+000,3.1508235608e+000,2.5509719232e+000,2.8273040841e+000,1.7211771218e+000,1.5825483259e+000,
2.8500000000e+001,2.9548799699e+000,3.3246006396e+000,3.2016336494e+000,2.8006934715e+000,2.5151877185e+000,2.1225455585e+000,1.0322944322e+000,9.0626946932e-001,9.8324567907e+000,3.0888012310e+000,2.5794549746e+000,2.7743183752e+000,1.7007764318e+000,1.6675519831e+000,
2.8593750000e+001,3.0480017581e+000,3.3729781316e+000,3.2118561834e+000,2.7427387053e+000,2.5947291250e+000,2.0273806748e+000,1.1333279975e+000,1.0249613955e+000,9.9005883532e+000,3.0883761902e+000,2.5358214568e+000,2.7896043762e+000,1.7162909953e+000,1.7090451369e+000,
2.8687500000e+001,3.0810788667e+000,3.4021566390e+000,3.2568056849e+000,2.8404863452e+000,2.5832116682e+000,2.0793735867e+000,1.1621096019e+000,9.9046823079e-001,9.8463227821e+000,3.1268484965e+000,2.5278072426e+000,2.7675039728e+000,1.8059639390e+000,1.8849878781e+000,
2.8781250000e+001,3.1114051715e+000,3.3830042081e+000,3.2037850776e+000,2.8190249420e+000,2.5733157770e+000,2.2309679328e+000,1.3066768145e+000,9.7530733105e-001,9.8271084437e+000,3.1403866931e+000,2.3808922139e+000,2.7705927706e+000,1.7702223494e+000,1.9709109878e+000,
2.8875000000e+001,3.1305675497e+000,3.2578473856e+000,3.1074326532e+000,2.7572726031e+000,2.5871396469e+000,2.1533696476e+000,1.3046882561e+000,9.4769017178e-001,9.8299349885e+000,3.1360283371e+000,2.3431339307e+000,2.7747173729e+000,1.6745012357e+000,1.9938503689e+000,
2.8968750000e+001,3.1061211755e+000,3.2178311759e+000,3.0832069949e+000,2.7434730057e+000,2.5713086619e+000,2.1064304062e+000,1.3927059789e+000,9.4551655648e-001,9.8302389101e+000,3.1203055890e+000,2.3079215446e+000,2.7801121980e+000,1.6693731499e+000,1.9974132736e+000,
2.9062500000e+001,3.0663905695e+000,3.1736375919e+000,3.0538763266e+000,2.7053902198e+000,2.5633530943e+000,2.2204398852e+000,1.4327562133e+000,9.1920876205e-001,9.8066194334e+000,3.0791838098e+000,2.2962125208e+000,2.7492105111e+000,1.5819222886e+000,1.9700166272e+000,
2.9156250000e+001,3.0649938377e+000,3.1805883564e+000,3.0363642738e+000,2.7260550874e+000,2.5814261540e+000,2.2444771449e+000,1.5050752439e+000,9.0586059551e-001,9.7137978488e+000,3.0899153924e+000,2.2332488712e+000,2.8043091868e+000,1.5830664378e+000,2.0213360723e+000,
2.9250000000e+001,3.1057464689e+000,3.3093007258e+000,3.1413665936e+000,2.9887531986e+000,2.5838585887e+000,2.4103163752e+000,1.6383358416e+000,9.4899569694e-001,9.7107168442e+000,3.1319418520e+000,2.2352757351e+000,2.8770972924e+000,1.6211311683e+000,2.0756548082e+000,
2.9343750000e+001,3.0551918647e+000,3.1903654258e+000,3.0074829139e+000,2.9520408812e+000,2.5797063890e+000,2.4165223528e+000,1.5243739355e+000,1.0453155720e+000,9.6729909463e+000,3.0657244789e+000,2.1994682466e+000,2.8238545991e+000,1.8240635422e+000,2.1110660095e+000,
2.9437500000e+001,2.9302886086e+000,3.1248563099e+000,2.8301204780e+000,2.9484367169e+000,2.4754036788e+000,2.4250218676e+000,1.4663344746e+000,1.1045581789e+000,9.4697310747e+000,2.8165791153e+000,1.9791981263e+000,2.8406624286e+000,1.8221225150e+000,2.1512594961e+000,
2.9531250000e+001,2.9658146385e+000,3.1313845462e+000,2.9466079331e+000,3.0989314808e+000,1.9311507440e+000,2.4184643036e+000,1.4474556371e+000,1.0607817467e+000,8.4123699696e+000,2.9634310390e+000,1.8925599408e+000,2.9033500971e+000,1.8352371362e+000,2.0815586029e+000,
2.9625000000e+001,2.8862194161e+000,3.2751362262e+000,2.8495324377e+000,3.2098774085e+000,2.0257315064e+000,2.4776225771e+000,1.4603366082e+000,9.8912713606e-001,8.4552745214e+000,3.0480263035e+000,1.8811063320e+000,2.8855420171e+000,1.8872281447e+000,2.1595405534e+000,
2.9718750000e+001,2.9002018741e+000,3.3559588546e+000,2.9095451671e+000,3.2477044641e+000,2.0184786622e+000,2.3596263273e+000,1.5261720684e+000,9.8585156980e-001,8.4869560652e+000,3.0774099222e+000,1.7742965357e+000,2.8664705713e+000,1.8428567934e+000,2.1614315673e+000,
2.9812500000e+001,3.0523901118e+000,3.5876106633e+000,3.1279418373e+000,3.4246748448e+000,2.0801305594e+000,2.5236588676e+000,1.6539873830e+000,1.0051961061e+000,8.6276043387e+000,3.3643168849e+000,1.7818428634e+000,2.9713499735e+000,1.8199736653e+000,2.2359804331e+000,
2.9906250000e+001,3.2971097169e+000,3.7290463037e+000,3.3875394182e+000,3.4691783625e+000,2.0689434166e+000,2.5556832362e+000,1.6763720432e+000,1.0559267134e+000,8.6265450749e+000,3.3789252540e+000,1.9816960925e+000,3.0404925947e+000,1.8578991237e+000,2.3131176934e+000,
3.0000000000e+001,3.4757294328e+000,3.9771118589e+000,3.5193764715e+000,3.6433492464e+000,2.1134315712e+000,2.6446357608e+000,1.7404664725e+000,1.0311919738e+000,8.6021621333e+000,3.5539197550e+000,2.0296024584e+000,3.2576255596e+000,2.0724514961e+000,2.3759298394e+000,
3.0093750000e+001,3.7699660216e+000,4.1899981193e+000,3.6456981029e+000,3.8235589808e+000,2.1778869075e+000,2.7256521023e+000,1.7529794702e+000,1.0792086267e+000,8.5976715093e+000,3.7163580793e+000,2.1038844910e+000,3.4053420391e+000,2.1371784208e+000,2.4395191555e+000,
3.0187500000e+001,3.8985622037e+000,4.2598313176e+000,3.7959665723e+000,3.8978627008e+000,2.2486726173e+000,2.6886999331e+000,1.6876267842e+000,1.0778636522e+000,8.5933281645e+000,3.8215225043e+000,2.2327582017e+000,3.4458189081e+000,2.1417700310e+000,2.4212695674e+000,
3.0281250000e+001,3.9187350815e+000,4.2246246326e+000,3.8114460269e+000,3.7946326666e+000,2.2328643960e+000,2.4800568398e+000,1.7061706578e+000,1.0337040708e+000,8.5977207908e+000,3.8151822525e+000,2.2313977918e+000,3.4642411862e+000,2.0343412312e+000,2.3915080030e+000,
3.0375000000e+001,4.0603906704e+000,4.2387555962e+000,3.9319928928e+000,3.7690263390e+000,2.1706407136e+000,2.5202873535e+000,1.7150463078e+000,1.0048256151e+000,8.4375752155e+000,3.8421643810e+000,2.3082072004e+000,3.5319559763e+000,1.9593575716e+000,2.3690841152e+000,
3.0468750000e+001,4.0552171172e+000,4.2241784760e+000,3.9490880227e+000,3.6937149754e+000,2.1331287378e+000,2.5347463202e+000,1.7789051844e+000,9.7761237039e-001,8.5577751939e+000,3.8394936934e+000,2.3495745052e+000,3.4837166627e+000,1.9511225387e+000,2.3967152482e+000,
3.0562500000e+001,4.0380569369e+000,4.1985991219e+000,3.9113319223e+000,3.6401309401e+000,2.7449741978e+000,2.6126233269e+000,1.8097414970e+000,9.8742070230e-001,9.2516012194e+000,3.8019670851e+000,2.3569485064e+000,3.5092676808e+000,1.9247867302e+000,2.3995315673e+000,
3.0656250000e+001,4.0639468244e+000,4.1955525812e+000,3.9140317841e+000,3.5951000985e+000,2.8888925075e+000,2.6005262453e+000,1.7750925094e+000,1.0087182902e+000,9.3016744640e+000,3.8059041005e+000,2.3546968459e+000,3.5300806247e+000,1.8878521551e+000,2.3602849890e+000,
3.0750000000e+001,4.0436482749e+000,4.1920024125e+000,3.8715596696e+000,3.5674379742e+000,2.8656334428e+000,2.5965840124e+000,1.7641244094e+000,1.1011057555e+000,9.2547712742e+000,3.7210656994e+000,2.4162924550e+000,3.5233820581e+000,1.8920399088e+000,2.2853171992e+000,
3.0843750000e+001,3.9295328884e+000,4.0417594700e+000,3.7508575111e+000,3.4257047378e+000,2.8727655793e+000,2.4476679279e+000,1.5891182912e+000,1.0853506102e+000,9.1721359516e+000,3.5756307295e+000,2.3515809078e+000,3.4813301968e+000,1.8897113167e+000,2.3389919830e+000,
3.0937500000e+001,3.9110664994e+000,4.0910991635e+000,3.7308125450e+000,3.4498300557e+000,2.8781812199e+000,2.4460691570e+000,1.6621410010e+000,1.1000217029e+000,9.1478164387e+000,3.5530806547e+000,2.2871015592e+000,3.3820121591e+000,1.8009077675e+000,2.2968084489e+000,
3.1031250000e+001,3.8042804607e+000,3.8531006522e+000,3.6239150542e+000,3.1690916189e+000,2.8568948563e+000,2.2918389308e+000,1.5645511242e+000,1.1992852867e+000,9.1337533049e+000,3.4292669473e+000,2.2664839572e+000,3.3185376167e+000,1.6543268331e+000,2.1894722175e+000,
3.1125000000e+001,3.5612122139e+000,3.5066646212e+000,3.5052884827e+000,2.8209564834e+000,2.8052030805e+000,2.0763296200e+000,1.5544457953e+000,1.1846188402e+000,9.1147024862e+000,3.3731529375e+000,2.1623614251e+000,3.1496851148e+000,1.5474303448e+000,2.0973235977e+000,
3.1218750000e+001,3.5765912797e+000,3.4429298892e+000,3.5382719590e+000,2.8654000690e+000,2.8036305464e+000,2.0695133674e+000,1.7028012589e+000,1.1831931592e+000,9.1030336727e+000,3.3195350445e+000,2.1323643410e+000,3.1646428472e+000,1.6146146675e+000,2.0811334302e+000,
3.1312500000e+001,3.4402595205e+000,3.3619757698e+000,3.4205598221e+000,2.7889381976e+000,2.8338835818e+000,2.0327444183e+000,1.7137730368e+000,1.1875478177e+000,9.0874664790e+000,3.2371798405e+000,2.1402221559e+000,3.0166294721e+000,1.5937797166e+000,2.0757894919e+000,
3.1406250000e+001,3.3037989193e+000,3.4776284502e+000,3.3175161052e+000,2.8840680035e+000,2.8637754691e+000,2.3135929067e+000,1.7285579415e+000,1.2218958146e+000,9.0846515465e+000,3.3133313714e+000,2.1289904724e+000,3.0007673717e+000,1.6085550075e+000,2.0914581907e+000,
3.1500000000e+001,3.3907282107e+000,3.5869964521e+000,3.3352944904e+000,2.9503992866e+000,2.6688324422e+000,2.3699396496e+000,1.7578433551e+000,1.2086560020e+000,8.4473661560e+000,3.3207931575e+000,2.0829542013e+000,2.9713410932e+000,1.6431330914e+000,2.0103808748e+000,
3.1593750000e+001,3.4900669937e+000,3.6274417851e+000,3.3522351604e+000,3.0255152741e+000,2.0009230698e+000,2.3492243114e+000,1.7189086797e+000,1.2071022720e+000,7.0744095751e+000,3.3015570123e+000,2.1133007548e+000,2.9620093370e+000,1.6624755603e+000,1.9465935921e+000,
3.1687500000e+001,3.4726627273e+000,3.6470034705e+000,3.3569197132e+000,3.0302511293e+000,1.9366006282e+000,2.3546426072e+000,1.7650009045e+000,1.1507116874e+000,7.4378094380e+000,3.3625694737e+000,2.0394230911e+000,2.9739818148e+000,1.6483409648e+000,1.8999965316e+000,
3.1781250000e+001,3.4892787670e+000,3.6043918416e+000,3.3668740632e+000,2.9989869329e+000,1.9560820181e+000,2.3360464961e+000,1.9417700747e+000,1.1138646759e+000,7.4596572825e+000,3.3466032417e+000,2.1470910632e+000,3.0385134175e+000,1.7140147110e+000,1.8879842026e+000,
3.1875000000e+001,3.4765209838e+000,3.5167643192e+000,3.3200493754e+000,2.9654089832e+000,1.9595281803e+000,2.3175517325e+000,2.0152494419e+000,1.0916496450e+000,7.4726631604e+000,3.4215635906e+000,2.2648782799e+000,3.0789419199e+000,1.7040191442e+000,1.7303080779e+000,
3.1968750000e+001,3.5550504143e+000,3.7267556391e+000,3.3901485886e+000,3.0964278183e+000,1.9486567796e+000,2.4195749684e+000,1.9789292751e+000,1.0906931673e+000,7.9250860607e+000,3.5023975593e+000,2.3978475875e+000,3.2515263043e+000,1.7744030577e+000,1.6962483312e+000,
3.2062500000e+001,3.6050530713e+000,3.7888135190e+000,3.3716773002e+000,3.1702067288e+000,1.9338724893e+000,2.6285084891e+000,2.0102469073e+000,1.0007421402e+000,8.0579568042e+000,3.5165712669e+000,2.4585893106e+000,3.1945379276e+000,1.9684166111e+000,1.7074350435e+000,
3.2156250000e+001,3.7712855825e+000,4.0040524930e+000,3.6365178162e+000,3.3419201651e+000,1.9879422811e+000,2.7459266166e+000,1.9511204399e+000,1.0107581484e+000,8.1024750310e+000,3.6404485198e+000,2.6376569841e+000,3.3466956427e+000,2.1589581144e+000,1.7115496560e+000,
3.2250000000e+001,3.8343677220e+000,4.1542011252e+000,3.6780502190e+000,3.4242146349e+000,1.9377380467e+000,2.8154010973e+000,1.9766988140e+000,1.0598321098e+000,8.3713940086e+000,3.7079283984e+000,2.6191364919e+000,3.2525998305e+000,2.1539864961e+000,1.6079722594e+000,
3.2343750000e+001,4.0075825429e+000,4.2846538086e+000,3.8176709457e+000,3.5709852882e+000,1.7770274588e+000,2.7442132852e+000,1.9663264227e+000,1.0626121114e+000,8.6105410761e+000,3.6851059298e+000,2.5903855483e+000,3.2461086776e+000,2.1955704309e+000,1.5567489571e+000,
3.2437500000e+001,4.0543889753e+000,4.3337132231e+000,3.8353654527e+000,3.6310406093e+000,1.7842888810e+000,2.7070129712e+000,1.8861025054e+000,9.9221528851e-001,8.6298187268e+000,3.7045395424e+000,2.5807363458e+000,3.2367609138e+000,2.2427579279e+000,1.5111113273e+000,
3.2531250000e+001,4.0436832457e+000,4.3549881103e+000,3.8249561875e+000,3.6516886074e+000,1.6784134451e+000,2.7412039694e+000,1.8924734219e+000,1.0476589266e+000,8.6652816525e+000,3.8217345496e+000,2.5792808701e+000,3.3083689185e+000,2.2397372608e+000,1.6652350931e+000,
3.2625000000e+001,4.0059016148e+000,4.3186398303e+000,3.8359996938e+000,3.6627025435e+000,1.6550937717e+000,2.7044888829e+000,1.9028267187e+000,1.0270558234e+000,8.5135351322e+000,3.9117539868e+000,2.6894608912e+000,3.2760050577e+000,2.2959602994e+000,1.8473058480e+000,
3.2718750000e+001,4.0483228927e+000,4.3578668047e+000,3.8695987790e+000,3.6992261100e+000,1.6181917634e+000,2.7117480964e+000,1.9063234364e+000,1.0394852298e+000,8.5891502119e+000,3.9876466086e+000,2.6986246031e+000,3.3479892792e+000,2.3086024287e+000,1.9409467624e+000,
3.2812500000e+001,4.0268149400e+000,4.3507221579e+000,3.9015359986e+000,3.6953300188e+000,1.6564989116e+000,2.6922205218e+000,1.7355778311e+000,1.0693196207e+000,8.6447032237e+000,4.0320132127e+000,2.6136940509e+000,3.3967845478e+000,2.3350317219e+000,2.0245588866e+000,
3.2906250000e+001,4.0002041518e+000,4.3535487792e+000,3.9261985034e+000,3.7304671237e+000,1.7175337630e+000,2.7114348915e+000,1.6520097083e+000,1.0629044229e+000,8.7102901576e+000,4.0703856671e+000,2.4950067921e+000,3.2806663105e+000,2.4101154572e+000,2.0711740695e+000,
3.3000000000e+001,4.0362673486e+000,4.2772302009e+000,3.9804436319e+000,3.7249625227e+000,1.7447657023e+000,2.6390305241e+000,1.7160988418e+000,9.9745242918e-001,8.5977960359e+000,4.0302016726e+000,2.4272790442e+000,3.1937213251e+000,2.4361455947e+000,2.0655892959e+000,
3.3093750000e+001,3.9979627543e+000,4.2388560849e+000,3.9473288209e+000,3.6831617927e+000,1.7467355157e+000,2.4361049449e+000,1.6364825338e+000,9.4469275325e-001,8.5869435948e+000,3.9437817231e+000,2.3088145500e+000,3.1242324992e+000,2.3004314566e+000,2.0893326308e+000,
3.3187500000e+001,3.8191715334e+000,4.0571193474e+000,3.7132583619e+000,3.4940462003e+000,1.7181259623e+000,2.2712884599e+000,1.5427282679e+000,9.0966916929e-001,8.4367035498e+000,3.7867099577e+000,2.0984540971e+000,2.9468474268e+000,2.1881502351e+000,2.0960323451e+000,
3.3281250000e+001,3.5635585878e+000,3.7487610183e+000,3.4428102553e+000,3.2705282934e+000,1.6886059164e+000,2.0721459112e+000,1.4418197297e+000,8.7302462405e-001,8.2497872668e+000,3.6773528726e+000,2.0851556344e+000,2.9553812443e+000,2.2233051439e+000,2.0987479715e+000,
3.3375000000e+001,3.4086292627e+000,3.6454741076e+000,3.3797945584e+000,3.2648735817e+000,1.7746477648e+000,2.1095083088e+000,1.4523570149e+000,9.0430759907e-001,8.3226853020e+000,3.7597297079e+000,2.1580770571e+000,3.0306247542e+000,2.2861954250e+000,2.1094282407e+000,
3.3468750000e+001,3.3628493336e+000,3.4941718780e+000,3.3938882099e+000,3.1590749518e+000,1.7661457545e+000,1.8850001218e+000,1.4783309705e+000,9.1805528229e-001,8.2241165429e+000,3.7322252070e+000,2.1383462818e+000,3.0520971033e+000,2.2308901469e+000,2.1245549530e+000,
3.3562500000e+001,3.2859379788e+000,3.3675553022e+000,3.3995402206e+000,3.0865060025e+000,1.8664040451e+000,1.7830065420e+000,1.3078859182e+000,9.3287986817e-001,8.2159206084e+000,3.5954015973e+000,2.0576881641e+000,2.9459198774e+000,2.2376181428e+000,2.1566655171e+000,
3.3656250000e+001,3.2789432559e+000,3.3166564245e+000,3.4198262668e+000,3.0035541008e+000,1.9712985477e+000,1.6342067902e+000,1.1832483797e+000,9.2061731001e-001,8.1843252282e+000,3.3858352738e+000,1.9419120655e+000,2.8303092927e+000,2.1985822684e+000,2.0353288584e+000,
3.3750000000e+001,3.1919969956e+000,3.1954285486e+000,3.3905829419e+000,2.9608972651e+000,1.9155317342e+000,1.5394814955e+000,1.2860793077e+000,9.4897228480e-001,7.9756938691e+000,3.1231875748e+000,1.9312867010e+000,2.5917112617e+000,2.1645145869e+000,1.9929722488e+000,
3.3843750000e+001,3.0674273942e+000,3.0541527328e+000,3.1885680384e+000,2.8715873512e+000,1.8660644709e+000,1.5254643038e+000,1.1682856801e+000,9.3830192693e-001,8.0736702488e+000,3.1034495969e+000,1.9858609296e+000,2.5913123446e+000,2.1085275811e+000,1.9403784440e+000,
3.3937500000e+001,3.0974732036e+000,3.0888060503e+000,3.2066620180e+000,2.8677480392e+000,1.9020194949e+000,1.5919271274e+000,1.2860635049e+000,1.0395628124e+000,7.9721125920e+000,2.9888161490e+000,1.9682338902e+000,2.5656737435e+000,2.0331503939e+000,1.9426653281e+000,
3.4031250000e+001,3.1628392424e+000,3.3265933076e+000,3.2137785601e+000,2.8821261869e+000,1.9376288544e+000,1.8502000674e+000,1.2899134702e+000,1.1005058036e+000,7.8950891311e+000,3.1891858464e+000,2.1998615717e+000,2.7968842576e+000,2.0615100878e+000,1.9700196232e+000,
3.4125000000e+001,3.2577083366e+000,3.3760477136e+000,3.2801096527e+000,2.8811116435e+000,1.9924315093e+000,2.0364689328e+000,1.4686996661e+000,1.0998800184e+000,7.8407714600e+000,3.3064555377e+000,2.3276204520e+000,2.8610998240e+000,2.0682630215e+000,1.8765965818e+000,
3.4218750000e+001,3.2829992904e+000,3.4340941035e+000,3.3461310439e+000,2.8623799139e+000,2.0526902880e+000,2.0541287011e+000,1.4591444834e+000,1.1475608706e+000,7.8084546224e+000,3.3119172922e+000,2.3405807356e+000,2.9202828221e+000,2.0554981058e+000,1.9261458113e+000,
3.4312500000e+001,3.2797904351e+000,3.4254772050e+000,3.3545043193e+000,2.8291096111e+000,2.0205024239e+000,2.1264916286e+000,1.5350993655e+000,1.2198767866e+000,7.5339820185e+000,3.2687163538e+000,2.2705817818e+000,2.9154162653e+000,1.9173988222e+000,1.9644194348e+000,
3.4406250000e+001,3.3413739616e+000,3.4217879286e+000,3.3851542888e+000,2.8142418294e+000,2.0057102563e+000,2.0640086491e+000,1.5896641789e+000,1.2926311643e+000,7.5938165980e+000,3.1899455142e+000,2.2767247806e+000,2.8799322538e+000,1.9160149813e+000,1.9568806322e+000,
3.4500000000e+001,3.3511767246e+000,3.4604409019e+000,3.3516722318e+000,2.8148141136e+000,1.9875425616e+000,2.0859998963e+000,1.5950603065e+000,1.2675925518e+000,7.6574961553e+000,3.1808806569e+000,2.3085135521e+000,2.8445326595e+000,1.8925008310e+000,1.8447432042e+000,
3.4593750000e+001,3.4365161737e+000,3.5253205065e+000,3.4130551878e+000,2.8467831291e+000,2.0189876169e+000,2.1301622557e+000,1.6071836949e+000,1.2396100100e+000,7.7750828225e+000,3.1908964876e+000,2.3736335242e+000,2.8796115549e+000,1.9077226490e+000,1.9628877479e+000,
3.4687500000e+001,3.3683945108e+000,3.4241293295e+000,3.3149307453e+000,2.7293939227e+000,1.9462837858e+000,2.2387067401e+000,1.5541450014e+000,1.2332033370e+000,8.0571873213e+000,3.1605858882e+000,2.2892791292e+000,2.8459388897e+000,1.8438456151e+000,2.0111466525e+000,
3.4781250000e+001,3.3604729943e+000,3.4069219396e+000,3.2919421955e+000,2.6490037814e+000,1.9758554435e+000,2.2493300750e+000,1.5879932326e+000,1.2456473088e+000,8.0584508365e+000,3.1121457653e+000,2.2297190953e+000,2.7713654120e+000,1.9028027800e+000,1.9014545981e+000,
3.4875000000e+001,3.4329676334e+000,3.4741334014e+000,3.3305315973e+000,2.7642617196e+000,1.9497780753e+000,2.3201722218e+000,1.6362513914e+000,1.2318955547e+000,7.9186145092e+000,3.2195623092e+000,2.2346399446e+000,2.8075035217e+000,1.8904907173e+000,1.9655276988e+000,
3.4968750000e+001,3.4300634931e+000,3.3318362644e+000,3.3086719711e+000,2.7010968568e+000,1.9185055394e+000,2.4071406910e+000,1.5631458058e+000,1.1875997496e+000,7.7611925245e+000,3.1681246938e+000,2.1824769203e+000,2.7653627701e+000,1.8648919869e+000,1.9864751852e+000,
3.5062500000e+001,3.2888568413e+000,3.2106732753e+000,3.1899019555e+000,2.6295047502e+000,1.8935829764e+000,2.2635558019e+000,1.4351649819e+000,1.2070721425e+000,7.7037702225e+000,3.0224455686e+000,1.9873670123e+000,2.5606006956e+000,1.7030755465e+000,1.9408657484e+000,
3.5156250000e+001,3.2507748297e+000,3.1722397218e+000,3.1899228118e+000,2.6388120338e+000,1.9306738583e+000,2.1042591604e+000,1.4887910230e+000,1.2376446209e+000,7.8188030712e+000,2.9114366705e+000,1.8978328679e+000,2.3837078990e+000,1.8139554794e+000,1.9932106856e+000,
3.5250000000e+001,3.1501569311e+000,3.1217534675e+000,3.0921442753e+000,2.6567708109e+000,1.8672175791e+000,2.1145886950e+000,1.5452555260e+000,1.2408050441e+000,7.8090885369e+000,2.9431800767e+000,2.0435079435e+000,2.4290410696e+000,1.8452102219e+000,1.9892230949e+000,
3.5343750000e+001,3.0849748698e+000,3.1278496652e+000,3.0627972419e+000,2.5931960475e+000,1.8676393518e+000,2.0418985393e+000,1.5121273694e+000,1.1277701487e+000,7.6733228223e+000,3.1733676701e+000,2.1973285165e+000,2.6190852281e+000,1.8669093441e+000,2.0882614125e+000,
3.5437500000e+001,2.9858637013e+000,3.0437382414e+000,2.9217234933e+000,2.5408623947e+000,1.8031560610e+000,1.9993537417e+000,1.4968975842e+000,1.1656107123e+000,7.5315402895e+000,3.1865033565e+000,2.1765572589e+000,2.6234220681e+000,1.8595728964e+000,2.1716697154e+000,
3.5531250000e+001,2.9793537125e+000,3.0944853407e+000,2.9029937271e+000,2.7040121214e+000,1.6639072139e+000,2.0027304076e+000,1.6223474109e+000,1.1447558071e+000,7.4320863800e+000,3.2179461077e+000,2.1575936566e+000,2.6634352881e+000,1.8807360669e+000,2.2139897126e+000,
3.5625000000e+001,2.9951342537e+000,3.1706832604e+000,3.0070775394e+000,2.6986037193e+000,1.7778994345e+000,1.9076060923e+000,1.7055094581e+000,1.1610934341e+000,7.4232926619e+000,3.2854549709e+000,2.2480619754e+000,2.8312946190e+000,1.9689014325e+000,2.1628975479e+000,
3.5718750000e+001,3.0673091191e+000,3.2462042769e+000,3.0692316858e+000,2.7509798051e+000,1.7880740090e+000,1.9072886817e+000,1.7413218201e+000,1.1491087216e+000,6.8356971288e+000,3.3600483180e+000,2.2418747410e+000,2.8931453434e+000,1.8878878109e+000,2.0954347001e+000,
3.5812500000e+001,3.0709450164e+000,3.2642540454e+000,3.0576337389e+000,2.7639048900e+000,1.7913039751e+000,1.8522569917e+000,1.7264355506e+000,1.1112005790e+000,6.7617720799e+000,3.3386849927e+000,2.2654623524e+000,2.8988564034e+000,1.8707985169e+000,2.0751728202e+000,
3.5906250000e+001,2.9820706398e+000,3.1929613073e+000,2.9348549125e+000,2.6587869261e+000,1.8019931154e+000,1.7708171319e+000,1.6881109134e+000,1.1194580433e+000,6.7823953813e+000,3.2400040820e+000,2.2153329182e+000,2.8659448271e+000,1.8501827775e+000,1.9680215821e+000,
3.6000000000e+001,2.8151329476e+000,3.1806106484e+000,2.8349931464e+000,2.6258199537e+000,1.7358460190e+000,1.6334865136e+000,1.6793448642e+000,1.1310090376e+000,6.8040185690e+000,3.2020873031e+000,2.2713263181e+000,2.8719868936e+000,1.8823630798e+000,1.9846946591e+000,
3.6093750000e+001,2.7259291860e+000,3.1437733406e+000,2.8036857640e+000,2.5715395868e+000,1.7030812497e+000,1.6726022066e+000,1.5781302173e+000,1.1204825043e+000,6.6964807625e+000,3.2215344427e+000,2.3038562985e+000,2.8964001188e+000,1.7938903709e+000,1.9767239139e+000,
3.6187500000e+001,2.7568067235e+000,3.1255709444e+000,2.7895626504e+000,2.6159455506e+000,1.6385432719e+000,1.6762506645e+000,1.5042429521e+000,1.0753589716e+000,6.5436212161e+000,3.2196415285e+000,2.3021814365e+000,3.0594669355e+000,1.8167735420e+000,2.0197833478e+000,
3.6281250000e+001,2.9097916065e+000,3.0897671068e+000,2.9323466562e+000,2.6456829251e+000,1.7199516402e+000,1.6875545146e+000,1.5781120772e+000,1.0175241512e+000,6.5552435846e+000,3.0278224077e+000,2.2323404556e+000,2.9022317164e+000,1.8118733565e+000,1.9687158647e+000,
3.6375000000e+001,2.9641185325e+000,3.1226121120e+000,3.0141921870e+000,2.6838882871e+000,1.7861406175e+000,1.7236254179e+000,1.6927531897e+000,9.4983698185e-001,6.5534631630e+000,2.8358184595e+000,2.1757969707e+000,2.8050902422e+000,1.8313754948e+000,1.8833763362e+000,
3.6468750000e+001,3.0105714905e+000,3.0829438709e+000,3.0060327952e+000,2.5958394102e+000,1.8269108414e+000,1.7458722314e+000,1.6517393252e+000,1.0038826499e+000,6.5554749086e+000,2.8697740801e+000,2.1563923962e+000,2.8188903534e+000,1.8165283768e+000,1.7844119508e+000,
3.6562500000e+001,2.9792120644e+000,2.9635121662e+000,2.9271691801e+000,2.4870947492e+000,1.7405174994e+000,1.7690516569e+000,1.5396235952e+000,1.0161038988e+000,6.2048178607e+000,2.8226218204e+000,2.1157170394e+000,2.7203632617e+000,1.7885682357e+000,1.6121070033e+000,
3.6656250000e+001,2.8823982995e+000,2.9398674587e+000,2.7747374584e+000,2.5912741948e+000,1.5987356162e+000,1.7225654581e+000,1.4843004544e+000,1.1393123352e+000,5.7861018722e+000,2.5497655649e+000,1.9973410017e+000,2.5371155697e+000,1.7210644440e+000,1.5578294134e+000,
3.6750000000e+001,2.8696865425e+000,2.8736252421e+000,2.7858364619e+000,2.6143931486e+000,1.5695507822e+000,1.8474845656e+000,1.4705189070e+000,1.1555171782e+000,5.7431893165e+000,2.7785344097e+000,2.0630881068e+000,2.6892460418e+000,1.8775631535e+000,1.5216781562e+000,
3.6843750000e+001,3.0804686751e+000,3.0324242371e+000,3.0371206238e+000,2.6889394358e+000,1.6381168280e+000,1.8533293310e+000,1.5523869840e+000,1.1483239241e+000,5.7163478905e+000,2.9876337246e+000,2.0925353989e+000,2.8174360922e+000,1.8641453895e+000,1.5276428408e+000,
3.6937500000e+001,3.1284448540e+000,3.0657908878e+000,3.1075049294e+000,2.7197177207e+000,1.6360781688e+000,1.7597531867e+000,1.5921354175e+000,1.1960569788e+000,5.5796501112e+000,3.0248363211e+000,2.1809213237e+000,2.8745996100e+000,1.9022551912e+000,1.6506584342e+000,
3.7031250000e+001,3.0988956709e+000,3.0485505433e+000,3.1112837934e+000,2.7138294960e+000,1.5658886129e+000,1.6436463808e+000,1.5904634604e+000,1.3278682818e+000,5.5375623118e+000,3.0620227130e+000,2.1641742773e+000,2.9264582947e+000,1.8834718878e+000,1.6136597102e+000,
3.7125000000e+001,3.1333802661e+000,3.1101126183e+000,3.1141872947e+000,2.7558239181e+000,1.5167357591e+000,1.7339383504e+000,1.6118299068e+000,1.3066580269e+000,5.5392940443e+000,3.0080370812e+000,2.1161091142e+000,2.7989337527e+000,1.8501268943e+000,1.6260696921e+000,
3.7218750000e+001,3.1177154868e+000,3.1661574233e+000,3.0498811781e+000,2.7066826070e+000,1.5528411144e+000,1.6485652394e+000,1.6195058335e+000,1.3362981615e+000,4.8666748275e+000,2.9920588258e+000,2.1632869156e+000,2.7891655804e+000,1.9670572018e+000,1.5176644512e+000,
3.7312500000e+001,3.1802383131e+000,3.2924892179e+000,3.1179968513e+000,2.8143976682e+000,1.5002091532e+000,1.7469254616e+000,1.4853640487e+000,1.3955842484e+000,4.8367499937e+000,3.1731980223e+000,2.1725292046e+000,2.8586053988e+000,1.9168117427e+000,1.4611358973e+000,
3.7406250000e+001,3.2021813229e+000,3.4825453436e+000,3.1833198206e+000,2.9503650341e+000,1.4095925368e+000,1.7547617411e+000,1.5416662667e+000,1.4415232452e+000,4.8683627858e+000,3.3214250410e+000,2.1641777085e+000,2.9395694813e+000,1.9103339160e+000,1.4760562671e+000,
3.7500000000e+001,3.2785023591e+000,3.5992627042e+000,3.2445405616e+000,3.0471692267e+000,1.3916805202e+000,1.7833438468e+000,1.5164246826e+000,1.3916786432e+000,4.9314659066e+000,3.4179982471e+000,2.2916006112e+000,3.0625159853e+000,2.0310016927e+000,1.7644397580e+000,
3.7593750000e+001,3.3122116706e+000,3.6656324296e+000,3.2393132543e+000,3.0481762718e+000,1.3825988827e+000,1.8638941619e+000,1.5121730376e+000,1.3402997587e+000,4.8795623283e+000,3.3963504731e+000,2.2870010143e+000,3.0421445508e+000,2.0048163467e+000,1.8005549711e+000,
3.7687500000e+001,3.3606437984e+000,3.6568039376e+000,3.2685561564e+000,2.9799481509e+000,1.3780635159e+000,1.8457861491e+000,1.5456091389e+000,1.2605637736e+000,4.9755962763e+000,3.3527545552e+000,2.2596036560e+000,2.9695584767e+000,1.9134682942e+000,1.8670887746e+000,
3.7781250000e+001,3.3551524968e+000,3.6305940465e+000,3.2395244251e+000,2.9582591231e+000,1.4211315403e+000,1.6950293055e+000,1.4679443109e+000,1.2441813308e+000,4.9471277679e+000,3.3271643900e+000,2.2723485489e+000,2.8854090701e+000,1.8776709847e+000,1.9913968904e+000,
3.7875000000e+001,3.2233312928e+000,3.6299497286e+000,3.0315822832e+000,2.9923944374e+000,1.4176375795e+000,1.7011425925e+000,1.3772120535e+000,1.2599665025e+000,4.9453254532e+000,3.2064657201e+000,2.2598767292e+000,2.7782653024e+000,1.8878161993e+000,2.0349001726e+000,
3.7968750000e+001,3.2967052476e+000,3.7352284645e+000,3.1662480668e+000,3.1106412579e+000,1.3745519299e+000,1.7593183793e+000,1.5258728865e+000,1.2147830402e+000,5.2990263201e+000,3.3134664461e+000,2.2339144581e+000,2.7901363856e+000,1.9577252635e+000,1.9819806803e+000,
3.8062500000e+001,3.3413491506e+000,3.7158927164e+000,3.2432261449e+000,3.1084035320e+000,1.3773922180e+000,1.8395189950e+000,1.5597576713e+000,1.1647682508e+000,5.8799201494e+000,3.4675581301e+000,2.3584886578e+000,2.8924311252e+000,2.0297450425e+000,1.9994850640e+000,
3.8156250000e+001,3.3518909018e+000,3.6630867084e+000,3.2532854844e+000,3.0880480994e+000,1.3613330492e+000,1.7556141326e+000,1.5792550310e+000,1.2079048981e+000,6.1429728701e+000,3.4561043184e+000,2.2785252898e+000,2.8670401672e+000,2.0416719351e+000,1.9959148862e+000,
3.8250000000e+001,3.3622078560e+000,3.6502871196e+000,3.2903445840e+000,3.1212052409e+000,1.2931594394e+000,1.7742386404e+000,1.6420331313e+000,1.2196411962e+000,6.3445920443e+000,3.4378145972e+000,2.2350782609e+000,2.8548834617e+000,1.9438022884e+000,1.9919122125e+000,
3.8343750000e+001,3.2627824245e+000,3.5375070543e+000,3.1351394833e+000,2.9810849339e+000,1.5431014613e+000,1.8127338302e+000,1.6478067297e+000,1.1833731578e+000,6.3787410614e+000,3.3317655819e+000,2.2152799476e+000,2.8960885666e+000,1.9488519366e+000,1.9801553887e+000,
3.8437500000e+001,3.1715888567e+000,3.3832666799e+000,3.0831241871e+000,2.9316644138e+000,1.5635811925e+000,1.7763593130e+000,1.4671828712e+000,1.0961951285e+000,6.5105885967e+000,3.0843298544e+000,2.1864286993e+000,2.7779271706e+000,1.9203294534e+000,1.8931352625e+000,
3.8531250000e+001,3.2895301145e+000,3.3862573870e+000,3.2284548658e+000,2.9845747678e+000,1.6125473507e+000,2.0459128344e+000,1.4759298860e+000,1.1949751314e+000,6.5824113743e+000,3.1996961656e+000,2.1758104732e+000,2.8236739314e+000,1.8385744306e+000,1.7949408001e+000,
3.8625000000e+001,3.2465962718e+000,3.2636856161e+000,3.2336542096e+000,2.9817798982e+000,1.6574773038e+000,1.9448758536e+000,1.4888740284e+000,1.2569504668e+000,6.6771448645e+000,3.2379461231e+000,2.2249694847e+000,2.9627932529e+000,1.8808484262e+000,1.7624192610e+000,
3.8718750000e+001,3.2697971550e+000,3.3179041529e+000,3.2786822441e+000,3.0038156607e+000,1.6939507835e+000,2.1132862279e+000,1.5303660300e+000,1.2218182193e+000,6.7611548012e+000,3.2161447700e+000,2.2434001261e+000,3.0426704256e+000,1.8657356385e+000,1.6719329124e+000,
3.8812500000e+001,3.3590634515e+000,3.3882086918e+000,3.4223034535e+000,3.0907192478e+000,1.6482317310e+000,2.1902157943e+000,1.5223351088e+000,1.2233771842e+000,6.8141959879e+000,3.2187357817e+000,2.2178392213e+000,3.0231949847e+000,1.9667897396e+000,1.4878591199e+000,
3.8906250000e+001,3.3808405473e+000,3.2675281386e+000,3.5074604720e+000,3.0393105067e+000,1.6685649923e+000,2.2554410631e+000,1.5389822270e+000,1.2101357662e+000,6.8657397202e+000,3.2298034091e+000,2.2578774062e+000,2.9847354026e+000,2.0000353144e+000,1.4300804922e+000,
3.9000000000e+001,3.3902725172e+000,3.2085326688e+000,3.4628925027e+000,2.9728498355e+000,1.7196631194e+000,2.2103413486e+000,1.4122367153e+000,1.1976319532e+000,6.8042941342e+000,3.0254288402e+000,2.1394173832e+000,2.9636459214e+000,1.8756684721e+000,1.2710519159e+000,
3.9093750000e+001,3.4180171785e+000,3.3135268880e+000,3.4523880122e+000,3.0446660208e+000,1.7533077872e+000,2.1914425209e+000,1.4996623264e+000,1.1149860878e+000,6.7665102221e+000,3.0167558542e+000,2.2011926483e+000,2.9164915601e+000,1.9041839546e+000,1.2150782605e+000,
3.9187500000e+001,3.4005396011e+000,3.3209547041e+000,3.4401687428e+000,3.0534314313e+000,1.8172352636e+000,2.2622864023e+000,1.4708258271e+000,1.1430050836e+000,6.7275781334e+000,3.0607942871e+000,2.2618696804e+000,2.9227759265e+000,1.9303169844e+000,1.2376754516e+000,
3.9281250000e+001,3.5237444207e+000,3.4994123650e+000,3.5384120590e+000,3.2033670464e+000,1.7833072641e+000,2.3736119711e+000,1.5060726325e+000,1.0734637526e+000,6.5913387071e+000,3.1928625747e+000,2.3240696427e+000,2.9865852661e+000,2.0080568154e+000,1.2782423178e+000,
3.9375000000e+001,3.4675888723e+000,3.5653938264e+000,3.5053464423e+000,3.2350275092e+000,1.7873198812e+000,2.3196912103e+000,1.4917882428e+000,1.1429519954e+000,8.0785746794e+000,3.2464720438e+000,2.3283700126e+000,2.9330282723e+000,1.9641433436e+000,1.2564037636e+000,
3.9468750000e+001,3.4017387281e+000,3.5456924404e+000,3.4837754725e+000,3.2621707518e+000,1.8301184267e+000,2.3443100126e+000,1.5263870456e+000,1.0838902504e+000,8.2738484194e+000,3.2746309478e+000,2.3717315347e+000,2.9433528827e+000,1.9891785696e+000,1.2056154771e+000,
3.9562500000e+001,3.4134987922e+000,3.5997191368e+000,3.5068360903e+000,3.2974158571e+000,1.8578028365e+000,2.2336160403e+000,1.5672238173e+000,1.0577609953e+000,8.2876219037e+000,3.2135890416e+000,2.3550761067e+000,2.8626316403e+000,2.0072611056e+000,1.2455421979e+000,
3.9656250000e+001,3.5279349424e+000,3.6232567410e+000,3.5516493598e+000,3.3188919814e+000,1.8299648900e+000,2.1477364471e+000,1.5289829362e+000,1.0468703138e+000,8.3094172671e+000,3.2331994849e+000,2.2868467980e+000,2.7031043228e+000,2.0114133412e+000,1.2909280583e+000,
3.9750000000e+001,3.5300483285e+000,3.6609344384e+000,3.5811902506e+000,3.3293348618e+000,1.7846532074e+000,2.1303655508e+000,1.5173820955e+000,1.0597788619e+000,8.3164834145e+000,3.2565790668e+000,2.2660165817e+000,2.6271227707e+000,2.0359265360e+000,1.4395721282e+000,
3.9843750000e+001,3.4741151562e+000,3.6205999274e+000,3.5026317310e+000,3.3306224505e+000,1.7905758366e+000,2.0560432906e+000,1.5402356939e+000,1.1169925216e+000,8.3256172845e+000,3.2397398224e+000,2.2629946149e+000,2.7666926972e+000,1.9258366722e+000,1.4657812454e+000,
3.9937500000e+001,3.3827094546e+000,3.5486397824e+000,3.3864663790e+000,3.2961817249e+000,1.7540880772e+000,1.9534254517e+000,1.5114118376e+000,1.1846274306e+000,8.3172874625e+000,3.2021671271e+000,2.2818030961e+000,2.6984812928e+000,1.9053330566e+000,1.4655239511e+000,
4.0031250000e+001,3.3908517360e+000,3.5618092355e+000,3.3841889325e+000,3.2880629212e+000,1.7859833481e+000,2.0457390163e+000,1.5443819395e+000,1.1256748392e+000,8.3190675820e+000,3.1622013181e+000,2.1967525930e+000,2.6218776390e+000,1.8579476199e+000,1.5621070383e+000,
4.0125000000e+001,3.3985162730e+000,3.5146131312e+000,3.4281691811e+000,3.2984583219e+000,1.8232683758e+000,2.0213393801e+000,1.4583179196e+000,1.1260966744e+000,9.5342944024e+000,3.1347041060e+000,2.1060665556e+000,2.6108319753e+000,1.7351310235e+000,1.6758650349e+000,
4.0218750000e+001,3.4010408905e+000,3.5790180918e+000,3.4717461746e+000,3.2973167692e+000,2.3170334948e+000,1.9750914261e+000,1.4575128757e+000,1.1305553664e+000,1.0025102191e+001,3.1441638144e+000,2.0819606122e+000,2.5318242777e+000,1.7389213001e+000,1.7556262345e+000,
4.0312500000e+001,3.2963100370e+000,3.3850970014e+000,3.3598521751e+000,3.1503269958e+000,2.3710653973e+000,1.8329576411e+000,1.3887360532e+000,1.1497923259e+000,1.0059166886e+001,2.9068159903e+000,1.9760423897e+000,2.3217666404e+000,1.6408169945e+000,1.7449503262e+000,
4.0406250000e+001,3.2915436698e+000,3.3349317858e+000,3.3850747351e+000,3.1193067618e+000,2.3652857522e+000,1.8596866527e+000,1.4828196484e+000,1.2199783683e+000,9.9597207086e+000,2.9249760080e+000,1.9453543843e+000,2.3186653899e+000,1.6695721590e+000,1.8137405264e+000,
4.0500000000e+001,3.3877438823e+000,3.3771088211e+000,3.4805152499e+000,3.0945426420e+000,2.3569074618e+000,1.8600925340e+000,1.5587015039e+000,1.2444699104e+000,9.9547936788e+000,2.9109679587e+000,1.9653204190e+000,2.3150985133e+000,1.6261185158e+000,1.8016151108e+000,
4.0593750000e+001,3.3023873484e+000,3.2822108457e+000,3.4193950170e+000,2.9924512168e+000,2.4006740022e+000,2.0230248938e+000,1.7071472719e+000,1.2651318549e+000,9.9692029509e+000,3.0493562015e+000,1.9239013012e+000,2.4474631813e+000,1.5861868406e+000,1.7923194056e+000,
4.0687500000e+001,3.3923587429e+000,3.4105271290e+000,3.4403060713e+000,3.0365014550e+000,2.5411421104e+000,2.2597351720e+000,1.7922903601e+000,1.3413104831e+000,9.9866732142e+000,3.1771602427e+000,2.1694474328e+000,2.5808566196e+000,1.5321043890e+000,1.7518919832e+000,
4.0781250000e+001,3.3431565225e+000,3.3883174789e+000,3.3575268875e+000,2.9865657230e+000,2.8157901399e+000,2.3115630745e+000,1.8405861584e+000,1.3413824587e+000,1.0070148731e+001,3.1642228563e+000,2.2219745198e+000,2.5893208307e+000,1.5549108585e+000,1.6596074167e+000,
4.0875000000e+001,3.4059380646e+000,3.4889755291e+000,3.3602841689e+000,3.0407413995e+000,2.8802554547e+000,2.5164365527e+000,1.8529683400e+000,1.2788107149e+000,1.0107229845e+001,3.3207483795e+000,2.1797479990e+000,2.6212543313e+000,1.5747673928e+000,1.7273515213e+000,
4.0968750000e+001,3.4342790121e+000,3.5350322123e+000,3.4485522945e+000,3.0210124556e+000,2.8976662944e+000,2.6047407477e+000,1.8321585773e+000,1.2667796727e+000,1.0118857266e+001,3.4437004205e+000,2.1955584413e+000,2.8260308147e+000,1.6451676377e+000,1.7358018083e+000,
4.1062500000e+001,3.5196828864e+000,3.6232054137e+000,3.6238945222e+000,3.0747691769e+000,2.9216104997e+000,2.6514522919e+000,1.8973729146e+000,1.3421268878e+000,1.0102354020e+001,3.5637177872e+000,2.1724122008e+000,3.0102637841e+000,1.6484531862e+000,1.6975597025e+000,
4.1156250000e+001,3.6279555530e+000,3.6745953130e+000,3.7007442486e+000,3.0939902166e+000,2.9276610916e+000,2.7090682826e+000,1.9893256624e+000,1.3875063510e+000,9.3567576679e+000,3.5632022878e+000,2.3507507429e+000,2.9779505938e+000,1.7215270607e+000,1.6090055750e+000,
