Time (s),AF3,AF4,F3,F4,F7,F8,FC5,FC6,T7,T8,P7,P8,O1,O2,Sampling Rate
0.0000000000e+000,3.5872562999e+000,3.2353404228e+000,3.0511789550e+000,3.3854983082e+000,3.1845243940e+000,3.5738243664e+000,2.9265246210e+000,3.3663888276e+000,2.7366412877e+000,3.6455373942e+000,2.5417835617e+000,3.1795142157e+000,2.3985124413e+000,2.8414736278e+000,1
9.3750000000e-002,3.6721203496e+000,3.2885402531e+000,3.0743619996e+000,3.4114696196e+000,3.1899389262e+000,3.7080594490e+000,3.0242342220e+000,3.4792999427e+000,2.9169817467e+000,3.7982454688e+000,2.4402310649e+000,3.2671092299e+000,2.3901894359e+000,2.9631808973e+000,
1.8750000000e-001,3.7188094850e+000,3.4546390998e+000,3.1330908130e+000,3.5807069216e+000,3.2805808234e+000,3.6131074026e+000,3.2538090935e+000,3.5778225614e+000,3.0364470762e+000,3.9028051312e+000,2.3930840454e+000,3.2936838970e+000,2.4135666652e+000,2.9954667593e+000,
2.8125000000e-001,3.6937537339e+000,3.5091485631e+000,3.0974898034e+000,3.7673299042e+000,3.2667837879e+000,3.6913466613e+000,3.2433147807e+000,3.6184301081e+000,3.1865363065e+000,4.0189628068e+000,2.4843533079e+000,3.2120339107e+000,2.5382628049e+000,2.9963792384e+000,
3.7500000000e-001,3.7393141039e+000,3.6367181500e+000,3.1928125215e+000,3.8846215177e+000,3.3089099907e+000,3.9115680756e+000,3.2982211884e+000,3.7770613287e+000,3.1875742016e+000,4.1377966292e+000,2.5995440661e+000,3.2819638387e+000,2.5259342023e+000,3.1713512339e+000,
4.6875000000e-001,3.8388522020e+000,3.8896376960e+000,3.4142743894e+000,3.9434009390e+000,3.4426421507e+000,4.0348143088e+000,3.3458901356e+000,3.9445827950e+000,3.2740548197e+000,4.1619966949e+000,2.7363086218e+000,3.3329195045e+000,2.4704784223e+000,3.2345628261e+000,
5.6250000000e-001,3.8059939730e+000,3.8811215198e+000,3.3935973817e+000,3.9259691683e+000,3.4255794962e+000,4.0790527387e+000,3.3963091574e+000,3.9255569477e+000,3.2940847841e+000,4.2259627123e+000,2.7322759682e+000,3.4258341517e+000,2.6417547064e+000,3.3462149851e+000,
6.5625000000e-001,3.6783289578e+000,3.8057620663e+000,3.3755799513e+000,3.8799355979e+000,3.4951875563e+000,4.0835502223e+000,3.3467889305e+000,3.8989081970e+000,3.3412018271e+000,4.2638784735e+000,2.7810989270e+000,3.3879628987e+000,2.6240209710e+000,3.3625973848e+000,
7.5000000000e-001,3.5626041134e+000,3.7511325628e+000,3.2274038692e+000,3.8242231081e+000,3.4821197880e+000,4.1388515852e+000,3.3661820739e+000,3.8491591773e+000,3.4141523816e+000,4.3094010705e+000,2.8165658163e+000,3.4088006414e+000,2.6845029180e+000,3.4276750771e+000,
8.4375000000e-001,3.5647572393e+000,3.7877058874e+000,3.2847769070e+000,3.8592564598e+000,3.5032971627e+000,4.2953826786e+000,3.3060676036e+000,3.7815454680e+000,3.4151904756e+000,4.2414313225e+000,2.8539162092e+000,3.4899156684e+000,2.7585475636e+000,3.4532994509e+000,
9.3750000000e-001,3.5628518486e+000,3.7984015105e+000,3.2630047200e+000,3.8960632969e+000,3.4783950652e+000,4.3398159763e+000,3.1993266013e+000,3.7989218653e+000,3.3851815685e+000,4.2128807344e+000,2.8361969802e+000,3.4160907741e+000,2.8114578649e+000,3.4386127461e+000,
1.0312500000e+000,3.4239197982e+000,3.7890827520e+000,3.2464968885e+000,3.8485770567e+000,3.3644907738e+000,4.3192396518e+000,3.1612146523e+000,3.7163759995e+000,3.4402937093e+000,4.2064673436e+000,2.8788929423e+000,3.3607562737e+000,2.8849897086e+000,3.4961236186e+000,
1.1250000000e+000,3.3877914836e+000,3.7758266125e+000,3.2805775513e+000,3.8658489678e+000,3.3247724029e+000,4.3704581020e+000,3.0370608578e+000,3.7428455440e+000,3.4937678073e+000,4.1219428345e+000,3.0330006571e+000,3.3470236041e+000,2.9650981304e+000,3.5514932696e+000,
1.2187500000e+000,3.4260373865e+000,3.7364995987e+000,3.1836293918e+000,3.6943818158e+000,3.3447092880e+000,4.3487404818e+000,2.8460099104e+000,3.7650110252e+000,3.5518030810e+000,4.1382640459e+000,3.2767583984e+000,3.3846614333e+000,3.1174500725e+000,3.5916126411e+000,
1.3125000000e+000,3.6234364141e+000,3.8105536963e+000,3.3288419314e+000,3.6664143489e+000,3.4161255266e+000,4.5884091370e+000,2.9184242821e+000,3.8283407004e+000,3.6725929205e+000,4.2477771285e+000,3.3868196151e+000,3.6988133374e+000,3.2357905241e+000,3.7096582101e+000,
1.4062500000e+000,3.6213359668e+000,3.8205643184e+000,3.2723932052e+000,3.7534267030e+000,3.3819344103e+000,4.6741535151e+000,2.9171126323e+000,3.8165370832e+000,3.7126996721e+000,4.4367160088e+000,3.4223661823e+000,4.0036882773e+000,3.3048202899e+000,4.0191474603e+000,
1.5000000000e+000,3.6832997406e+000,3.6927874531e+000,3.2703861410e+000,3.7679587967e+000,3.4549318178e+000,4.6275175846e+000,2.9635076673e+000,3.8115374487e+000,3.7497552719e+000,4.4579489568e+000,3.4064614135e+000,3.9656385941e+000,3.3780131673e+000,4.0516618127e+000,
1.5937500000e+000,3.7091331913e+000,3.6863602103e+000,3.2660797777e+000,3.8046671884e+000,3.3475553462e+000,4.6280449128e+000,2.8214880652e+000,3.8710340276e+000,3.7636752828e+000,4.4500351964e+000,3.4067223169e+000,3.9493993058e+000,3.3794326080e+000,3.9946873495e+000,
1.6875000000e+000,3.7346765026e+000,3.7100354940e+000,3.3457892012e+000,3.8875207633e+000,3.2769105011e+000,4.5992220872e+000,2.9314822395e+000,3.9960722199e+000,3.7505657374e+000,4.4260989908e+000,3.4127249512e+000,3.9887711924e+000,3.4536995186e+000,4.0322572571e+000,
1.7812500000e+000,3.7441565768e+000,3.7104362756e+000,3.3850269044e+000,3.9002349156e+000,3.2692243405e+000,4.6236542383e+000,2.8410464763e+000,4.0655240003e+000,3.7678835114e+000,4.5058908734e+000,3.4607644633e+000,4.1215949377e+000,3.4893066599e+000,4.0210006914e+000,
1.8750000000e+000,3.7731232568e+000,3.7060496869e+000,3.4612256847e+000,3.8621300099e+000,3.3288096228e+000,4.5509510733e+000,2.7691835999e+000,4.1111907065e+000,3.7788176582e+000,4.8751148740e+000,3.5184680925e+000,4.1758446869e+000,3.4837769377e+000,4.0300092409e+000,
1.9687500000e+000,3.8015845705e+000,3.7857028175e+000,3.5032788039e+000,3.9049025605e+000,3.5041063095e+000,4.5738865313e+000,2.7271985349e+000,4.2027910401e+000,3.8226079824e+000,5.1847297152e+000,3.4870828319e+000,4.2544865958e+000,3.4818871722e+000,4.0218346062e+000,
2.0625000000e+000,3.9119148396e+000,3.9086156637e+000,3.5951411802e+000,3.9564784044e+000,3.7852120694e+000,4.6549865485e+000,2.7453387400e+000,4.2400209105e+000,3.7995227724e+000,5.2069623326e+000,3.4876530898e+000,4.3218119574e+000,3.4989207426e+000,4.0300216186e+000,
2.1562500000e+000,3.8806319450e+000,3.9290583853e+000,3.5399495217e+000,3.9197315526e+000,3.8006161407e+000,4.6507925229e+000,2.7470373502e+000,4.2168115962e+000,3.8573516339e+000,5.2394734190e+000,3.4416622769e+000,4.2944270054e+000,3.5495462364e+000,3.9882469312e+000,
2.2500000000e+000,3.9649565947e+000,3.9121851120e+000,3.6029857760e+000,3.9103494317e+000,3.8143386178e+000,4.6507221773e+000,2.8655559008e+000,4.1541335411e+000,3.7258822057e+000,5.2364160056e+000,3.2360016177e+000,4.3229598862e+000,3.4709431708e+000,3.9612564638e+000,
2.3437500000e+000,3.8049202601e+000,3.7323749506e+000,3.3965649051e+000,3.7362713429e+000,3.8434761984e+000,4.1869721420e+000,2.8779081736e+000,3.9893498224e+000,3.7614600476e+000,5.1310793451e+000,3.1321970596e+000,4.0061386908e+000,3.4051455210e+000,3.6975055755e+000,
2.4375000000e+000,3.9413959607e+000,3.8741645266e+000,3.5274167516e+000,3.7712371015e+000,3.9243739910e+000,4.6451862126e+000,2.9695736057e+000,4.0289412279e+000,3.7303930114e+000,5.1498124539e+000,3.1163191605e+000,3.9762226985e+000,3.3412495551e+000,3.3435649711e+000,
2.5312500000e+000,3.8831509909e+000,3.8082696007e+000,3.4487270456e+000,3.6931446349e+000,3.9067430214e+000,4.6688685234e+000,3.0857998945e+000,3.9779231161e+000,3.6260204691e+000,5.1591570276e+000,3.0826120481e+000,4.0236102601e+000,3.1968085295e+000,3.1976088244e+000,
2.6250000000e+000,3.9398822772e+000,3.9640829371e+000,3.4443482836e+000,3.7199544547e+000,3.9185424567e+000,4.6840393644e+000,3.1713470266e+000,3.8863591873e+000,3.6041051817e+000,5.1591587419e+000,3.1141723693e+000,3.9587881352e+000,3.1804525094e+000,3.2073018096e+000,
2.7187500000e+000,3.9918754370e+000,4.1860033106e+000,3.4141018098e+000,3.6856821460e+000,3.9479527847e+000,4.6812115864e+000,3.1319543096e+000,3.7953026319e+000,3.7197469501e+000,5.2056364194e+000,3.2142246842e+000,3.9910482689e+000,3.1668858414e+000,3.1673604686e+000,
2.8125000000e+000,4.0246324243e+000,4.2331786273e+000,3.3730390090e+000,3.7203142855e+000,3.9614692970e+000,4.5951620794e+000,3.1877001575e+000,3.7584208250e+000,3.8854386921e+000,5.1835147150e+000,3.1912922838e+000,3.9213526653e+000,3.1152103049e+000,3.1645378859e+000,
2.9062500000e+000,3.9543226410e+000,4.2113966880e+000,3.3048079990e+000,3.6749478586e+000,3.9354566557e+000,4.5677005555e+000,3.2739703051e+000,3.6980064679e+000,3.8769540836e+000,4.8058651805e+000,3.1262113135e+000,3.8042824070e+000,3.0481702721e+000,3.1560323955e+000,
3.0000000000e+000,3.9665246430e+000,4.1515366369e+000,3.2190565144e+000,3.7649459192e+000,3.7359852085e+000,4.5118566421e+000,3.3249363535e+000,3.7877317298e+000,3.8805020534e+000,4.6143747682e+000,3.1461872981e+000,3.7896454280e+000,2.9582359409e+000,3.0663362700e+000,
3.0937500000e+000,4.0524354338e+000,4.2441721113e+000,3.3737025181e+000,3.9120031291e+000,3.7205017860e+000,4.5604159560e+000,3.4368024131e+000,3.9082522341e+000,3.9188611493e+000,4.6447293238e+000,3.1796792219e+000,3.7406600798e+000,2.9522133988e+000,3.0753104665e+000,
3.1875000000e+000,4.0284509423e+000,4.2278334160e+000,3.3401554353e+000,3.8683123261e+000,3.6559786694e+000,4.5150927197e+000,3.4076012570e+000,3.8998425658e+000,3.8147381633e+000,4.5647428000e+000,3.1427714863e+000,3.7432182118e+000,2.8429251498e+000,3.0053834982e+000,
3.2812500000e+000,3.9452522011e+000,4.2063318068e+000,3.2557048637e+000,3.8466130622e+000,3.6136907067e+000,4.5253060452e+000,3.3175397442e+000,3.8505881630e+000,3.8667816328e+000,4.5236978977e+000,3.0869721948e+000,3.7090125316e+000,2.8947251947e+000,2.9416809263e+000,
3.3750000000e+000,3.9693814659e+000,4.1658349675e+000,3.2739886694e+000,3.8548451856e+000,3.5423265092e+000,4.5288250476e+000,3.2919774430e+000,3.8705199607e+000,3.8785948333e+000,4.5787768219e+000,3.0372854561e+000,3.7332077770e+000,2.9044965856e+000,2.9256985596e+000,
3.4687500000e+000,3.9528816389e+000,4.2573722027e+000,3.0504696061e+000,3.7995547318e+000,3.3211967820e+000,3.9261267431e+000,3.0369605699e+000,3.7576193809e+000,3.8023594396e+000,4.3721838668e+000,2.9404438433e+000,3.6237747553e+000,2.8372272546e+000,2.9596176598e+000,
3.5625000000e+000,3.9610043285e+000,4.2465635867e+000,3.0597907897e+000,3.7996980635e+000,3.2953603707e+000,3.8874687993e+000,3.0123551214e+000,3.7409255012e+000,3.8112465439e+000,4.4400779106e+000,2.9443134604e+000,3.6229342876e+000,2.8564113155e+000,3.0032997687e+000,
3.6562500000e+000,3.9557609157e+000,4.0989359102e+000,3.0905614390e+000,3.7715062581e+000,3.3425282239e+000,3.9090521035e+000,3.0268108994e+000,3.8025995050e+000,3.8212748381e+000,4.3970530361e+000,2.7619223285e+000,3.6327917881e+000,2.8092444598e+000,3.0963148597e+000,
3.7500000000e+000,3.9247601077e+000,4.0422065174e+000,3.0704100811e+000,3.7984124446e+000,3.3112098775e+000,4.0517847691e+000,3.0360019070e+000,3.9425321100e+000,3.7676711443e+000,4.3262805124e+000,2.7150022688e+000,3.6591928399e+000,2.7135118211e+000,3.2122286532e+000,
3.8437500000e+000,3.9099419951e+000,4.0360608755e+000,3.0351245858e+000,3.7775233889e+000,3.1944137692e+000,4.0932399407e+000,3.0013615102e+000,3.9324642635e+000,3.6070465003e+000,4.2923523015e+000,2.6415967705e+000,3.5488520644e+000,2.7028653864e+000,3.0672288199e+000,
3.9375000000e+000,3.9625634989e+000,4.0582862982e+000,3.0291323769e+000,3.7815121270e+000,3.1860597819e+000,4.1181608546e+000,2.8687166557e+000,3.9124145728e+000,3.5451415432e+000,4.3390594037e+000,2.6349022157e+000,3.5877444118e+000,2.6538549718e+000,2.9246611808e+000,
4.0312500000e+000,3.7220652373e+000,3.8961015910e+000,2.7005609837e+000,3.4331436097e+000,3.0626263548e+000,3.9580133215e+000,2.7974518182e+000,3.6249051437e+000,3.4123104052e+000,4.2298630487e+000,2.7947442194e+000,3.5873409272e+000,2.6945471154e+000,3.0050612481e+000,
4.1250000000e+000,3.6816615563e+000,3.7993266803e+000,2.6632084405e+000,3.3720847120e+000,3.0103387087e+000,3.8492819274e+000,2.9160255108e+000,3.4913506832e+000,3.4424679218e+000,4.3417344124e+000,2.7614608612e+000,3.6466924334e+000,2.7506653550e+000,3.0510829259e+000,
4.2187500000e+000,3.6309308212e+000,3.7496004050e+000,3.0219180553e+000,3.4019288100e+000,3.0303061299e+000,3.8867150714e+000,2.8752472541e+000,3.4903537659e+000,3.4003167128e+000,4.3524928647e+000,2.6914423780e+000,3.5930621655e+000,2.6384066105e+000,3.1037364782e+000,
4.3125000000e+000,3.6420430161e+000,3.7867376126e+000,3.0748833018e+000,3.3738208163e+000,3.0174105905e+000,3.9295329029e+000,2.9123588620e+000,3.5675068055e+000,3.2792773017e+000,4.3079509136e+000,2.6167078594e+000,3.5880082654e+000,2.5004340831e+000,3.0911366829e+000,
4.4062500000e+000,3.3844780236e+000,3.6260719852e+000,3.0987331399e+000,3.2693334104e+000,2.9723680352e+000,3.9963165529e+000,2.8710260626e+000,3.5632710893e+000,3.3217280304e+000,4.2868161363e+000,2.6083987962e+000,3.5371918502e+000,2.5202760585e+000,3.1013151540e+000,
4.5000000000e+000,3.5788096838e+000,3.6406873779e+000,3.3101377597e+000,3.3748485450e+000,2.9898433300e+000,4.0088198883e+000,2.8921342219e+000,3.6091265527e+000,3.3522345398e+000,4.2587731481e+000,2.6854846244e+000,3.5547514602e+000,2.5358764125e+000,3.1423265045e+000,
4.5937500000e+000,3.5990886604e+000,3.6821851690e+000,3.3618252650e+000,3.4244506041e+000,2.9619897913e+000,4.0557589062e+000,2.9901794490e+000,3.6394889675e+000,3.3745715524e+000,4.2384252293e+000,2.6345280556e+000,3.5408791148e+000,2.6082559168e+000,3.0774464509e+000,
4.6875000000e+000,3.4435205142e+000,3.5901895884e+000,3.3205280323e+000,3.2424682736e+000,2.8472838930e+000,3.9427368098e+000,2.8854918188e+000,3.3889210320e+000,3.3819326180e+000,4.1268169250e+000,2.6097936271e+000,3.3956143306e+000,2.7791634178e+000,2.9469729200e+000,
4.7812500000e+000,3.4247345424e+000,3.5629271421e+000,3.3403412040e+000,3.2641434796e+000,2.8937170008e+000,3.7924764667e+000,2.8372696922e+000,3.3246023567e+000,3.4342215593e+000,4.1581447437e+000,2.7083294629e+000,3.4243200397e+000,2.8102308936e+000,2.9846783639e+000,
4.8750000000e+000,3.5984049822e+000,3.5769300229e+000,3.4855564874e+000,3.4038048839e+000,3.0126494291e+000,3.8676581872e+000,2.9724858931e+000,3.3353388484e+000,3.4203011482e+000,4.1526768187e+000,2.6521985549e+000,3.4637196804e+000,2.8412061506e+000,3.0375040537e+000,
4.9687500000e+000,3.7468518535e+000,3.7134378744e+000,3.5217035323e+000,3.4859737481e+000,3.0858732293e+000,3.8691286504e+000,3.0065821432e+000,3.3448802152e+000,3.4012590208e+000,4.0582407274e+000,2.5432749509e+000,3.4319862000e+000,2.9118771777e+000,3.1050652500e+000,
5.0625000000e+000,3.8438831477e+000,3.8122665805e+000,3.5518088955e+000,3.5421357859e+000,3.0751088823e+000,3.8932741640e+000,3.0463217796e+000,3.3111638130e+000,3.3898719233e+000,3.7589931745e+000,2.4472543040e+000,3.3199015557e+000,2.8709836499e+000,3.0850730919e+000,
5.1562500000e+000,3.8770268263e+000,3.8918616496e+000,3.6495918046e+000,4.0692199808e+000,3.1103159420e+000,3.9057290874e+000,2.9848698909e+000,3.5713004968e+000,3.2987085957e+000,3.7127815404e+000,2.3754832224e+000,3.2461131004e+000,2.7881057681e+000,3.0601247303e+000,
5.2500000000e+000,3.8797094376e+000,3.9395688589e+000,3.5071525052e+000,4.0808130952e+000,3.3412375044e+000,3.8280202037e+000,3.0626489372e+000,3.6379426084e+000,3.3294134493e+000,3.7427164822e+000,2.7497576464e+000,3.1996121628e+000,2.7822404964e+000,3.1869322317e+000,
5.3437500000e+000,3.8865218517e+000,3.9424295070e+000,3.4796487723e+000,4.0972092376e+000,3.3531453466e+000,3.8993646084e+000,3.0499121277e+000,3.6475896719e+000,3.3285629629e+000,3.7800708735e+000,2.8218075260e+000,3.2114586981e+000,2.7909667522e+000,3.1970871243e+000,
5.4375000000e+000,3.8215087804e+000,3.9572353012e+000,3.4304704939e+000,4.0800585421e+000,3.2858682347e+000,3.8698662083e+000,2.9927992610e+000,3.6199234124e+000,3.2573241880e+000,3.5571665480e+000,2.9160103736e+000,3.0756127675e+000,2.7125634529e+000,3.0684611248e+000,
5.5312500000e+000,3.6947984446e+000,3.8778125477e+000,3.2820367406e+000,4.5948424691e+000,3.2584750960e+000,3.8881756683e+000,2.9824885202e+000,3.6888065250e+000,3.2809848642e+000,3.6323542873e+000,2.9494482906e+000,3.0873563823e+000,2.6610551772e+000,3.0626623660e+000,
5.6250000000e+000,3.6688304245e+000,3.8369613461e+000,3.2690282846e+000,4.9515341063e+000,3.3063197012e+000,3.8476332345e+000,2.9188096915e+000,3.6728343981e+000,3.3120983185e+000,3.6817696945e+000,2.9990175720e+000,3.0321551508e+000,2.6352127374e+000,3.0882394424e+000,
5.7187500000e+000,3.7149198618e+000,3.8642397377e+000,3.3182307546e+000,5.1711601598e+000,3.3714306461e+000,3.9094456648e+000,2.9598283576e+000,3.8245202196e+000,3.2399074241e+000,3.8938846306e+000,2.9837994108e+000,3.1520662093e+000,2.4464360797e+000,3.1363686612e+000,
5.8125000000e+000,3.7932606066e+000,3.8509907931e+000,3.2932262507e+000,5.2457356945e+000,3.4347767601e+000,3.9355382282e+000,2.9380729297e+000,3.7809576585e+000,3.3713069825e+000,3.7711194680e+000,3.0301723894e+000,3.0417531186e+000,2.4571016698e+000,3.0935116191e+000,
5.9062500000e+000,3.5665254837e+000,3.7855683042e+000,3.1408029251e+000,5.3020794520e+000,3.3425904499e+000,3.9365813138e+000,2.7607978613e+000,3.8720278429e+000,3.3753550134e+000,3.9085258025e+000,3.1291522982e+000,2.9576178567e+000,2.4468391385e+000,3.1135526509e+000,
6.0000000000e+000,3.5734492427e+000,3.7055434086e+000,3.2122303475e+000,5.5962993276e+000,3.4168039848e+000,4.0078151435e+000,2.8432265098e+000,3.9684893948e+000,3.3410834778e+000,3.9379945348e+000,3.1623521413e+000,2.9889834541e+000,2.4415003531e+000,3.0620688927e+000,
6.0937500000e+000,3.6240828086e+000,3.8285542436e+000,3.1790930500e+000,6.0286561351e+000,3.4662438789e+000,4.0786448060e+000,2.7776091155e+000,3.9425920996e+000,3.3530859179e+000,3.9762211461e+000,3.1510575211e+000,3.0685425264e+000,2.4745656777e+000,3.0245284880e+000,
6.1875000000e+000,3.6026202528e+000,4.2399914120e+000,5.4546504893e+000,8.8931867843e+000,3.3964847723e+000,4.2129845139e+000,2.9638154369e+000,4.2825150102e+000,3.5052806096e+000,4.0384804227e+000,3.1702565662e+000,3.4598009455e+000,4.0373072588e+000,4.3649837783e+000,
6.2812500000e+000,3.6676896397e+000,5.1420554814e+000,7.0624329931e+000,1.1032804066e+001,3.4141570094e+000,4.4211445450e+000,3.7435303521e+000,4.9190342430e+000,3.4707779810e+000,4.1747204179e+000,3.2035916344e+000,4.0124910614e+000,5.3720197712e+000,5.7815583475e+000,
6.3750000000e+000,3.6989045004e+000,5.3024043393e+000,7.1298843429e+000,1.1351047452e+001,3.4740179873e+000,4.3951544624e+000,3.8254851456e+000,5.1883253160e+000,3.5015150085e+000,4.2160272261e+000,3.2440334051e+000,4.1063408940e+000,5.4566254374e+000,5.8510280700e+000,
6.4687500000e+000,4.8636788717e+000,6.9411234594e+000,9.4383058960e+000,1.1540697775e+001,4.5432107770e+000,5.8622595695e+000,5.9403246239e+000,6.2700167321e+000,4.4870170655e+000,5.7176649324e+000,4.2983748483e+000,5.8444737351e+000,7.7753827391e+000,8.2568855921e+000,
6.5625000000e+000,4.9464825836e+000,7.0050361403e+000,9.5057469008e+000,1.1758841824e+001,4.6149120005e+000,5.9014928224e+000,5.9970977296e+000,6.3501711830e+000,4.5815292708e+000,5.7586512501e+000,4.3917267786e+000,5.9063574461e+000,7.8426721650e+000,8.3232289384e+000,
6.6562500000e+000,4.9841028274e+000,7.0362336108e+000,9.5105539939e+000,1.1778098566e+001,4.6578586214e+000,5.9335972926e+000,6.0067031417e+000,6.3941091732e+000,4.6077899584e+000,5.7908455713e+000,4.5206722331e+000,5.9119941383e+000,7.8483283617e+000,8.3269450958e+000,
6.7500000000e+000,5.0917473977e+000,7.0471477459e+000,9.5107855751e+000,1.1778527355e+001,4.6836240901e+000,5.9562767702e+000,6.0103444712e+000,6.3935862790e+000,4.6031690672e+000,5.7816292812e+000,4.5190443234e+000,5.9302270798e+000,7.8478850570e+000,8.3269828594e+000,
6.8437500000e+000,5.1065471798e+000,7.0510404510e+000,9.5108615418e+000,1.1778846180e+001,4.6870858844e+000,5.9648724309e+000,6.0091342996e+000,6.4028226186e+000,4.5589266706e+000,5.7912962069e+000,4.5163055745e+000,5.9407639464e+000,7.8481656973e+000,8.3279474835e+000,
6.9375000000e+000,5.0830881906e+000,7.3411517352e+000,9.5121141566e+000,1.2938955304e+001,4.6768517281e+000,5.9540044663e+000,6.0115743216e+000,6.9358736309e+000,4.5628580386e+000,5.7776528827e+000,4.4858486173e+000,5.9455323606e+000,7.8493513716e+000,8.3282906575e+000,
7.0312500000e+000,5.0831697576e+000,7.8838411753e+000,9.5127637146e+000,1.3760845466e+001,4.6512072425e+000,5.9602494013e+000,6.0195110646e+000,7.6796193760e+000,4.5665228099e+000,5.8002966212e+000,4.4964181146e+000,5.9531212312e+000,7.8495538437e+000,8.3290211311e+000,
7.1250000000e+000,5.0579007000e+000,7.9582813821e+000,9.5127636310e+000,1.3846131358e+001,4.6335394376e+000,5.9661898787e+000,6.0195155343e+000,7.7581009156e+000,4.5723114554e+000,5.7980927960e+000,4.4938117829e+000,5.9498531484e+000,7.8491903508e+000,8.3307481518e+000,
7.2187500000e+000,5.0481098407e+000,7.9373287182e+000,9.4441774796e+000,1.3840285492e+001,4.6027255267e+000,5.9200238959e+000,5.9674281425e+000,7.7448641285e+000,4.5259376656e+000,5.7392985394e+000,4.4292096638e+000,5.8832093422e+000,7.7836173184e+000,8.2700211840e+000,
7.3125000000e+000,5.0363964003e+000,7.9190902079e+000,9.4213336860e+000,1.3781844435e+001,4.5878430883e+000,5.9124007033e+000,5.9465352487e+000,7.7204657297e+000,4.5086545912e+000,5.7517886043e+000,4.4090301484e+000,5.8653630198e+000,7.7638460448e+000,8.2518567918e+000,
7.4062500000e+000,4.9422428186e+000,7.8121264760e+000,9.1270336797e+000,1.3757159905e+001,4.5079600707e+000,5.5065938549e+000,5.5325952797e+000,7.6359230653e+000,4.4317888268e+000,5.1934015534e+000,4.3399094227e+000,5.4061294543e+000,7.4048983878e+000,7.9398316677e+000,
7.5000000000e+000,4.3311555581e+000,7.5296828292e+000,6.4423128088e+000,1.3731462751e+001,3.6622077466e+000,4.5348828612e+000,3.5406874624e+000,7.5246355449e+000,3.5342692862e+000,4.2913312580e+000,3.3875806446e+000,4.0387780470e+000,4.7875787946e+000,5.1680598207e+000,
7.5937500000e+000,4.2703642868e+000,7.5086520391e+000,4.1638339027e+000,1.3721683454e+001,3.5273557589e+000,4.5250913103e+000,3.2304032961e+000,7.5040737129e+000,3.3673804222e+000,4.2273502903e+000,3.3456070537e+000,3.8647207131e+000,3.2108105521e+000,3.5804100405e+000,
7.6875000000e+000,4.0314472320e+000,7.4932111366e+000,3.9277446399e+000,1.3720018031e+001,3.3589411153e+000,4.2676873604e+000,3.1398075352e+000,7.4999578578e+000,3.3338586769e+000,4.1447562436e+000,2.8758147122e+000,3.8537228188e+000,2.8335043415e+000,3.5765436372e+000,
7.7812500000e+000,3.8567622744e+000,7.4914345304e+000,3.9239466241e+000,1.3719972121e+001,3.2240066653e+000,4.2245185804e+000,3.1633256960e+000,7.5019050955e+000,3.3433037900e+000,4.1040711981e+000,2.8382059922e+000,3.7188769619e+000,2.9174228281e+000,3.5415809772e+000,
7.8750000000e+000,3.9001429798e+000,7.4786929914e+000,3.9824966806e+000,1.3712416876e+001,3.1806812869e+000,4.2162701658e+000,3.1729768411e+000,7.4726722090e+000,3.3853457365e+000,4.1176743728e+000,2.8550713048e+000,3.7063925043e+000,2.8925621549e+000,3.5173218937e+000,
7.9687500000e+000,3.8784782447e+000,6.6361378120e+000,3.3573408259e+000,1.2654043412e+001,3.2516208702e+000,4.3627690231e+000,3.0654077318e+000,6.5249979197e+000,3.3579973312e+000,4.1923374749e+000,2.9085125804e+000,3.7472310901e+000,2.6619459499e+000,3.5273859726e+000,
8.0625000000e+000,3.8640273710e+000,5.3980327337e+000,3.2803024933e+000,1.0886287124e+001,3.2139446723e+000,4.4950628302e+000,2.9445551057e+000,5.0849907444e+000,3.3208833695e+000,4.1522137460e+000,2.8833516460e+000,3.7826643617e+000,2.6241117980e+000,3.4365441674e+000,
8.1562500000e+000,3.9080924187e+000,4.2462195108e+000,3.3264302122e+000,7.9084410143e+000,3.2455859178e+000,4.4195424579e+000,3.0466747712e+000,4.2138031064e+000,3.3530618609e+000,4.1562650789e+000,2.8463532883e+000,3.7606421405e+000,2.5822077577e+000,3.2483994229e+000,
8.2500000000e+000,3.9284241402e+000,4.1004909158e+000,3.4532466911e+000,5.0344298315e+000,3.2689516244e+000,4.5361973527e+000,3.1021069683e+000,4.1570149292e+000,3.3517470165e+000,4.3373122358e+000,3.0255438416e+000,3.9375608418e+000,2.6005989449e+000,3.4114475176e+000,
8.3437500000e+000,4.3032315077e+000,4.3399198576e+000,3.4810499181e+000,4.2960573624e+000,3.7136991667e+000,4.5351304511e+000,3.2322010766e+000,4.1712118978e+000,3.4077774757e+000,4.3040328565e+000,3.0456344956e+000,3.8775297243e+000,2.6621330030e+000,3.4421993373e+000,
8.4375000000e+000,4.3784095624e+000,4.4997283788e+000,3.4492807501e+000,4.2444943165e+000,3.7022328712e+000,4.5989732320e+000,3.1508800376e+000,4.0796805356e+000,3.2816555503e+000,4.2098616891e+000,3.0058746484e+000,3.8188142167e+000,2.6102213306e+000,3.4156570107e+000,
8.5312500000e+000,4.2508864688e+000,4.3356669892e+000,3.4095873237e+000,4.1889526228e+000,3.6934985096e+000,4.4476593145e+000,3.1837468511e+000,4.0143357097e+000,3.2245457834e+000,4.1357888710e+000,2.9636011968e+000,3.7938683054e+000,2.6599091884e+000,3.4317824314e+000,
8.6250000000e+000,4.1649277211e+000,4.3392462649e+000,3.3125153811e+000,4.0398855076e+000,3.6961856804e+000,4.4258628170e+000,3.1849546049e+000,4.0182873495e+000,3.2925361333e+000,4.1054630280e+000,2.7456081584e+000,3.6820526759e+000,2.6434974412e+000,3.4012222263e+000,
8.7187500000e+000,4.1877908632e+000,4.3219646655e+000,3.3093928742e+000,3.9898580044e+000,3.6813182411e+000,4.4300830610e+000,3.1229527989e+000,4.0021529755e+000,3.2888116722e+000,4.0984064120e+000,2.7671037290e+000,3.6312920582e+000,2.5448897054e+000,3.4031250721e+000,
8.8125000000e+000,4.2125615362e+000,4.2753612850e+000,3.2805888152e+000,3.8416658471e+000,3.6880635395e+000,4.4376670788e+000,3.0958990177e+000,3.9086016134e+000,3.3114729375e+000,4.0902142572e+000,2.9251238176e+000,3.6045507671e+000,2.4614332735e+000,3.3436102571e+000,
8.9062500000e+000,4.1925635253e+000,4.2539691178e+000,3.1943561908e+000,3.6785848956e+000,3.6960945674e+000,4.4674324848e+000,3.1240473769e+000,3.8451361194e+000,3.3650095368e+000,4.0989380910e+000,2.9800983473e+000,3.5362196602e+000,2.6070192785e+000,3.2796262586e+000,
9.0000000000e+000,4.2327781801e+000,4.1860401232e+000,3.2206265740e+000,3.5813978442e+000,3.7195201113e+000,4.1290123389e+000,3.2111556699e+000,3.6430340717e+000,3.4359764275e+000,4.0169818206e+000,3.0499983431e+000,3.3594635122e+000,2.5962549548e+000,3.2167915023e+000,
9.0937500000e+000,4.2367391712e+000,4.2219315458e+000,3.1601890192e+000,3.6295132105e+000,3.7028426645e+000,4.1771152470e+000,3.1341807649e+000,3.5846632793e+000,3.4351502889e+000,4.1408996122e+000,3.1999781790e+000,3.3866393592e+000,2.7300003337e+000,3.3191954103e+000,
9.1875000000e+000,4.2626787004e+000,4.2095016609e+000,3.1272002565e+000,3.5898916335e+000,3.6787465936e+000,4.0633793845e+000,3.0514034272e+000,3.4008934973e+000,3.4400560936e+000,4.0650617197e+000,3.1875090981e+000,3.1281067121e+000,2.7576604974e+000,3.2825167314e+000,
9.2812500000e+000,4.2184294667e+000,4.1683884860e+000,3.0723067369e+000,3.4823168265e+000,3.4971766655e+000,4.0111684932e+000,3.0929269800e+000,3.3067812054e+000,3.5105350167e+000,4.0839842174e+000,3.1107211459e+000,3.1088566689e+000,2.7454694038e+000,3.2456479632e+000,
9.3750000000e+000,3.6361102167e+000,3.4592288650e+000,3.0672013294e+000,3.3882946762e+000,3.0717341040e+000,3.9735367144e+000,2.8741229780e+000,3.1807042565e+000,3.4733085149e+000,3.9880976000e+000,3.1091662114e+000,3.1707548029e+000,2.6256705997e+000,3.1898567394e+000,
9.4687500000e+000,3.6141311564e+000,3.3276231583e+000,3.0437803212e+000,3.3923230300e+000,3.0947134160e+000,4.0807068631e+000,2.8584385832e+000,3.2209070411e+000,3.4763105702e+000,4.0027606849e+000,3.0232078083e+000,3.2093891804e+000,2.5219237982e+000,3.1484039611e+000,
9.5625000000e+000,3.6536347956e+000,3.3593412448e+000,3.0424151739e+000,3.3614272315e+000,2.9584493401e+000,4.0877084092e+000,2.7891056677e+000,3.1996057060e+000,3.5158733371e+000,4.0414749264e+000,3.0763179639e+000,3.2381077052e+000,2.5236050068e+000,3.0969638083e+000,
9.6562500000e+000,3.6540235604e+000,3.3586275051e+000,3.0993467782e+000,3.4100231805e+000,2.9504665145e+000,4.0887151612e+000,2.7238368877e+000,3.1845470175e+000,3.4438544809e+000,4.0525428246e+000,3.1716523286e+000,3.3063134518e+000,2.6405019363e+000,3.0605849335e+000,
9.7500000000e+000,3.5507738559e+000,3.3803532569e+000,3.2306316255e+000,3.4036354440e+000,3.0481707673e+000,4.1833961167e+000,2.7089204660e+000,3.1126219252e+000,3.4106675486e+000,4.0757389536e+000,3.1583651845e+000,3.3912019289e+000,2.6514602985e+000,3.0681327740e+000,
9.8437500000e+000,3.7577401282e+000,5.4098533022e+000,3.2959898167e+000,3.5024671814e+000,3.4639739020e+000,4.3112630741e+000,3.0303886163e+000,3.3691334785e+000,3.3253217719e+000,4.0375203736e+000,3.0985853868e+000,3.4726329061e+000,2.7024496561e+000,3.1361996999e+000,
9.9375000000e+000,3.7389718861e+000,1.0926973680e+001,3.3118673805e+000,3.7243755999e+000,3.5067918719e+000,4.7760698552e+000,3.0640085854e+000,3.4154180394e+000,3.2669049525e+000,4.1743915110e+000,3.1085112820e+000,3.4522516722e+000,2.5807972970e+000,3.0376726029e+000,
1.0031250000e+001,3.6513908148e+000,1.1122815255e+001,3.4255615866e+000,4.2818588102e+000,3.6803955321e+000,4.9237762403e+000,3.0803560611e+000,3.3791380611e+000,3.1935448190e+000,4.2769327627e+000,2.8393138713e+000,3.3384958420e+000,2.5306269361e+000,2.9153527972e+000,
1.0125000000e+001,3.7106818986e+000,1.1126325643e+001,3.4668453440e+000,4.4588320690e+000,3.7393373100e+000,4.8668675590e+000,3.1263292947e+000,3.3997390544e+000,3.1747090368e+000,4.2219408251e+000,2.7973920059e+000,3.4425341378e+000,2.6038984283e+000,3.0739364153e+000,
1.0218750000e+001,3.6951709459e+000,1.1126746596e+001,3.5008029475e+000,4.4751464514e+000,3.7842879385e+000,4.8789977512e+000,3.1337862688e+000,3.6723456361e+000,3.0837076645e+000,4.2856687927e+000,2.7670055478e+000,3.4870246382e+000,2.7205874832e+000,3.2594217580e+000,
1.0312500000e+001,3.6161963167e+000,1.1126899688e+001,3.4065595500e+000,4.4867662077e+000,3.7700683246e+000,4.8471774404e+000,3.0868170332e+000,3.7723943315e+000,2.9193966967e+000,4.2947836627e+000,2.8064099617e+000,3.5739468498e+000,2.7631247608e+000,3.3223109379e+000,
1.0406250000e+001,3.5843383987e+000,1.1126921976e+001,3.3937527250e+000,4.4762863883e+000,3.7315703012e+000,4.7713515318e+000,3.1369670423e+000,3.7533758419e+000,2.9895689265e+000,4.3139357029e+000,2.9161203178e+000,3.6007106138e+000,2.8387371966e+000,3.3144808324e+000,
1.0500000000e+001,3.5537690728e+000,1.1127034256e+001,3.3920230155e+000,4.4929573726e+000,3.7194143937e+000,4.7599881030e+000,3.1622799864e+000,3.7461346341e+000,3.0228471059e+000,4.3984788688e+000,2.9441013726e+000,3.6092086258e+000,2.8535037506e+000,3.3510102898e+000,
1.0593750000e+001,3.6209412367e+000,1.1127183463e+001,3.3500740771e+000,4.4825166031e+000,3.7388137936e+000,4.7873980311e+000,3.2702621502e+000,3.7937924747e+000,3.0344310479e+000,4.4571768850e+000,2.9552946428e+000,3.6305398719e+000,2.8347311819e+000,3.3948027640e+000,
1.0687500000e+001,3.6051791906e+000,1.1127204881e+001,3.2644320181e+000,4.4883703728e+000,3.7377050438e+000,4.8122102188e+000,3.3893777012e+000,3.9294629544e+000,3.1446256988e+000,4.4355163816e+000,2.9516262774e+000,3.5998490584e+000,2.8615145618e+000,3.4792835072e+000,
1.0781250000e+001,3.7004727956e+000,1.1127453838e+001,3.2823363972e+000,4.5502588011e+000,3.7830237900e+000,4.8630180857e+000,3.3894654181e+000,4.0507758929e+000,3.1402892238e+000,4.4044824768e+000,2.9494361285e+000,3.6201704269e+000,2.8546992761e+000,3.4752532190e+000,
1.0875000000e+001,3.5523915387e+000,1.0808516840e+001,3.2301687557e+000,4.4827691799e+000,3.5761679283e+000,4.6267896090e+000,3.1536819647e+000,3.9458728069e+000,3.1668712510e+000,4.4634079463e+000,2.9536429495e+000,3.5903701622e+000,2.8753298351e+000,3.4382404040e+000,
1.0968750000e+001,3.5707568630e+000,7.9049745471e+000,3.1628000826e+000,4.3244973998e+000,3.5253854312e+000,4.0094180461e+000,3.1133010287e+000,3.9489475554e+000,3.2835503226e+000,4.2558986652e+000,2.9896265034e+000,3.5920778829e+000,2.9306683999e+000,3.4532429290e+000,
1.1062500000e+001,3.6108213718e+000,5.7963236512e+000,3.0156965065e+000,3.5369040098e+000,3.4128007484e+000,4.0531669092e+000,3.1031547626e+000,3.9667346399e+000,3.4568908357e+000,4.2178114251e+000,3.0978304214e+000,3.6935488349e+000,3.0584999263e+000,3.5608065578e+000,
1.1156250000e+001,3.5057369550e+000,5.1203331631e+000,2.9772984369e+000,3.5366140289e+000,3.2885193994e+000,4.0681629278e+000,3.0344811268e+000,3.9217974144e+000,3.4542621685e+000,4.1237291956e+000,3.1288588204e+000,3.5756786551e+000,2.9912016184e+000,3.4734597817e+000,
1.1250000000e+001,3.4617036778e+000,5.0288209927e+000,2.9903266082e+000,3.3900479700e+000,3.2844870793e+000,4.0840488677e+000,3.0010447075e+000,3.7935255489e+000,3.5238834428e+000,4.0321703252e+000,3.1378408782e+000,3.5034182397e+000,2.9475937407e+000,3.4156195822e+000,
1.1343750000e+001,3.5338462174e+000,4.9662922146e+000,3.1338404482e+000,3.4770851858e+000,3.3726290237e+000,4.0793772464e+000,2.9420158856e+000,3.8606443369e+000,3.5230825836e+000,4.0822416027e+000,3.1317694173e+000,3.4467649532e+000,2.9301177714e+000,3.3658087859e+000,
1.1437500000e+001,3.6970805178e+000,5.0084061840e+000,3.3342609459e+000,3.7414960107e+000,3.4310062899e+000,4.1894772962e+000,3.0201641052e+000,4.0546707834e+000,3.5311685153e+000,4.3213297790e+000,3.0274721989e+000,3.5144936505e+000,2.9248364990e+000,3.3671501999e+000,
1.1531250000e+001,3.6844025239e+000,4.9439319082e+000,3.4334094380e+000,3.8015093408e+000,3.4862379297e+000,4.3433630984e+000,3.0204177098e+000,4.0842069708e+000,3.4669639153e+000,4.3567722241e+000,3.0364762734e+000,3.5402604476e+000,2.8673725192e+000,3.3513120007e+000,
1.1625000000e+001,3.6915738726e+000,5.0321229461e+000,3.4671094353e+000,3.8281046638e+000,3.5002371477e+000,4.3536374310e+000,2.9026479727e+000,4.0606880435e+000,3.4530650440e+000,4.3330451377e+000,2.9745341869e+000,3.4650443036e+000,2.8572748333e+000,3.1981299576e+000,
1.1718750000e+001,3.8861637608e+000,5.3839562940e+000,3.3858060514e+000,3.8318233541e+000,3.4841863671e+000,4.5129892611e+000,3.0017409164e+000,4.0438471410e+000,3.3989031496e+000,4.3962069113e+000,2.9714197862e+000,3.4550700251e+000,2.9541009085e+000,3.3054526603e+000,
1.1812500000e+001,3.8163053635e+000,5.3551632913e+000,3.4046207882e+000,3.8732641474e+000,3.3815989035e+000,4.5132066183e+000,3.1180909185e+000,4.0442201900e+000,3.4139030598e+000,4.3903927678e+000,2.9477956309e+000,3.4381979115e+000,2.9782972104e+000,3.3321398865e+000,
1.1906250000e+001,3.8027117189e+000,5.0543644099e+000,3.4397809056e+000,3.8682817099e+000,3.3696785974e+000,4.5681551961e+000,3.1729513670e+000,4.0179151654e+000,3.3610191167e+000,4.4931655632e+000,2.9266522771e+000,3.5709980272e+000,2.9362853815e+000,3.4060743256e+000,
1.2000000000e+001,3.7475918952e+000,4.9841074849e+000,3.4082885659e+000,3.8704311569e+000,3.1984143140e+000,4.5990201464e+000,3.0947411710e+000,4.0088393924e+000,3.3131711510e+000,4.5111858533e+000,2.7958411826e+000,3.5913180370e+000,2.7587256968e+000,3.2839102874e+000,
1.2093750000e+001,3.7466993405e+000,4.9786279213e+000,3.4029995481e+000,3.8664122871e+000,3.2206510039e+000,4.6012477250e+000,3.0812877231e+000,4.0517388371e+000,3.2268254435e+000,4.6005574302e+000,2.8378915766e+000,3.6085995051e+000,2.8347531499e+000,3.2009160294e+000,
1.2187500000e+001,3.7843268886e+000,4.9967887600e+000,3.3564631886e+000,3.8837879442e+000,3.2783063097e+000,4.7026954974e+000,3.2057001874e+000,4.1447306049e+000,3.1863006287e+000,4.6656164684e+000,3.2677476298e+000,3.7017942227e+000,3.2173662299e+000,3.1855414906e+000,
1.2281250000e+001,3.8766041726e+000,5.1102460334e+000,3.3308881304e+000,3.9625081656e+000,3.3478797355e+000,4.8464682559e+000,3.2023034854e+000,4.2934879625e+000,3.2075825703e+000,4.7330771794e+000,3.4447427763e+000,3.7754802853e+000,3.2697663446e+000,3.2512296175e+000,
1.2375000000e+001,3.9392153436e+000,5.2318739615e+000,3.2349357068e+000,3.8401572895e+000,3.4949763605e+000,4.9964111281e+000,3.2953292519e+000,4.4870874803e+000,3.3016429113e+000,4.8054260558e+000,3.9381962706e+000,3.8897833677e+000,3.3680259036e+000,3.5195414401e+000,
1.2468750000e+001,3.9498848208e+000,5.2309789645e+000,3.2459097736e+000,5.6435117691e+000,3.4517976403e+000,4.8949633152e+000,3.2221900168e+000,1.1547514871e+001,3.4141565415e+000,4.6532272172e+000,4.1011769261e+000,4.9570862403e+000,3.5390042530e+000,3.6744512169e+000,
1.2562500000e+001,3.9433217964e+000,5.2305484667e+000,3.2026348868e+000,5.7783914854e+000,3.5339352058e+000,4.9444103096e+000,3.2302691094e+000,1.1776992930e+001,3.4608033125e+000,4.8024384908e+000,4.0989181381e+000,5.0761875068e+000,3.5632949476e+000,3.7240626424e+000,
1.2656250000e+001,3.8797089636e+000,5.0380955260e+000,3.1652416259e+000,5.7787905728e+000,3.5027213037e+000,4.8762108883e+000,3.1820276552e+000,1.1784278031e+001,3.4140921791e+000,4.8774879478e+000,4.0816863302e+000,5.1900944718e+000,3.5701935050e+000,3.7178213877e+000,
1.2750000000e+001,3.8914437707e+000,4.5223302797e+000,3.4335063777e+000,5.7858150739e+000,3.6123130345e+000,4.8302675901e+000,3.2169855922e+000,1.1784531110e+001,3.8491346991e+000,5.1914098928e+000,4.2485769298e+000,5.3341871893e+000,3.7141446752e+000,3.6970599860e+000,
1.2843750000e+001,4.0929223844e+000,4.5581965134e+000,3.5595448604e+000,5.7743187439e+000,4.0117092476e+000,4.8778619743e+000,3.2411537318e+000,1.1784585246e+001,3.9024050362e+000,5.2396535329e+000,4.2547314996e+000,5.3679749476e+000,3.7388739340e+000,3.8472092749e+000,
1.2937500000e+001,4.1660348970e+000,4.6661251774e+000,3.6207858199e+000,5.7879807426e+000,4.2767381699e+000,4.9031277489e+000,3.3723729464e+000,1.1784665043e+001,3.9509403940e+000,5.3053378508e+000,4.3000580566e+000,5.3902434122e+000,3.7343250796e+000,3.8021116995e+000,
1.3031250000e+001,4.2735470327e+000,4.7770503269e+000,3.6649408607e+000,5.7950489675e+000,4.3336755095e+000,4.9296362920e+000,3.4182691909e+000,1.1784666499e+001,3.9453834907e+000,5.3144030684e+000,4.3202050177e+000,5.3911630506e+000,3.7395240635e+000,3.8726968851e+000,
1.3125000000e+001,4.2478308814e+000,4.7751551682e+000,3.6571187420e+000,5.7945480926e+000,4.3427755313e+000,4.8166045354e+000,3.4098483793e+000,1.1784603383e+001,3.9561404822e+000,5.3644133390e+000,4.2603056298e+000,5.3839962983e+000,3.6387935395e+000,3.9102594144e+000,
1.3218750000e+001,4.2439189722e+000,4.7764715158e+000,3.6902060924e+000,5.7862579204e+000,4.3234609169e+000,4.7660068168e+000,3.2908905681e+000,1.1784540876e+001,3.9540924564e+000,5.3417653226e+000,4.1708255155e+000,5.3702803680e+000,3.4639166539e+000,3.8118838861e+000,
1.3312500000e+001,4.1167963239e+000,4.4877501456e+000,3.7082617538e+000,5.7803313532e+000,4.2503779998e+000,4.4384815217e+000,3.2539244809e+000,1.1784461688e+001,3.9363894648e+000,5.3237070529e+000,4.1202502517e+000,5.3736379536e+000,3.5068346942e+000,3.7916211599e+000,
1.3406250000e+001,4.0823123588e+000,4.4481877671e+000,3.7013485761e+000,5.7859475514e+000,4.1773149553e+000,4.4604715675e+000,3.2481830819e+000,1.1769202030e+001,3.8398772428e+000,5.3512194928e+000,3.6653227445e+000,5.3745413113e+000,3.3651264504e+000,3.6353080798e+000,
1.3500000000e+001,4.1231090804e+000,4.4870405264e+000,3.6644934957e+000,4.0577798487e+000,4.1739433838e+000,4.4790501862e+000,3.1789878480e+000,9.0635203800e+000,3.7891302499e+000,5.2955282171e+000,3.7761278605e+000,4.7532669420e+000,3.3895523468e+000,3.5736901363e+000,
1.3593750000e+001,4.2013916915e+000,4.5873380912e+000,3.7768835135e+000,3.8673190142e+000,4.1644611151e+000,4.4781336763e+000,3.2361072794e+000,6.1053826943e+000,3.8277424712e+000,5.2744967709e+000,3.9809819141e+000,4.5708831066e+000,3.4961343825e+000,3.5188282610e+000,
1.3687500000e+001,4.2747159461e+000,4.8105847979e+000,3.8020101780e+000,3.9240413778e+000,4.2290094969e+000,4.5761593974e+000,3.2539226872e+000,4.6486136469e+000,3.8376302828e+000,5.1503019211e+000,3.9263901566e+000,4.2743283875e+000,3.3951877319e+000,3.5100809499e+000,
1.3781250000e+001,4.1463083139e+000,4.7621685799e+000,3.5432872073e+000,3.9054947328e+000,4.0150756705e+000,4.5109146565e+000,3.2012113678e+000,4.6063065067e+000,3.6020461248e+000,4.9853258276e+000,3.9413618275e+000,4.2904873681e+000,3.2829509077e+000,3.5239235474e+000,
1.3875000000e+001,4.1166598926e+000,4.7532371470e+000,3.4839135251e+000,3.8745275738e+000,3.8168441095e+000,4.4488257316e+000,3.2454863983e+000,4.5060816819e+000,3.5190033655e+000,4.9143836629e+000,3.9700247367e+000,4.3794605833e+000,3.4631339378e+000,3.5033210977e+000,
1.3968750000e+001,3.9748662073e+000,4.6140741978e+000,3.3883985600e+000,3.8902939529e+000,3.4420965099e+000,4.2678742769e+000,3.1234303290e+000,4.4558315913e+000,3.4403735077e+000,4.8801561580e+000,4.0330946945e+000,4.2272908733e+000,3.4401126774e+000,3.4915418440e+000,
1.4062500000e+001,3.9280501578e+000,4.5077383315e+000,3.4431358880e+000,3.8718489853e+000,3.4432328790e+000,4.3158175450e+000,3.2140545258e+000,4.5027232224e+000,3.3950640626e+000,4.8247523369e+000,4.0542224366e+000,4.2816106491e+000,3.4235419660e+000,3.4186827273e+000,
1.4156250000e+001,3.9065761098e+000,4.4920531318e+000,3.4126246621e+000,3.9064550706e+000,3.3501726730e+000,4.4355814025e+000,3.2364956209e+000,4.5815309462e+000,3.4391027149e+000,4.8105913884e+000,4.1164903162e+000,4.2631319548e+000,3.4559578918e+000,3.4797557333e+000,
1.4250000000e+001,3.9036512007e+000,4.5887321666e+000,3.3528750882e+000,3.8887241804e+000,3.3803716314e+000,4.4399892218e+000,3.2892410436e+000,4.6051749133e+000,3.5697569317e+000,4.8589230190e+000,4.0830096455e+000,4.2898884944e+000,3.5147154417e+000,3.5700633505e+000,
1.4343750000e+001,4.0433312954e+000,4.6523290350e+000,3.3912741155e+000,3.8519664960e+000,3.6535360568e+000,4.4500384866e+000,3.3791339952e+000,4.6236269346e+000,3.7850952073e+000,4.9352073422e+000,4.1359531246e+000,4.1982498468e+000,3.5316797241e+000,3.4893184499e+000,
1.4437500000e+001,3.9162566472e+000,4.5536588740e+000,3.2930679107e+000,3.7249411941e+000,3.8582454268e+000,4.2793361480e+000,3.3110700524e+000,4.4953985172e+000,3.8176031709e+000,4.8597959753e+000,4.0366236660e+000,4.2692095958e+000,3.4412883028e+000,3.4698288912e+000,
1.4531250000e+001,4.0346907876e+000,4.5597042348e+000,3.3363151759e+000,3.7414107272e+000,3.8946906953e+000,4.2659244521e+000,3.3286671489e+000,4.4963859540e+000,3.8012771556e+000,4.7886830491e+000,3.9463432269e+000,4.2575465684e+000,3.3975546202e+000,3.5355271050e+000,
1.4625000000e+001,3.9606466187e+000,4.3784364299e+000,3.1458613734e+000,3.6436858965e+000,3.8388429794e+000,4.1482601916e+000,3.3179897997e+000,4.4733178534e+000,3.8303071364e+000,4.9971855268e+000,3.7053578366e+000,4.4461536586e+000,3.2844890786e+000,3.5407935398e+000,
1.4718750000e+001,3.7987156731e+000,3.9951530225e+000,3.0221359270e+000,3.3506648166e+000,3.6966366601e+000,3.8054478762e+000,3.2164464363e+000,3.9249280224e+000,3.7667590100e+000,4.9957556800e+000,3.6405881502e+000,4.4011968338e+000,3.3166324732e+000,3.4897222703e+000,
1.4812500000e+001,3.6352190234e+000,3.8975705886e+000,2.9852112279e+000,3.2311644751e+000,3.6929619228e+000,3.7757276683e+000,3.1411266693e+000,3.9125228956e+000,3.7691717897e+000,4.9397685898e+000,3.6834360135e+000,4.3146516376e+000,3.2817406408e+000,3.4198170292e+000,
1.4906250000e+001,3.6302807876e+000,4.0208233576e+000,3.0130317866e+000,3.3699533997e+000,3.8278727632e+000,3.9110709822e+000,3.1219878354e+000,4.1062209947e+000,3.8246757972e+000,4.9499880362e+000,3.8061237728e+000,4.3551664837e+000,3.0778677121e+000,3.3847579982e+000,
1.5000000000e+001,3.7721130193e+000,4.4903849811e+000,3.1274577955e+000,3.5407077135e+000,4.1002788375e+000,4.1263660637e+000,3.2168124135e+000,4.3920815622e+000,4.1323347149e+000,5.1963987785e+000,3.7496375192e+000,4.5225101860e+000,3.2875442120e+000,3.5594759598e+000,
1.5093750000e+001,3.7860764786e+000,4.6010729766e+000,3.0956738947e+000,3.4868486025e+000,4.1106791974e+000,4.0040376292e+000,3.1758011562e+000,4.3189863712e+000,4.2458525553e+000,5.2315434124e+000,3.6417678161e+000,4.5298136761e+000,3.3155426370e+000,3.6047817091e+000,
1.5187500000e+001,3.8782107286e+000,4.6650895203e+000,3.2067654848e+000,3.6404330375e+000,4.1694440905e+000,4.0520026500e+000,3.1894401961e+000,4.3744074941e+000,4.2189768210e+000,5.2908292970e+000,3.7481514736e+000,4.6263094895e+000,3.3998930574e+000,3.8941189042e+000,
1.5281250000e+001,4.1740261437e+000,4.6453329855e+000,3.4051897887e+000,3.8183486083e+000,4.2991682306e+000,4.0628135814e+000,3.3308964538e+000,4.3986477176e+000,4.1954762687e+000,5.3159211331e+000,3.7499768905e+000,4.6321397804e+000,3.5270387320e+000,3.8879231240e+000,
1.5375000000e+001,4.1042441860e+000,4.5957777481e+000,3.2850030633e+000,3.7814077902e+000,4.1594662168e+000,4.1131212094e+000,3.2276656386e+000,4.4155298273e+000,4.1243392392e+000,5.2377208806e+000,3.8813876590e+000,4.5576730524e+000,3.4773821495e+000,3.8965100182e+000,
1.5468750000e+001,4.1322226823e+000,4.5863566879e+000,3.3438086445e+000,3.8357359550e+000,4.0958724720e+000,4.1507531520e+000,3.3742746184e+000,4.4439635045e+000,4.2182901879e+000,5.2676694502e+000,3.9001645119e+000,4.5381284944e+000,3.5547808586e+000,3.9792522108e+000,
1.5562500000e+001,4.1966053480e+000,4.7251170310e+000,3.4889895813e+000,3.8915553603e+000,4.1437810006e+000,4.3877883346e+000,3.5416634592e+000,4.4446473729e+000,4.2254805870e+000,5.2995919985e+000,3.9340713110e+000,4.6373406925e+000,3.5981373023e+000,4.0912299079e+000,
1.5656250000e+001,4.2823290551e+000,4.8182355807e+000,3.6598714757e+000,3.9983988221e+000,4.1677734135e+000,4.4561187638e+000,3.6934602929e+000,4.6159756348e+000,4.3190681154e+000,5.2577894262e+000,4.0285503888e+000,4.5164224698e+000,3.6537224454e+000,4.0996237655e+000,
1.5750000000e+001,4.2992586582e+000,4.9258683530e+000,3.7001842717e+000,4.0378674772e+000,4.2577242700e+000,4.4915598495e+000,3.7174086067e+000,4.5997315964e+000,4.4871957226e+000,5.2937592012e+000,3.9783389607e+000,4.5716677524e+000,3.7275749241e+000,4.1512586013e+000,
1.5843750000e+001,4.3490010140e+000,4.9448311622e+000,3.6684949971e+000,4.0561997689e+000,4.2085424332e+000,4.4894325972e+000,3.7325530776e+000,4.5989323949e+000,4.5111318531e+000,5.2598055891e+000,3.9807017335e+000,4.5176179903e+000,3.7247670119e+000,4.1756979578e+000,
1.5937500000e+001,4.3410544837e+000,4.8909175145e+000,3.6657069346e+000,3.9677154784e+000,4.2160801694e+000,4.4425260727e+000,3.7603298926e+000,4.4530557461e+000,4.4721240748e+000,5.1890384214e+000,3.9186735477e+000,4.4312288208e+000,3.7594662580e+000,4.1233236434e+000,
1.6031250000e+001,4.3149264337e+000,4.6369741407e+000,3.6538213424e+000,3.9789156034e+000,3.9547496778e+000,4.3821497898e+000,3.7723521291e+000,4.3206991255e+000,4.2878347032e+000,5.0071509592e+000,3.8415426820e+000,4.4599097476e+000,3.6811431273e+000,4.2601546778e+000,
1.6125000000e+001,4.3546311787e+000,4.6277544865e+000,3.7111304841e+000,4.0299990287e+000,3.9379235008e+000,4.4019751740e+000,3.8120965311e+000,4.4448636955e+000,4.2621727116e+000,4.9280310978e+000,3.8895238237e+000,4.3170031779e+000,3.6337729906e+000,4.1065274386e+000,
1.6218750000e+001,4.2151724310e+000,4.5344828825e+000,3.6751889806e+000,3.9955088065e+000,3.7768373045e+000,4.3796010116e+000,3.7573470302e+000,4.4975039398e+000,4.2830321020e+000,4.8366823236e+000,3.8230072405e+000,4.2734337215e+000,3.5683918142e+000,3.9850891171e+000,
1.6312500000e+001,4.1506396667e+000,4.4991064985e+000,3.6546061387e+000,3.9967211685e+000,3.7066959473e+000,4.4042673293e+000,3.7296327507e+000,4.4596212351e+000,4.2716383174e+000,4.8162888214e+000,3.7778048398e+000,4.3031874313e+000,3.5414196034e+000,4.0391882066e+000,
1.6406250000e+001,4.2177798838e+000,4.5549048280e+000,3.7257947691e+000,4.1652977082e+000,3.9703440537e+000,4.5461878007e+000,3.7791795494e+000,4.5506013017e+000,4.2557711581e+000,4.8782425930e+000,3.6809891888e+000,4.3875932477e+000,3.5667820939e+000,4.2346266517e+000,
1.6500000000e+001,4.2253903410e+000,4.6928122669e+000,3.7770852263e+000,4.2376752473e+000,3.9529143129e+000,4.6415084943e+000,3.7470319686e+000,4.6047885769e+000,4.2405225195e+000,4.8009354845e+000,3.6770960742e+000,4.3322336033e+000,3.5661249913e+000,4.3089600500e+000,
1.6593750000e+001,4.0556179923e+000,4.6506204635e+000,3.7182540346e+000,4.3037920611e+000,4.0969456588e+000,4.7160773278e+000,3.5423897069e+000,4.7989848999e+000,4.2814363024e+000,4.7059639192e+000,3.6955150465e+000,4.2088419642e+000,3.6156414972e+000,4.2692420161e+000,
1.6687500000e+001,3.9504787891e+000,4.5828481953e+000,3.6648254662e+000,4.2159310210e+000,4.2523685099e+000,4.7366793368e+000,3.4473268079e+000,4.6906875017e+000,4.0616982333e+000,4.5260713556e+000,3.5646881610e+000,4.1228300146e+000,3.5712612545e+000,4.2507636617e+000,
1.6781250000e+001,3.9223562765e+000,4.4990991721e+000,3.6751838677e+000,4.2017101048e+000,4.3983064389e+000,4.7971776853e+000,3.3853098477e+000,4.6918580062e+000,3.8952499508e+000,4.4630632632e+000,3.5645743287e+000,4.1728225318e+000,3.4823238199e+000,4.3778141108e+000,
1.6875000000e+001,4.1025216779e+000,4.7034372095e+000,3.7997002427e+000,4.2376482714e+000,4.8272761820e+000,4.9143415439e+000,3.3759691790e+000,4.7282323785e+000,3.8199252747e+000,4.4543929523e+000,3.4553668835e+000,4.1705540666e+000,3.4363895574e+000,4.3788190342e+000,
1.6968750000e+001,4.2165604560e+000,4.7644274786e+000,3.7324233425e+000,4.2390466780e+000,4.8131698276e+000,4.8905764080e+000,3.3270342987e+000,4.7618396639e+000,3.8376176629e+000,4.4656989877e+000,3.5181544410e+000,3.9125297305e+000,3.5166150630e+000,4.2496018853e+000,
1.7062500000e+001,4.2215030918e+000,4.7525814546e+000,3.7745714125e+000,4.2250548898e+000,4.8258170254e+000,4.8885159590e+000,3.3220492512e+000,4.7298997819e+000,3.6439506684e+000,4.4378943896e+000,3.6015790549e+000,4.0207696573e+000,3.4930041573e+000,4.3479312233e+000,
1.7156250000e+001,4.1754957654e+000,4.7851702641e+000,3.6985473135e+000,4.1801666274e+000,4.8336578225e+000,4.8819775503e+000,3.2330897900e+000,4.6352371817e+000,3.6836867866e+000,4.6625674844e+000,3.6136848671e+000,4.1781071641e+000,3.5454205812e+000,4.3996415575e+000,
1.7250000000e+001,4.1466070180e+000,4.8122404765e+000,3.6794061984e+000,4.2957127900e+000,4.8385352861e+000,4.8840433901e+000,3.2616707460e+000,4.6487899716e+000,3.6641701326e+000,4.6699833956e+000,3.5923760258e+000,4.2938859281e+000,3.6338419371e+000,4.4501261236e+000,
1.7343750000e+001,4.1498026915e+000,4.8153948232e+000,3.6569256353e+000,4.2817889503e+000,4.8341900682e+000,4.8995242499e+000,3.2743970557e+000,4.6540716077e+000,3.6828430208e+000,4.7272281380e+000,3.5299300810e+000,4.2420809620e+000,3.4830537908e+000,4.3905603199e+000,
1.7437500000e+001,4.0576869102e+000,4.7668352020e+000,3.6045272110e+000,4.1709281032e+000,4.7907276977e+000,4.8488369022e+000,3.2791762762e+000,4.6061999282e+000,3.7436005861e+000,4.8509709627e+000,3.5573494562e+000,4.1828905420e+000,3.4935475868e+000,4.1408857227e+000,
1.7531250000e+001,3.9726108627e+000,4.6181813212e+000,3.3919690725e+000,4.0574579991e+000,4.7899722943e+000,4.7607481354e+000,3.2741624995e+000,4.6371546754e+000,3.8680406021e+000,4.9411675113e+000,3.5872367326e+000,4.1697752645e+000,3.4596153660e+000,4.0182171493e+000,
1.7625000000e+001,4.0246653079e+000,4.4932099761e+000,3.3840842499e+000,3.9667949101e+000,4.6645011053e+000,4.5266042703e+000,3.2725977762e+000,4.3722579592e+000,3.7848719268e+000,4.9242738694e+000,3.5588167325e+000,4.2399765266e+000,3.3941067895e+000,4.0562390444e+000,
1.7718750000e+001,4.1486190943e+000,4.5578560152e+000,3.3775521991e+000,3.9545533145e+000,4.6578428152e+000,4.5649568859e+000,3.3191087673e+000,4.4715380460e+000,3.7550433387e+000,4.9532458058e+000,3.5529781157e+000,4.1607469967e+000,3.4829695892e+000,3.9878838240e+000,
1.7812500000e+001,4.0982480487e+000,4.5474339071e+000,3.3242435514e+000,3.9193845444e+000,4.2904910182e+000,4.3729582914e+000,3.3062268093e+000,4.4396132057e+000,3.7671789500e+000,4.9502378900e+000,3.5609938017e+000,4.2028734114e+000,3.5414896406e+000,3.9467289067e+000,
1.7906250000e+001,3.8470388886e+000,4.3842366672e+000,3.1672008299e+000,3.8704965572e+000,3.8764804821e+000,4.2159245256e+000,3.2992601511e+000,4.4474937974e+000,3.8223216613e+000,4.9433979406e+000,3.5553722904e+000,4.1773587988e+000,3.5712556452e+000,3.9814086835e+000,
1.8000000000e+001,3.6203256805e+000,4.2817688219e+000,3.0967063301e+000,3.7391478094e+000,3.7988932854e+000,4.1838216571e+000,3.1648587929e+000,4.3803379067e+000,3.9032961351e+000,4.9805952751e+000,3.3362698709e+000,4.2397527583e+000,3.5006976609e+000,3.9300337059e+000,
1.8093750000e+001,3.6901762793e+000,4.3464557710e+000,3.2895747708e+000,3.8089897850e+000,3.8612481593e+000,4.3038235715e+000,3.2160010428e+000,4.4378642998e+000,3.9145928189e+000,5.4236248883e+000,3.3808073400e+000,5.5779385999e+000,3.4725555431e+000,3.8257324110e+000,
1.8187500000e+001,3.7053992810e+000,4.2609347866e+000,3.3562447011e+000,3.6639096749e+000,3.9269473554e+000,4.2898843885e+000,3.1861238424e+000,4.4587292431e+000,3.9409245906e+000,5.3434291893e+000,3.4181145513e+000,5.5733177487e+000,3.4419985190e+000,3.7090464907e+000,
1.8281250000e+001,3.8240183533e+000,4.2703362105e+000,3.3847222706e+000,3.4187639425e+000,4.0594617979e+000,4.2455734288e+000,3.3187222294e+000,4.4212582044e+000,4.0240564704e+000,5.3905977050e+000,3.4914930935e+000,5.5728234695e+000,3.4564430320e+000,3.6308406103e+000,
1.8375000000e+001,4.1362576763e+000,4.3403892269e+000,3.5754163139e+000,3.5975617337e+000,4.1231589862e+000,4.3111509837e+000,3.3675438859e+000,4.4695087485e+000,3.9643402290e+000,5.2922313093e+000,3.4047348131e+000,5.5784864859e+000,3.4802700340e+000,3.6594554499e+000,
1.8468750000e+001,4.2624085279e+000,4.3272760303e+000,3.6635738567e+000,3.5826339080e+000,3.9489831637e+000,4.2234669914e+000,3.3570395652e+000,4.3663700084e+000,3.8395076200e+000,5.2503891066e+000,3.2697543057e+000,5.6020504572e+000,3.4608787124e+000,3.6923259092e+000,
1.8562500000e+001,4.2958431185e+000,4.3527743423e+000,3.6486866053e+000,3.4772035438e+000,4.0224893274e+000,4.2685713414e+000,3.4018940971e+000,4.3649770416e+000,3.8289621755e+000,5.2611568139e+000,3.2470922978e+000,5.6315776611e+000,3.4271427681e+000,3.7939225684e+000,
1.8656250000e+001,4.2460404498e+000,4.3473605528e+000,3.6092750452e+000,3.5017851989e+000,3.9898047082e+000,4.3248439624e+000,3.3909048403e+000,4.3289444202e+000,3.8234827019e+000,5.3300559597e+000,3.1733541633e+000,5.6437021941e+000,3.3847042610e+000,3.8238985498e+000,
1.8750000000e+001,4.2279585005e+000,4.2005001778e+000,3.7323579985e+000,3.6035177756e+000,3.9017721407e+000,4.2400498728e+000,3.4321299730e+000,4.2388235953e+000,3.7789326560e+000,5.3068515116e+000,3.0872504832e+000,5.6461656191e+000,3.3284304105e+000,3.7222257885e+000,
1.8843750000e+001,4.2672333518e+000,4.0690072695e+000,3.7475430672e+000,3.7276258389e+000,3.9304012270e+000,4.3389906790e+000,3.4855109013e+000,4.2510855826e+000,3.7972789469e+000,5.3558828241e+000,3.2753396794e+000,5.6661373816e+000,3.2785994163e+000,3.7747159814e+000,
1.8937500000e+001,4.3366589893e+000,4.0934440020e+000,3.7884582841e+000,3.8390315677e+000,3.9224461780e+000,4.4089293206e+000,3.6076733758e+000,4.2897570583e+000,3.6956435586e+000,5.3956856977e+000,3.3812862029e+000,5.6872746014e+000,3.2530084447e+000,3.7952375775e+000,
1.9031250000e+001,4.3430970383e+000,4.2301489882e+000,3.7663605325e+000,3.8770861499e+000,3.9170135771e+000,4.3954018602e+000,3.5966438437e+000,4.2658120659e+000,3.7399708188e+000,5.2373557883e+000,3.3867789978e+000,5.5067002444e+000,3.2378808248e+000,3.7812954488e+000,
1.9125000000e+001,4.3351868996e+000,4.1936347038e+000,3.6522585390e+000,3.9141806907e+000,3.7711400741e+000,4.3591302449e+000,3.6175613532e+000,4.2118273937e+000,3.7998795872e+000,4.8351316305e+000,3.3462385863e+000,4.4690766770e+000,3.2401358523e+000,3.7014732974e+000,
1.9218750000e+001,4.3096903646e+000,4.1649165353e+000,3.6747342454e+000,3.9371167009e+000,3.6899725302e+000,4.3245028823e+000,3.5600640935e+000,4.1604656940e+000,3.8263987506e+000,4.8350002428e+000,3.2993076954e+000,4.4838782689e+000,3.1795189111e+000,3.6915972348e+000,
1.9312500000e+001,4.3271191128e+000,4.2314408106e+000,3.6940165849e+000,4.0312485447e+000,3.5481705876e+000,4.3714831052e+000,3.4953457399e+000,4.1458754534e+000,3.7900601120e+000,4.7709353266e+000,3.2349128165e+000,4.4077716018e+000,3.0552003197e+000,3.7059199562e+000,
1.9406250000e+001,3.9323262852e+000,4.1317551347e+000,3.4017409642e+000,3.8443134983e+000,3.3480388667e+000,4.2405446252e+000,3.4007759966e+000,3.9749304740e+000,3.8320053895e+000,4.6062648790e+000,3.2317406145e+000,4.3523996878e+000,3.1257501760e+000,3.6585252663e+000,
1.9500000000e+001,3.9096780388e+000,4.0971941097e+000,3.3909562423e+000,3.8437609184e+000,3.3392539552e+000,4.1747637136e+000,3.3312729684e+000,3.9117410615e+000,3.8317870946e+000,4.5871962262e+000,3.3970861193e+000,4.1879285046e+000,3.1525290643e+000,3.6102890445e+000,
1.9593750000e+001,3.8534260357e+000,4.1995564582e+000,3.3644716559e+000,3.7939445562e+000,3.2262290755e+000,4.1345545060e+000,3.2582287394e+000,3.7704632847e+000,3.8285120471e+000,4.4297658027e+000,3.4326682249e+000,4.0008147675e+000,3.1824483955e+000,3.4275652114e+000,
1.9687500000e+001,3.7868201886e+000,4.2492190772e+000,3.3229003942e+000,3.7691046711e+000,3.2131651285e+000,4.1493227242e+000,3.2239282653e+000,3.7572804195e+000,3.8821443462e+000,4.3034757045e+000,3.4064555472e+000,4.0072824722e+000,3.1676467788e+000,3.3556933914e+000,
1.9781250000e+001,3.7627360939e+000,4.2602560940e+000,3.1489640299e+000,3.7811877468e+000,3.1912348850e+000,4.1867797315e+000,3.1624700794e+000,3.8119774188e+000,3.8977688541e+000,4.2204527987e+000,3.3912655673e+000,3.9841437556e+000,3.1255147058e+000,3.2852371470e+000,
1.9875000000e+001,3.7161261960e+000,4.1853516216e+000,3.1580691491e+000,3.5660678622e+000,3.1525142886e+000,4.0210647181e+000,3.2402169473e+000,3.7010846560e+000,3.8900841751e+000,4.0128764306e+000,3.3154558968e+000,3.9141997730e+000,3.0795129894e+000,3.1746143453e+000,
1.9968750000e+001,3.6024593606e+000,4.1306626723e+000,3.1044525471e+000,3.5246590365e+000,3.0570764232e+000,4.1072255854e+000,3.0942894737e+000,3.6757682896e+000,3.8290523748e+000,3.9667219232e+000,3.2621087359e+000,3.8858169506e+000,3.0154010997e+000,3.1576776356e+000,
2.0062500000e+001,3.5478957230e+000,3.8876551250e+000,3.0828938471e+000,3.4800448571e+000,3.0881836125e+000,4.1207284993e+000,3.0890378205e+000,3.5892206310e+000,3.7864528467e+000,3.8931115479e+000,3.2261050358e+000,3.8680763426e+000,2.9783500681e+000,3.1498625739e+000,
2.0156250000e+001,3.5935443009e+000,3.9037172828e+000,3.0286852258e+000,3.4174517805e+000,3.1311995743e+000,4.0929207813e+000,2.9685690086e+000,3.5655041612e+000,3.5665440378e+000,3.6798627857e+000,3.1399335179e+000,3.7385660062e+000,2.9953017048e+000,3.1880128557e+000,
2.0250000000e+001,3.4730839111e+000,3.9210999368e+000,2.9357381198e+000,3.2178899927e+000,3.1611969994e+000,4.0131216362e+000,3.0026640866e+000,3.4783151034e+000,3.5384894686e+000,3.6384909798e+000,3.1486928108e+000,3.6942119843e+000,3.0162210792e+000,3.1480768967e+000,
2.0343750000e+001,3.4857349578e+000,4.0049318223e+000,3.0178464163e+000,3.1600713834e+000,3.2187607145e+000,4.0628790562e+000,2.9987974940e+000,3.6823429055e+000,3.4597984172e+000,3.6588674397e+000,3.1256934540e+000,3.6013170032e+000,3.0652517387e+000,3.1876758743e+000,
2.0437500000e+001,3.5525393756e+000,4.0184319496e+000,3.0743016684e+000,3.2376999005e+000,3.2636514046e+000,4.0907636861e+000,3.0884236639e+000,3.7857317916e+000,3.4015738373e+000,3.7644831048e+000,3.1671602909e+000,3.6183868098e+000,3.0313623125e+000,3.1270313182e+000,
2.0531250000e+001,3.6043135670e+000,3.9813086294e+000,3.0493336498e+000,3.2879633548e+000,3.2764354993e+000,4.0900415583e+000,3.0572544457e+000,3.8020819766e+000,3.3401413028e+000,3.8746627613e+000,3.1015475986e+000,3.6162684449e+000,2.8628953639e+000,3.0708778597e+000,
2.0625000000e+001,3.6486540710e+000,3.8515123181e+000,3.0729630201e+000,3.3505773284e+000,3.2383413328e+000,4.0386426432e+000,3.0234997437e+000,3.8199939816e+000,3.3654501793e+000,3.9986081230e+000,3.0988852190e+000,3.5706470531e+000,2.9735151774e+000,3.0904296057e+000,
2.0718750000e+001,3.6410544252e+000,3.9295250296e+000,3.1166770600e+000,3.2953858910e+000,3.2464874278e+000,3.9417035783e+000,3.0538815120e+000,3.8252498857e+000,3.2811700243e+000,4.0214729329e+000,3.2218090291e+000,3.5623092519e+000,2.9590971344e+000,3.0013824547e+000,
2.0812500000e+001,3.8391515613e+000,4.0392855034e+000,3.1209618759e+000,3.3223493187e+000,3.3542767372e+000,4.0013153393e+000,3.1791764446e+000,3.8064344231e+000,3.2977345757e+000,4.0379129269e+000,3.3712161743e+000,3.4977218342e+000,3.0438245909e+000,2.9664858040e+000,
2.0906250000e+001,3.9273553730e+000,4.1702476190e+000,3.1055112508e+000,3.3317711932e+000,3.3994680835e+000,4.0169654218e+000,3.1495955851e+000,3.7955677914e+000,3.3268735434e+000,4.0120932046e+000,3.2533633609e+000,3.3222864729e+000,3.0336458638e+000,2.8413272778e+000,
2.1000000000e+001,3.9496312681e+000,4.1506031070e+000,3.0603055161e+000,3.2620454172e+000,3.4083060470e+000,3.9735393398e+000,3.1758227343e+000,3.7322206332e+000,3.3675317400e+000,4.0824297760e+000,3.3009160662e+000,3.3154687401e+000,3.0003659118e+000,2.7019941919e+000,
2.1093750000e+001,3.9360015778e+000,4.1074435796e+000,3.0387422851e+000,3.0967080199e+000,3.3635696019e+000,3.9072491524e+000,3.1821512382e+000,3.6172798914e+000,3.3137546536e+000,4.1696205436e+000,3.3583016583e+000,3.2248213210e+000,2.9551577362e+000,2.5217469922e+000,
2.1187500000e+001,3.9207115860e+000,4.0718693227e+000,3.0262114775e+000,3.1268502281e+000,3.3563343889e+000,3.8897613578e+000,3.2136428482e+000,3.6866893349e+000,3.3826370508e+000,4.2425616728e+000,3.4015988446e+000,3.3465615840e+000,2.9122828641e+000,2.5066272235e+000,
2.1281250000e+001,3.9522060002e+000,4.0047375142e+000,3.1410408698e+000,3.2971745846e+000,3.3867432843e+000,3.9640429701e+000,3.2740117958e+000,3.7952316887e+000,3.3038900121e+000,4.3636808098e+000,3.4113289585e+000,3.5001613062e+000,2.8744566890e+000,2.6843977185e+000,
2.1375000000e+001,3.8620351838e+000,3.8918874559e+000,3.0404000400e+000,3.2421849905e+000,3.3219807125e+000,3.7438914490e+000,3.2798981377e+000,3.5512731393e+000,3.2164739116e+000,4.3411923733e+000,3.3096838831e+000,3.4874921033e+000,2.7311344935e+000,2.4525697710e+000,
2.1468750000e+001,3.7962645288e+000,3.9375893492e+000,2.9870754502e+000,3.2622150811e+000,3.1714047910e+000,3.8824042715e+000,3.1897754066e+000,3.6632784817e+000,3.0965001333e+000,4.4271362222e+000,3.3193559897e+000,3.6473765003e+000,2.6541244567e+000,2.8518881927e+000,
2.1562500000e+001,3.8098998203e+000,4.0192594614e+000,3.0051064710e+000,3.3653140695e+000,3.1564484147e+000,3.9026597656e+000,3.1893187826e+000,3.8779569540e+000,3.0071984293e+000,4.4558059744e+000,3.3462173595e+000,3.9747773156e+000,2.5875711878e+000,3.1113164224e+000,
2.1656250000e+001,3.8271896108e+000,4.5764493268e+000,2.9715621316e+000,3.3722809494e+000,3.1314338493e+000,3.9801220937e+000,3.1639960468e+000,3.8972692697e+000,3.0758718385e+000,4.3939595139e+000,3.3680977493e+000,3.9879889042e+000,2.6614209485e+000,3.0759630387e+000,
2.1750000000e+001,3.6738536394e+000,4.5267702221e+000,3.0365156858e+000,3.3598092394e+000,3.0281100241e+000,3.9725846602e+000,3.0572254592e+000,3.8606678620e+000,3.1676632847e+000,4.4014389155e+000,3.2189487819e+000,3.9594294071e+000,2.6275899244e+000,3.0587645119e+000,
2.1843750000e+001,3.5633879641e+000,4.4448187285e+000,2.9921819217e+000,3.3174236484e+000,2.8795886438e+000,3.8574464111e+000,2.9483699682e+000,3.8348285746e+000,3.2257489780e+000,4.3838544484e+000,3.2171489213e+000,3.9213102482e+000,2.7453034218e+000,3.1046669848e+000,
2.1937500000e+001,3.4449827942e+000,4.4576710529e+000,2.9812632045e+000,3.3542872016e+000,2.8807475169e+000,3.8865651007e+000,2.7217755265e+000,3.8638370666e+000,3.2183172585e+000,4.3757414856e+000,3.1876789271e+000,3.9544972127e+000,2.8178942000e+000,3.1376326451e+000,
2.2031250000e+001,3.5490494273e+000,4.4677352506e+000,2.9530290154e+000,3.3338994640e+000,2.9694059925e+000,3.8459738039e+000,2.6731801875e+000,3.8672908975e+000,3.2088356497e+000,4.3138462437e+000,3.1345346603e+000,3.9555045379e+000,2.7913576249e+000,3.1501456670e+000,
2.2125000000e+001,3.5852124722e+000,4.4743386705e+000,2.9415020752e+000,3.3448094710e+000,3.0252943849e+000,3.9620116621e+000,2.9210616355e+000,3.8582965027e+000,3.2513042490e+000,4.3035028537e+000,3.0587506315e+000,3.9291576029e+000,2.7854690447e+000,3.1633832444e+000,
2.2218750000e+001,3.5516219746e+000,4.5092045441e+000,3.0210840052e+000,3.3789055070e+000,3.0736192267e+000,4.1166023802e+000,2.8823019883e+000,3.8734769736e+000,3.2348806745e+000,4.2649130675e+000,3.2893671705e+000,3.9047653048e+000,2.8934129273e+000,3.1159251177e+000,
2.2312500000e+001,3.6929234474e+000,4.5485758522e+000,2.9542289816e+000,3.3963354220e+000,3.3236962075e+000,4.1626655333e+000,2.9348316114e+000,3.7720464504e+000,3.2982969763e+000,4.1304009009e+000,3.2632667480e+000,3.8261705578e+000,2.8611885489e+000,3.0301819989e+000,
2.2406250000e+001,3.7191656436e+000,4.6790358640e+000,2.9263882758e+000,3.3835690433e+000,3.3504281081e+000,4.3386389039e+000,2.9605959804e+000,3.7184607009e+000,3.3898125259e+000,4.0888639717e+000,3.2467344883e+000,3.8440256512e+000,2.8557029459e+000,3.0667987587e+000,
2.2500000000e+001,3.8789793102e+000,4.7250050466e+000,3.0162074336e+000,3.3865833648e+000,3.5568558486e+000,4.5852079295e+000,3.0624136828e+000,3.7580953442e+000,3.5027111384e+000,4.0741729933e+000,3.2192911251e+000,3.5421470754e+000,2.8648290281e+000,2.5606398207e+000,
2.2593750000e+001,3.8452539301e+000,4.5029891291e+000,3.0283431226e+000,3.2684290696e+000,3.5735532527e+000,4.6579792980e+000,3.1091617128e+000,3.7036750631e+000,3.4811723506e+000,4.0067396327e+000,3.1893461936e+000,3.3148230355e+000,2.8016960781e+000,2.4116297595e+000,
2.2687500000e+001,3.9231838191e+000,4.2203875046e+000,3.0311569942e+000,3.2782102401e+000,3.7021660327e+000,4.6892517420e+000,3.1375634538e+000,3.7718236331e+000,3.5379048587e+000,4.1121839113e+000,3.2157220118e+000,3.2743932709e+000,2.8134067958e+000,2.4765490128e+000,
2.2781250000e+001,3.9372498961e+000,4.1961007076e+000,3.0649072479e+000,3.2893089935e+000,3.7178780335e+000,4.7204298799e+000,3.2373336590e+000,3.7717043304e+000,3.5239078129e+000,4.1248014004e+000,3.2752087242e+000,3.2409931030e+000,2.7454171593e+000,2.6026747554e+000,
2.2875000000e+001,3.9578582132e+000,4.2266202615e+000,3.1876716493e+000,3.3186658619e+000,3.7896529072e+000,4.8153838674e+000,3.3479210793e+000,3.9065544518e+000,3.5729460800e+000,4.2159010859e+000,3.2710884905e+000,3.2989746529e+000,2.6979078995e+000,2.7132497194e+000,
2.2968750000e+001,3.8940790164e+000,4.2863933599e+000,3.2537370754e+000,3.4162185915e+000,3.8561321093e+000,4.8787507306e+000,3.4929537399e+000,3.9603773344e+000,3.5609014915e+000,4.1225090165e+000,3.3953794911e+000,3.2734943107e+000,2.7376660994e+000,2.8850039701e+000,
2.3062500000e+001,3.8399757194e+000,4.3783791547e+000,3.2730762836e+000,3.4299240046e+000,3.8283013717e+000,4.9181136113e+000,3.4514785595e+000,3.9697488071e+000,3.5832872263e+000,4.0797411574e+000,3.4566386805e+000,3.2451306314e+000,2.7750650736e+000,2.8848153307e+000,
2.3156250000e+001,3.9032419966e+000,4.4232032345e+000,3.2677145167e+000,3.4468081973e+000,3.8426888098e+000,4.9068503045e+000,3.3677134833e+000,4.0029167109e+000,3.5206205531e+000,4.1034593500e+000,3.3836005376e+000,3.2754076637e+000,2.7835666150e+000,2.8666317778e+000,
2.3250000000e+001,3.7993137037e+000,4.3533214662e+000,3.1326811576e+000,3.2352477176e+000,3.6754775466e+000,4.8124804274e+000,3.2082908778e+000,3.9272200885e+000,3.4372972666e+000,4.0921355571e+000,3.2023132300e+000,3.3036650909e+000,2.6749511102e+000,2.8185698759e+000,
2.3343750000e+001,3.7785175018e+000,4.2927727794e+000,3.1773589841e+000,3.2652498610e+000,3.6545957667e+000,4.7946334216e+000,3.1725738621e+000,4.0019639037e+000,3.4990320584e+000,4.1690562782e+000,3.2428720384e+000,3.4252405294e+000,2.7960460246e+000,2.9440103221e+000,
2.3437500000e+001,3.6414300190e+000,4.1342029625e+000,3.1923528255e+000,3.3192970201e+000,3.5098087925e+000,4.5526032334e+000,3.1511481258e+000,3.9591651628e+000,3.4968716479e+000,4.2160128726e+000,3.2769741376e+000,3.3974842043e+000,2.8175685879e+000,2.9366505032e+000,
2.3531250000e+001,3.4364701202e+000,4.0084825717e+000,3.1201902551e+000,3.2784834890e+000,3.3802739969e+000,4.3532251749e+000,3.1351217748e+000,3.7793339398e+000,3.3927404251e+000,4.1308250775e+000,3.1869325419e+000,3.4112344071e+000,2.7830664249e+000,2.9993495718e+000,
2.3625000000e+001,3.5559073969e+000,3.9758228976e+000,3.0648211484e+000,3.3982854743e+000,3.4255753585e+000,4.3202126472e+000,3.2932244500e+000,3.8037347269e+000,3.3662970475e+000,4.1822925130e+000,3.3452585994e+000,3.3484265497e+000,2.8123730692e+000,3.0393689989e+000,
2.3718750000e+001,3.4833008598e+000,4.0525597294e+000,3.0555965615e+000,3.4792897038e+000,3.4428138418e+000,4.3726211883e+000,3.3893434650e+000,3.7767588494e+000,3.2687991389e+000,4.1694066436e+000,3.3799642801e+000,3.4957849679e+000,2.7940057726e+000,2.9957282711e+000,
2.3812500000e+001,3.5323529260e+000,4.2858942026e+000,2.8193651714e+000,3.4567528107e+000,3.4847251427e+000,4.3852698420e+000,3.3165260384e+000,3.7447605479e+000,3.2137643007e+000,4.1187873861e+000,3.2828511295e+000,3.4546678257e+000,2.7801607659e+000,2.9029658642e+000,
2.3906250000e+001,3.4745562556e+000,4.2263861264e+000,2.6994377026e+000,3.3191615909e+000,3.3673101751e+000,4.1962180460e+000,3.2883723034e+000,3.5337370328e+000,3.2347916187e+000,4.1285437799e+000,3.2491125328e+000,3.4507963575e+000,2.7369591644e+000,2.7797120970e+000,
2.4000000000e+001,3.5720110112e+000,4.1916331818e+000,2.7342217709e+000,3.4333670774e+000,3.2244192417e+000,4.1741354562e+000,3.1648962627e+000,3.5496818993e+000,3.2853505102e+000,4.1718471730e+000,3.1373237138e+000,3.5618037978e+000,2.7526156092e+000,2.6361421783e+000,
2.4093750000e+001,3.5079626348e+000,4.0636628906e+000,2.7275054380e+000,3.5111161339e+000,3.1973045370e+000,4.1338828137e+000,3.1544334444e+000,3.6106270259e+000,3.4000380694e+000,4.2403517809e+000,3.1427860919e+000,3.6128956719e+000,2.8239256343e+000,2.7834969415e+000,
2.4187500000e+001,3.6539287537e+000,4.1768024401e+000,2.9206681263e+000,3.6458814734e+000,3.2897484885e+000,4.2337324514e+000,3.2624815053e+000,3.7374454434e+000,3.5038416796e+000,4.1903571965e+000,3.1405122315e+000,3.5837081261e+000,2.8209198951e+000,2.8138840460e+000,
2.4281250000e+001,3.7804455301e+000,4.2244924604e+000,2.9483562557e+000,3.8170330677e+000,3.5315154911e+000,4.5698122457e+000,3.3831721736e+000,3.8609013174e+000,3.5039466659e+000,4.2615144240e+000,3.1430041203e+000,3.6175049585e+000,2.8435027190e+000,2.8262860662e+000,
2.4375000000e+001,3.8841669112e+000,4.3065313967e+000,3.0495478089e+000,3.8009486984e+000,3.5923657590e+000,4.6579474603e+000,3.4772594065e+000,3.9261941342e+000,3.3825254215e+000,4.2623004463e+000,3.1504585747e+000,3.5450751069e+000,2.9371179413e+000,2.6437619544e+000,
2.4468750000e+001,4.0750773881e+000,4.3285817216e+000,3.0942338296e+000,3.7410030669e+000,3.7431956769e+000,4.7121450387e+000,3.5370217619e+000,3.8887931601e+000,3.4102154376e+000,4.2877076060e+000,3.1252769868e+000,3.5714760292e+000,2.8816494047e+000,2.6400298487e+000,
2.4562500000e+001,4.1718469788e+000,4.4290930207e+000,3.1537507844e+000,3.8211230358e+000,3.7467964579e+000,5.6078314267e+000,3.5095526416e+000,3.9125332708e+000,3.4136284312e+000,4.3168221891e+000,3.0982943960e+000,3.6154674762e+000,2.8581924209e+000,2.6304896375e+000,
2.4656250000e+001,4.1417993085e+000,4.4068749642e+000,3.1312354419e+000,3.8011635057e+000,3.6902871910e+000,5.9612716421e+000,3.3207022403e+000,3.8832985190e+000,3.3992976710e+000,4.3072231277e+000,2.8594300077e+000,3.5863590545e+000,2.8056955965e+000,2.6356814452e+000,
2.4750000000e+001,4.1662681017e+000,4.3010618051e+000,3.1567951321e+000,3.7315839355e+000,3.5981630739e+000,5.9455231740e+000,3.3170356942e+000,3.8931241816e+000,3.3842594378e+000,4.2483201892e+000,2.8729466307e+000,3.4569073272e+000,2.8709414251e+000,2.8383855352e+000,
2.4843750000e+001,4.1715773589e+000,4.1310920238e+000,3.2704529590e+000,3.7623158917e+000,3.6318377936e+000,5.9435764363e+000,3.2603561097e+000,3.8810922549e+000,3.3303751731e+000,4.2394304928e+000,2.8765822325e+000,3.4695754004e+000,2.8539954270e+000,2.8886597582e+000,
2.4937500000e+001,4.1769997842e+000,4.1161296073e+000,3.2849209025e+000,3.7314799358e+000,3.6171318361e+000,5.9908211729e+000,3.2695295987e+000,3.8388557876e+000,3.1994224555e+000,4.1809454318e+000,2.8390013733e+000,3.3485371814e+000,2.7181599308e+000,2.8829168451e+000,
2.5031250000e+001,4.1651058459e+000,4.1076092408e+000,3.2040248425e+000,3.6018763337e+000,3.7135549779e+000,5.9951300499e+000,3.3716071747e+000,3.8196971334e+000,3.2665086127e+000,4.1824786339e+000,2.9585744530e+000,3.2947868252e+000,2.7128767804e+000,2.9411109813e+000,
2.5125000000e+001,4.2244955124e+000,4.1915543073e+000,3.3452094705e+000,3.7380129566e+000,3.7334820581e+000,5.9950766294e+000,3.3815707636e+000,3.8705671184e+000,3.1015686193e+000,4.1556360964e+000,2.9571975495e+000,3.2914517907e+000,2.7942351601e+000,2.9834015882e+000,
2.5218750000e+001,4.1789268428e+000,4.1029771251e+000,3.3532072435e+000,3.6321188250e+000,3.7028684517e+000,5.9832353268e+000,3.3620499371e+000,3.7309870154e+000,3.1149571849e+000,4.2627032192e+000,2.9443669265e+000,3.3080603465e+000,2.8509037160e+000,3.0739089505e+000,
2.5312500000e+001,3.9629580238e+000,3.8292215218e+000,3.2388469560e+000,3.3877767825e+000,3.3830685628e+000,5.9185566999e+000,3.1687682319e+000,3.4191545011e+000,3.1635608603e+000,4.1802645342e+000,2.9253516662e+000,3.1736577714e+000,2.8629005486e+000,3.1276476890e+000,
2.5406250000e+001,4.0049807016e+000,3.8247053913e+000,3.2483145720e+000,3.4868583330e+000,3.2357312783e+000,5.9399609368e+000,3.0362739018e+000,3.4465873387e+000,3.1396257780e+000,4.1312322339e+000,2.8972429930e+000,3.2271560230e+000,2.7664975448e+000,3.1647970740e+000,
2.5500000000e+001,3.7299506618e+000,3.7808282593e+000,3.2102741728e+000,3.4854377476e+000,3.1750872181e+000,5.9381731325e+000,2.8716141618e+000,3.5385555180e+000,3.1452931021e+000,4.0956221553e+000,2.9182196043e+000,3.2762126645e+000,2.8017388635e+000,3.1839041733e+000,
2.5593750000e+001,3.8954276688e+000,3.8296142604e+000,3.3121205719e+000,3.4080160645e+000,3.2211239563e+000,4.9867221790e+000,2.9181087423e+000,3.5164261431e+000,3.1520873980e+000,3.9595526711e+000,3.0294872623e+000,3.2038953398e+000,2.8179994693e+000,3.0919868888e+000,
2.5687500000e+001,4.1478319303e+000,4.0739769350e+000,3.5939734970e+000,3.6474676933e+000,3.6154352772e+000,4.6107524376e+000,3.3692469547e+000,3.8547014575e+000,3.4065401576e+000,4.1771615996e+000,3.1420491344e+000,3.5021785567e+000,2.9758045381e+000,3.2379467370e+000,
2.5781250000e+001,4.1227989498e+000,4.1764020220e+000,3.5863193045e+000,3.6940407095e+000,3.6617144869e+000,4.6959308693e+000,3.4049527764e+000,3.9499832655e+000,3.4484417862e+000,4.2181729253e+000,3.1933848839e+000,3.7317764096e+000,3.0041944529e+000,3.2059351000e+000,
2.5875000000e+001,4.1286045635e+000,4.2997729336e+000,3.5672068044e+000,3.6854534098e+000,3.7627284988e+000,4.9598389253e+000,3.5005277371e+000,3.9855862324e+000,3.6270416204e+000,4.4040891440e+000,3.4984495424e+000,3.8255780169e+000,3.1755961206e+000,3.2406352866e+000,
2.5968750000e+001,4.1326849652e+000,4.3110866768e+000,3.6100549842e+000,3.7665489099e+000,3.7584435875e+000,5.0108739051e+000,3.4611457944e+000,4.0813436195e+000,3.6739899933e+000,4.4649555952e+000,3.4836502521e+000,3.8950816648e+000,3.2069447185e+000,3.2621256586e+000,
2.6062500000e+001,4.0820337901e+000,4.2535546625e+000,3.6377737775e+000,3.7929526746e+000,3.6971719078e+000,5.3911682955e+000,3.4139876270e+000,4.1239414338e+000,3.6716821767e+000,4.5064940411e+000,3.4310671581e+000,3.8936555002e+000,3.2208519579e+000,3.2070348687e+000,
2.6156250000e+001,4.0502949307e+000,4.2061903294e+000,3.5472805494e+000,3.7411737224e+000,3.6806038312e+000,5.5205379729e+000,3.4296717338e+000,4.1293388136e+000,3.6376667627e+000,4.5158497964e+000,3.4294808439e+000,3.9159939756e+000,3.1614978303e+000,3.0245624596e+000,
2.6250000000e+001,4.0487719418e+000,4.1951468276e+000,3.5716142703e+000,3.7645047010e+000,3.6958776080e+000,5.5702061287e+000,3.4052932492e+000,4.1848709682e+000,3.6212572690e+000,4.4590379881e+000,3.5027620229e+000,3.9636595408e+000,3.1281958838e+000,2.9732864572e+000,
2.6343750000e+001,4.0574916153e+000,4.2053866281e+000,3.5461349439e+000,3.7588786465e+000,3.7046973723e+000,5.9650078160e+000,3.4171462082e+000,4.1836419579e+000,3.6537332728e+000,4.4867592191e+000,3.5688211503e+000,4.0142150175e+000,3.0981172513e+000,3.0532302797e+000,
2.6437500000e+001,4.0153566866e+000,4.2953077560e+000,3.5146962820e+000,3.6568484634e+000,3.7032515955e+000,5.9709499955e+000,3.4849762850e+000,4.1182039262e+000,3.6746145438e+000,4.4405568493e+000,3.5698025673e+000,3.9752565159e+000,3.0865203345e+000,3.1051256681e+000,
2.6531250000e+001,3.9156785828e+000,4.2374593541e+000,3.4513085322e+000,3.6471786536e+000,3.6953201508e+000,6.0313996726e+000,3.5634875409e+000,4.1128555241e+000,3.7334030184e+000,4.4461972518e+000,3.5771355089e+000,3.9838980900e+000,3.0824688525e+000,3.0699092579e+000,
2.6625000000e+001,3.7334557923e+000,4.1490545566e+000,3.3420793638e+000,3.5988390639e+000,3.6070643705e+000,6.0452704550e+000,3.5506268454e+000,4.0382841175e+000,3.6920534761e+000,4.4377464108e+000,3.4738900971e+000,3.9729351162e+000,3.0807612997e+000,3.1568961901e+000,
2.6718750000e+001,3.3687820662e+000,3.9107290867e+000,3.0296662517e+000,3.3983987360e+000,3.1550679554e+000,6.0384967824e+000,3.2678351049e+000,3.7628825769e+000,3.4263686719e+000,4.2982032907e+000,3.4026801448e+000,3.8635017497e+000,2.9015864693e+000,2.8933789131e+000,
2.6812500000e+001,3.6354517146e+000,3.9483432871e+000,3.0868994555e+000,3.4421521282e+000,3.3552711651e+000,5.9748870281e+000,3.3387027043e+000,3.8782862093e+000,3.3630793370e+000,4.3730206772e+000,3.3327588102e+000,3.8253072796e+000,2.8487348411e+000,2.8801634531e+000,
2.6906250000e+001,3.5641109925e+000,3.7840590508e+000,2.9794215772e+000,3.5182497652e+000,3.2331437657e+000,5.9312042654e+000,3.2383708966e+000,3.8996209983e+000,3.1512066866e+000,4.3394857084e+000,3.0295493455e+000,3.8177713666e+000,2.6870807510e+000,2.7207228094e+000,
2.7000000000e+001,3.5351331359e+000,4.1071031236e+000,2.8782401959e+000,3.3820056043e+000,3.2720791769e+000,5.7392818055e+000,3.1776515639e+000,3.7618689564e+000,3.1355439700e+000,4.2189529279e+000,3.0407501178e+000,3.8029964845e+000,2.6877032741e+000,2.6919588366e+000,
2.7093750000e+001,3.5405905901e+000,4.1835284092e+000,2.7844909485e+000,3.3722822897e+000,3.3787974235e+000,5.5694825801e+000,3.1892191796e+000,3.7579361138e+000,3.1657176121e+000,4.2493007000e+000,3.0680385227e+000,3.8068283357e+000,2.6080229906e+000,2.9367145974e+000,
2.7187500000e+001,3.5788274232e+000,4.2771091928e+000,2.8227985768e+000,3.4507531253e+000,3.4124146490e+000,5.5699432160e+000,3.1659384485e+000,3.8058517174e+000,3.2163021569e+000,4.2851932353e+000,3.0979876198e+000,3.8708914812e+000,2.5404979099e+000,3.1247074530e+000,
2.7281250000e+001,3.5194975688e+000,4.2319581299e+000,2.7005964734e+000,3.4315949645e+000,3.4595863561e+000,5.5233197741e+000,3.1380345844e+000,3.7620844482e+000,3.2770539117e+000,4.2645893750e+000,2.9678534314e+000,3.7641302079e+000,2.4406292427e+000,3.0735598863e+000,
2.7375000000e+001,3.5246220627e+000,4.2759779173e+000,2.7406509585e+000,3.4492712218e+000,3.5007020319e+000,4.9565917860e+000,3.0781880970e+000,3.8755673923e+000,3.2796413222e+000,4.2611499600e+000,3.0228189409e+000,3.7135737930e+000,2.4914713921e+000,3.0093167826e+000,
2.7468750000e+001,3.6895323237e+000,4.4018764683e+000,2.9272509575e+000,3.6234941917e+000,3.5561761290e+000,4.8997648476e+000,3.2010875380e+000,3.9769158612e+000,3.2767298671e+000,4.4278307332e+000,3.0305643474e+000,3.7165970125e+000,2.4286092411e+000,2.9672942776e+000,
2.7562500000e+001,3.7487418653e+000,4.5283207714e+000,2.9953769109e+000,3.6662799254e+000,3.7615891813e+000,4.9913583269e+000,3.1977407595e+000,4.0245653845e+000,3.4179817331e+000,4.4562792720e+000,3.1927064653e+000,3.7504216048e+000,2.5135870917e+000,3.0369961540e+000,
2.7656250000e+001,3.8203999644e+000,4.5853442152e+000,3.1047924016e+000,3.6986421643e+000,3.8570224361e+000,5.0020443912e+000,3.1739854996e+000,4.0498494396e+000,3.4637454858e+000,4.4529608741e+000,3.1600820249e+000,3.7068374341e+000,2.5924759817e+000,2.9778359204e+000,
2.7750000000e+001,3.8466864179e+000,4.6088978043e+000,3.0509319471e+000,3.6867592250e+000,4.0445417178e+000,5.0399038576e+000,3.0986458326e+000,4.0849919145e+000,3.5312852652e+000,4.4887289138e+000,3.1457594585e+000,3.7084383520e+000,2.6135723391e+000,3.0265068216e+000,
2.7843750000e+001,3.6105329247e+000,4.5516394585e+000,3.0104208721e+000,3.5729810016e+000,4.0423226099e+000,5.0297421970e+000,3.0566244816e+000,3.9284874728e+000,3.5652557377e+000,4.3811451693e+000,3.1252379419e+000,3.7090674022e+000,2.6119427397e+000,3.1682877259e+000,
2.7937500000e+001,3.7387417552e+000,4.6087403587e+000,3.1881674392e+000,3.6079401816e+000,4.0960478958e+000,5.0589546267e+000,3.1099873469e+000,3.9057342215e+000,3.6583543555e+000,4.2647810004e+000,3.2016270718e+000,3.6032965690e+000,2.8149093079e+000,3.2138844175e+000,
2.8031250000e+001,3.7840826668e+000,4.5662222100e+000,3.3507300380e+000,3.6871310989e+000,4.0946525942e+000,5.1287591365e+000,3.1500974326e+000,3.9278567273e+000,3.6444029109e+000,4.3227203142e+000,3.3614648590e+000,3.6093930303e+000,2.9090680301e+000,3.1279419787e+000,
2.8125000000e+001,3.7933676067e+000,4.6148743684e+000,3.3680939539e+000,3.8180337243e+000,4.1320120479e+000,5.2490003328e+000,3.2294647236e+000,4.0640249682e+000,3.6723819888e+000,4.3965752872e+000,3.4905717317e+000,3.7473658538e+000,2.9691169626e+000,3.1365969406e+000,
2.8218750000e+001,3.7794862885e+000,4.6719707046e+000,3.3915010031e+000,3.8807026954e+000,4.1391039065e+000,5.1835273466e+000,3.2631368339e+000,4.1939016089e+000,3.7062483776e+000,4.4732756380e+000,3.4683072691e+000,3.7990349666e+000,2.9680795386e+000,3.0765775603e+000,
2.8312500000e+001,3.8215230456e+000,4.7527274709e+000,3.4422693782e+000,3.9129932311e+000,4.1535516150e+000,5.8645941398e+000,3.2969388854e+000,4.1744461923e+000,3.7525834232e+000,4.5224654616e+000,3.3809729859e+000,3.8357294102e+000,3.0359505761e+000,3.1237628462e+000,
2.8406250000e+001,3.8384894068e+000,4.7534012635e+000,3.4281340569e+000,3.9317031718e+000,4.1109332091e+000,5.9711421057e+000,3.3141562684e+000,4.2151727950e+000,3.7273667367e+000,4.6161214652e+000,3.3821689128e+000,3.8777045599e+000,2.9893339294e+000,3.2137996864e+000,
2.8500000000e+001,3.8657896326e+000,4.7603371555e+000,3.4682252102e+000,4.0199303852e+000,3.9999850103e+000,6.0686292869e+000,3.2241098724e+000,4.3443909969e+000,3.6626555506e+000,4.6426006096e+000,3.3885722651e+000,3.9477558413e+000,3.1237977362e+000,3.2908010653e+000,
2.8593750000e+001,3.9692122169e+000,4.6673485482e+000,3.5132739662e+000,4.0113641495e+000,4.0455491955e+000,6.0598684294e+000,3.2925066610e+000,4.4128663967e+000,3.6770824394e+000,4.6556023838e+000,3.4481883313e+000,4.1048606728e+000,3.0889176398e+000,3.3365731738e+000,
2.8687500000e+001,4.0931006440e+000,4.7616791448e+000,3.5145978397e+000,4.0193000749e+000,4.0317128279e+000,6.0427595993e+000,3.4165206944e+000,4.5105664480e+000,3.7331128459e+000,4.6630863884e+000,3.5336386087e+000,4.1694015797e+000,3.2089158247e+000,3.4734608570e+000,
2.8781250000e+001,4.2166176220e+000,4.8713816007e+000,3.6349285584e+000,4.1617963920e+000,4.0698282468e+000,6.0612538368e+000,3.5136071937e+000,4.6615363660e+000,3.8178356036e+000,4.6789415876e+000,3.6679894914e+000,4.1686764700e+000,3.3228066423e+000,3.4399760472e+000,
2.8875000000e+001,4.2476047220e+000,4.9022112153e+000,3.5950400651e+000,4.2013441233e+000,3.9206121420e+000,6.1417926129e+000,3.4780346443e+000,4.7196369639e+000,3.8567890841e+000,4.7615947153e+000,3.6777695226e+000,4.1922600233e+000,3.3031687318e+000,3.4764599460e+000,
2.8968750000e+001,4.1660481728e+000,4.8386852856e+000,3.4732070240e+000,4.1001185013e+000,3.9476488200e+000,6.1027513993e+000,3.5033726114e+000,4.6595456669e+000,3.8421454668e+000,4.7313185434e+000,3.6046743433e+000,4.1673758785e+000,3.1528851320e+000,3.4972558073e+000,
2.9062500000e+001,4.1741124037e+000,4.8407589093e+000,3.3828019496e+000,4.0979202096e+000,3.8846260349e+000,6.0791820269e+000,3.5225200948e+000,4.6844330234e+000,3.8856671248e+000,4.7150118876e+000,3.5241503302e+000,4.1670046067e+000,3.0457213546e+000,3.4945264775e+000,
2.9156250000e+001,4.1764084836e+000,4.7781431265e+000,3.3324937633e+000,3.9147062086e+000,3.8128704602e+000,6.0260232613e+000,3.4742234516e+000,4.5210584394e+000,3.8513891534e+000,4.6413693152e+000,3.4145432042e+000,4.0351523145e+000,3.0531292688e+000,3.4446414839e+000,
2.9250000000e+001,4.1904007602e+000,4.7000886328e+000,3.3256874672e+000,3.9166460404e+000,3.8090613982e+000,5.8965560665e+000,3.4621074459e+000,4.5029192500e+000,3.7471375102e+000,4.5737703397e+000,3.4507284170e+000,4.0640971130e+000,3.1224604738e+000,3.4147554944e+000,
2.9343750000e+001,4.1685717191e+000,4.7241605529e+000,3.3107077429e+000,3.9418983626e+000,3.7757328679e+000,5.4148844390e+000,3.5450863822e+000,4.5493097389e+000,3.7669913583e+000,4.5840968828e+000,3.4305856908e+000,4.0438923958e+000,3.1466488057e+000,3.4169788361e+000,
2.9437500000e+001,4.1136383376e+000,4.6051255930e+000,3.2626148816e+000,3.8061232327e+000,3.7715767875e+000,4.9645561165e+000,3.4969743712e+000,4.4249939586e+000,3.7597676026e+000,4.4696295349e+000,3.4606414506e+000,3.9448203831e+000,3.2071192953e+000,3.2610019368e+000,
2.9531250000e+001,4.1126644712e+000,4.6102567126e+000,3.2718588740e+000,3.7300970706e+000,3.8293058915e+000,4.8451052381e+000,3.5574944929e+000,4.3085970819e+000,3.7412188658e+000,4.4527002782e+000,3.4193551121e+000,3.8670185770e+000,3.0984520938e+000,3.2839945283e+000,
2.9625000000e+001,3.8993422525e+000,4.6166194787e+000,3.2071740003e+000,3.7161637777e+000,3.6756425455e+000,4.9254840624e+000,3.4913340335e+000,4.2287101544e+000,3.6270976633e+000,4.4057799349e+000,3.3105566288e+000,3.7954794254e+000,3.0204348141e+000,3.2670909023e+000,
2.9718750000e+001,3.8609583356e+000,4.5380002052e+000,3.2105362461e+000,3.6892577194e+000,3.6445107470e+000,4.9505408946e+000,3.4252481554e+000,4.1526686756e+000,3.5753888380e+000,4.3791970601e+000,3.2487289997e+000,3.7441638565e+000,2.8866197844e+000,3.2553880242e+000,
2.9812500000e+001,3.6446097323e+000,4.3484433073e+000,2.9606909162e+000,3.3818876401e+000,3.1973873509e+000,4.5820277557e+000,3.1378233378e+000,3.9388628713e+000,3.4781629393e+000,4.2792260671e+000,3.0593895259e+000,3.6757183261e+000,2.7985004376e+000,3.2586741768e+000,
2.9906250000e+001,3.5231284388e+000,4.1859235615e+000,2.8951987421e+000,3.2765766260e+000,3.1142844630e+000,4.3931418874e+000,3.1022196268e+000,3.9119291596e+000,3.3297052535e+000,4.3230854674e+000,3.0256368841e+000,3.6414875194e+000,2.8254114221e+000,3.2967468351e+000,
3.0000000000e+001,3.5535859538e+000,4.1097621755e+000,2.8903652233e+000,3.3260244140e+000,3.0255173727e+000,4.4190452809e+000,3.1083413442e+000,3.8699568223e+000,3.2418988381e+000,4.3409857685e+000,3.0896956807e+000,3.7378382521e+000,2.8629830968e+000,3.3532518611e+000,
3.0093750000e+001,3.5364717352e+000,4.0085035316e+000,2.9836820571e+000,3.2592740937e+000,3.0468975526e+000,4.3890982954e+000,3.0660377311e+000,3.8190204268e+000,3.1339735984e+000,4.2339075614e+000,3.1304842316e+000,3.6352903572e+000,3.0010116531e+000,3.2721836460e+000,
3.0187500000e+001,3.5073298637e+000,4.1299164496e+000,3.0435382999e+000,3.2671926942e+000,3.0940770906e+000,4.3953160719e+000,3.0725541639e+000,3.8315772338e+000,3.2056524359e+000,4.2887669836e+000,3.0967317349e+000,3.6200488963e+000,2.9462581778e+000,3.2830254006e+000,
3.0281250000e+001,3.4636388181e+000,4.1205667876e+000,3.0954113706e+000,3.1237356340e+000,3.0489669567e+000,4.3561655462e+000,2.9793016997e+000,3.7461879894e+000,3.2204378446e+000,4.2799013555e+000,3.1023604887e+000,3.4800566339e+000,2.8385343919e+000,3.2929397486e+000,
3.0375000000e+001,3.3968612589e+000,3.9311110575e+000,3.0710290636e+000,2.8508843281e+000,3.0260632695e+000,4.2112788395e+000,2.9980234886e+000,3.5455830390e+000,3.2333602948e+000,4.1741148194e+000,3.0773798531e+000,3.4636109029e+000,2.7971393041e+000,3.3006328478e+000,
3.0468750000e+001,3.3667917381e+000,3.9332678440e+000,2.9854961907e+000,2.9100282665e+000,2.9266664919e+000,4.1783818591e+000,2.9165555655e+000,3.5442936963e+000,3.4166193656e+000,4.2391859632e+000,3.0534318339e+000,3.5994436976e+000,2.8657574309e+000,3.4033700196e+000,
3.0562500000e+001,3.2174571764e+000,3.8687437570e+000,2.9874925225e+000,2.9420429697e+000,2.7957936371e+000,3.9159501953e+000,3.0096703098e+000,3.6440231759e+000,3.4391571733e+000,4.1752371108e+000,3.0602133720e+000,3.5601407559e+000,2.8982742466e+000,3.2928622987e+000,
3.0656250000e+001,3.3291000516e+000,3.9288678230e+000,3.0006539826e+000,3.1836918254e+000,2.9212219450e+000,4.0194004190e+000,3.0321235181e+000,3.8330895309e+000,3.4588630994e+000,4.2740597307e+000,2.9744971346e+000,3.5845558375e+000,2.9052332976e+000,3.2209573839e+000,
3.0750000000e+001,3.2931275089e+000,3.9458586470e+000,2.9252157911e+000,3.1744349255e+000,2.8715466964e+000,3.9388823957e+000,3.0434200570e+000,3.7292343821e+000,3.4619319825e+000,4.3268751572e+000,3.0188497207e+000,3.5316887200e+000,2.8757041130e+000,3.1720321622e+000,
3.0843750000e+001,3.5666407076e+000,4.2306080105e+000,3.1818112588e+000,3.4264612698e+000,3.2172023493e+000,4.0352674319e+000,3.2788405898e+000,3.8857980059e+000,3.6757668893e+000,4.3561689203e+000,3.2162377333e+000,3.7071281339e+000,3.1962530965e+000,3.2782766927e+000,
3.0937500000e+001,3.6771511323e+000,4.2651374565e+000,3.1856193005e+000,3.4357536209e+000,3.3437694649e+000,4.0322149075e+000,3.3146755023e+000,3.9109706624e+000,3.7751111789e+000,4.2423250785e+000,3.2808551779e+000,3.7447332912e+000,3.2058868115e+000,3.2203802464e+000,
3.1031250000e+001,3.6192274844e+000,4.2379010675e+000,3.1853783591e+000,3.4583220422e+000,3.2691737289e+000,3.9691369306e+000,3.2829135425e+000,3.9182897788e+000,3.7738903047e+000,4.1905426923e+000,3.1646698221e+000,3.6820481969e+000,3.1712080734e+000,3.1650778924e+000,
3.1125000000e+001,3.6762679960e+000,4.2220570043e+000,3.2903240559e+000,3.6302619979e+000,3.3120149196e+000,4.0293922226e+000,3.2698332328e+000,4.0433263314e+000,3.8778861777e+000,4.2401792110e+000,3.2503161271e+000,3.7856942030e+000,3.2593228773e+000,3.2680455120e+000,
3.1218750000e+001,3.7174436560e+000,4.0938878392e+000,3.3506713576e+000,3.6653749246e+000,3.3355354986e+000,4.0036646792e+000,3.2811042646e+000,4.0439153528e+000,3.9038336111e+000,4.2426591449e+000,3.2924565254e+000,3.8538649209e+000,3.2963117279e+000,3.2652627768e+000,
3.1312500000e+001,3.7826777314e+000,4.1328693845e+000,3.3449481095e+000,3.7338133674e+000,3.3364289587e+000,3.9929955767e+000,3.3592792680e+000,4.1330972851e+000,3.9080892440e+000,4.1875923643e+000,3.4272163949e+000,3.8911126688e+000,3.3321148149e+000,3.2520184490e+000,
3.1406250000e+001,3.7737476719e+000,4.1108472212e+000,3.3278031723e+000,3.6819878082e+000,3.3714298852e+000,3.9600990986e+000,3.3276026624e+000,4.0920675369e+000,3.8835101523e+000,4.1219446622e+000,3.4566344792e+000,3.7932053989e+000,3.3589478434e+000,3.2584269666e+000,
3.1500000000e+001,3.8157964497e+000,4.1816649328e+000,3.2872450383e+000,3.6435425785e+000,3.4881112140e+000,3.9384488329e+000,3.3466179301e+000,4.0091946916e+000,3.7581575917e+000,4.0061284331e+000,3.4036410699e+000,3.7335367419e+000,3.3232121713e+000,3.2193195678e+000,
3.1593750000e+001,3.8505344196e+000,4.1117797248e+000,3.2618929583e+000,3.6163799194e+000,3.5844074494e+000,3.7473072149e+000,3.3349114963e+000,3.8983186458e+000,3.7550149577e+000,4.0125625028e+000,3.4830684689e+000,3.7048393581e+000,3.3293880575e+000,3.2080031413e+000,
3.1687500000e+001,3.8321438589e+000,4.1033004868e+000,3.4161996192e+000,3.6070339175e+000,3.4998450479e+000,3.6761092654e+000,3.3510761912e+000,3.8181232245e+000,3.7480596731e+000,3.9433631101e+000,3.4822182554e+000,3.6958650337e+000,3.3179606499e+000,3.2913197487e+000,
3.1781250000e+001,3.8420920551e+000,4.0844731037e+000,3.4406799840e+000,3.5556340599e+000,3.6138139598e+000,3.6890698199e+000,3.3078351740e+000,3.7968501414e+000,3.7041154236e+000,3.8924024792e+000,3.4978406498e+000,3.7562031461e+000,3.2026392198e+000,3.2526744535e+000,
3.1875000000e+001,4.0453636178e+000,4.0282877252e+000,3.3729050198e+000,3.5651855326e+000,3.7294129097e+000,3.8080328073e+000,3.1640962154e+000,3.7061517635e+000,3.5575221238e+000,3.8219665814e+000,3.3537537886e+000,3.5333139757e+000,2.9504611188e+000,3.0955945790e+000,
3.1968750000e+001,4.1670977202e+000,4.1181839699e+000,3.4833010696e+000,3.7924754884e+000,3.8329235104e+000,4.0094636444e+000,3.3213615525e+000,4.1411465885e+000,3.5575625249e+000,4.0833866495e+000,3.4270550650e+000,3.7955798521e+000,2.9540834667e+000,3.1089033054e+000,
3.2062500000e+001,4.2020205194e+000,4.1858178204e+000,3.4762394452e+000,3.8961636434e+000,3.9265598897e+000,4.0478756323e+000,3.2945760681e+000,4.2082575774e+000,3.5423380575e+000,4.1016729175e+000,3.4113570645e+000,3.8338858247e+000,2.9325793562e+000,3.0460200608e+000,
3.2156250000e+001,4.1972193534e+000,4.3642527151e+000,3.3084529835e+000,3.7974569259e+000,3.9177118085e+000,4.0162882631e+000,3.2720309758e+000,4.1238148365e+000,3.4121391499e+000,4.0772546061e+000,3.3546418361e+000,3.7616225658e+000,2.7929138496e+000,3.0115185948e+000,
3.2250000000e+001,4.2308256935e+000,4.4324747826e+000,3.3287490700e+000,3.8313627500e+000,3.8865805958e+000,4.0153826983e+000,3.2831112002e+000,4.1207720302e+000,3.3771521161e+000,4.1643600725e+000,3.2251565867e+000,3.7734985655e+000,2.7787836204e+000,3.1426493778e+000,
3.2343750000e+001,4.2184664787e+000,4.4826377320e+000,3.3458826108e+000,3.8197425154e+000,3.9742609440e+000,4.0244551666e+000,3.3827214307e+000,4.0772970234e+000,3.2914150202e+000,4.1568077333e+000,3.0201157617e+000,3.7777383418e+000,2.7777702711e+000,3.1378356113e+000,
3.2437500000e+001,4.2515289824e+000,4.4927580401e+000,3.4537469877e+000,3.8867920990e+000,3.9747374646e+000,4.1095698647e+000,3.4119018105e+000,4.1233495999e+000,3.2359179995e+000,4.2403126483e+000,2.9857731117e+000,3.7785710819e+000,2.5710502869e+000,3.1322220250e+000,
3.2531250000e+001,4.2140032231e+000,4.4492647436e+000,3.4571656622e+000,3.8830316055e+000,3.8842380324e+000,4.1269741009e+000,3.2890651388e+000,4.1330973599e+000,3.2529233592e+000,4.2451046677e+000,3.0081511777e+000,3.7852279644e+000,2.6024990860e+000,3.1976012321e+000,
3.2625000000e+001,4.2147626263e+000,4.4202384995e+000,3.4243238476e+000,3.8308856005e+000,3.9000572767e+000,4.0828565526e+000,3.2770470894e+000,4.0996712453e+000,3.3710692026e+000,4.2336926686e+000,3.0108856386e+000,3.7384516411e+000,2.6535346788e+000,3.1681078160e+000,
3.2718750000e+001,4.1755720761e+000,4.4323958945e+000,3.2823230681e+000,3.7669411257e+000,3.9120161744e+000,4.0393045151e+000,3.2664403532e+000,4.1351075968e+000,3.3029547464e+000,4.3003247372e+000,2.8966261643e+000,3.8068614194e+000,2.5877519857e+000,3.1270678080e+000,
3.2812500000e+001,3.8523445255e+000,4.2962421947e+000,3.2432131279e+000,3.6885948215e+000,3.6179722525e+000,4.3592852111e+000,3.1715722507e+000,4.0085065044e+000,3.2815085864e+000,4.2848289228e+000,2.8789905683e+000,3.8431518296e+000,2.6065698060e+000,3.0887890812e+000,
3.2906250000e+001,3.6086400189e+000,4.2464285320e+000,3.1678402016e+000,3.5331088609e+000,3.4922984074e+000,4.4094843956e+000,3.0780633518e+000,3.9581036854e+000,3.2912587708e+000,4.2715817954e+000,2.7153843567e+000,3.7664549992e+000,2.5631485983e+000,2.9485263158e+000,
3.3000000000e+001,3.3622538113e+000,4.1744566491e+000,3.0555678482e+000,3.1883635077e+000,3.3839066689e+000,4.2353756032e+000,2.9354622669e+000,3.3953078522e+000,3.4417410280e+000,4.1872008267e+000,2.7682148107e+000,3.5904061486e+000,2.6425947718e+000,2.9417684713e+000,
3.3093750000e+001,3.4167763646e+000,4.0723735903e+000,3.1170928250e+000,3.0575988925e+000,3.3618688727e+000,4.2100914424e+000,3.0741448599e+000,3.1601208149e+000,3.4140101995e+000,4.2417624922e+000,2.7476581870e+000,3.5493957242e+000,2.6217378639e+000,2.8989683482e+000,
3.3187500000e+001,3.6124050288e+000,4.0383240917e+000,3.2045343236e+000,3.0525642513e+000,3.5085787816e+000,4.3088353981e+000,3.1032819971e+000,3.3606915961e+000,3.4255297229e+000,4.2352741851e+000,2.9594323884e+000,3.6352782425e+000,2.7537481428e+000,2.8676547157e+000,
3.3281250000e+001,3.7419915875e+000,4.0457183711e+000,3.2688364005e+000,3.1163003675e+000,3.6673475029e+000,4.4026079340e+000,3.0989657728e+000,3.4376851145e+000,3.3685148045e+000,4.2107780118e+000,3.0004339656e+000,3.7563185223e+000,2.7997324751e+000,2.9915577412e+000,
3.3375000000e+001,3.7500423845e+000,3.9856582201e+000,3.1405779642e+000,3.3110329115e+000,3.6154313752e+000,4.4387092676e+000,2.9580017918e+000,3.6351957224e+000,3.4677896601e+000,4.3376022343e+000,3.2483969393e+000,3.8984115983e+000,2.9178820183e+000,3.1455209517e+000,
3.3468750000e+001,3.8280777751e+000,3.9767152786e+000,3.1864086446e+000,3.4509473465e+000,3.6214837655e+000,4.4755778955e+000,2.9914043704e+000,3.8605163508e+000,3.5046370145e+000,4.4501922612e+000,3.3305624369e+000,4.0004982197e+000,3.0539058512e+000,3.3023862387e+000,
3.3562500000e+001,3.8193934517e+000,3.9985855192e+000,3.2117349441e+000,3.5256813179e+000,3.6932908938e+000,4.5002179615e+000,3.1174564925e+000,3.9453535697e+000,3.4468539122e+000,4.4677894147e+000,3.3398645407e+000,4.0411932169e+000,3.0170626144e+000,3.3503928641e+000,
3.3656250000e+001,3.8559213819e+000,4.0093855258e+000,3.1878476335e+000,3.5391602466e+000,3.7132944870e+000,4.5034976337e+000,3.1495504440e+000,3.9091227609e+000,3.3923525137e+000,4.4338566031e+000,3.3464282190e+000,4.0443489438e+000,3.0181827644e+000,3.3901513680e+000,
3.3750000000e+001,3.9186980485e+000,3.9405398508e+000,3.1337648071e+000,3.5701308020e+000,3.7534461789e+000,4.4370837461e+000,3.2078289129e+000,3.9220810278e+000,3.4873672756e+000,4.4676153182e+000,3.4455983156e+000,3.9680473949e+000,3.1742785505e+000,3.4752032258e+000,
3.3843750000e+001,4.0224130754e+000,4.0368431916e+000,3.1159361265e+000,3.6678955032e+000,3.7478512546e+000,4.2123384046e+000,3.2833148062e+000,4.0225131033e+000,3.5397756086e+000,4.4988400211e+000,3.5334158891e+000,4.0635306617e+000,3.2166749362e+000,3.5275450438e+000,
3.3937500000e+001,4.0304854769e+000,4.0767494178e+000,3.1880571927e+000,3.7112033156e+000,3.7418978533e+000,4.1479020785e+000,3.3928298239e+000,4.0224184885e+000,3.4680857157e+000,4.5254776149e+000,3.5678937475e+000,4.0819980619e+000,3.2134895767e+000,3.5887741955e+000,
3.4031250000e+001,4.1483472976e+000,4.3927030722e+000,3.3623588648e+000,3.7757439075e+000,3.7611504907e+000,4.1781035184e+000,3.4625773428e+000,4.0877204113e+000,3.5204748570e+000,4.4117796237e+000,3.6241710753e+000,4.0305114379e+000,3.2263685068e+000,3.6100439228e+000,
3.4125000000e+001,4.1185932765e+000,4.4621310789e+000,3.3860615135e+000,3.8320958633e+000,3.7246959182e+000,4.1757923579e+000,3.4022733474e+000,4.1071625826e+000,3.5374760661e+000,4.4046228251e+000,3.5512464464e+000,4.0043159679e+000,3.1687481430e+000,3.6242561194e+000,
3.4218750000e+001,3.9312713550e+000,4.3575568572e+000,3.3516445223e+000,3.9359382896e+000,3.4614783026e+000,4.1326515550e+000,3.3515468373e+000,4.0496315824e+000,3.5985658290e+000,4.4160003705e+000,3.5456265689e+000,3.9363244349e+000,3.1654004635e+000,3.6728688836e+000,
3.4312500000e+001,3.8991487347e+000,4.3259426031e+000,3.3431880597e+000,3.8989766502e+000,3.3910749291e+000,4.1162128279e+000,3.3223467136e+000,3.9682465323e+000,3.5792671255e+000,4.4030156935e+000,3.4402213657e+000,3.7678914761e+000,3.0534513440e+000,3.5337917904e+000,
3.4406250000e+001,3.8520303448e+000,4.2378713580e+000,3.3204533297e+000,3.7528591766e+000,3.3404674898e+000,4.0011162955e+000,3.2885311066e+000,3.7862021706e+000,3.5823925916e+000,4.2635673621e+000,3.3798152247e+000,3.6390735228e+000,2.9792884411e+000,3.3332005902e+000,
3.4500000000e+001,3.7802730040e+000,4.2268196641e+000,3.2862981866e+000,3.7065958358e+000,3.2585681991e+000,3.9100359916e+000,3.2277094493e+000,3.6370195836e+000,3.5737526432e+000,4.1504357348e+000,3.3502826471e+000,3.5498947504e+000,2.9678276898e+000,3.2276223817e+000,
3.4593750000e+001,3.8199316500e+000,4.2224329662e+000,3.3474673690e+000,3.7085738627e+000,3.1431518270e+000,4.0027180915e+000,3.2321522104e+000,3.6536095764e+000,3.5404219653e+000,4.1193249479e+000,3.3706012521e+000,3.5751045692e+000,2.9757772357e+000,3.2914240081e+000,
3.4687500000e+001,3.8239228571e+000,4.2588170364e+000,3.3630084440e+000,3.7246437974e+000,2.9870819850e+000,3.9489497069e+000,3.1837753690e+000,3.6904043676e+000,3.6089590617e+000,4.0277040549e+000,3.3675052372e+000,3.5689952994e+000,3.0454469489e+000,3.2301207963e+000,
3.4781250000e+001,3.7004988367e+000,4.2816021857e+000,3.3484898743e+000,3.6528299029e+000,3.0442980849e+000,3.9734252083e+000,3.1045695858e+000,3.6440455924e+000,3.6150893117e+000,4.0545124344e+000,3.1307964969e+000,3.6790228877e+000,2.9766331512e+000,3.1902491519e+000,
3.4875000000e+001,3.6398646999e+000,4.1893919480e+000,3.3723466374e+000,3.5848369896e+000,3.0482310446e+000,3.8963428883e+000,2.9977555550e+000,3.5153180133e+000,3.6450846680e+000,3.9873579354e+000,3.0826434940e+000,3.6389093311e+000,2.9603242607e+000,3.2970439631e+000,
3.4968750000e+001,3.6053817971e+000,4.0472791696e+000,3.2851123878e+000,3.5002240671e+000,3.0609025398e+000,3.9822368376e+000,2.7782040511e+000,3.4901835517e+000,3.6265654743e+000,3.9535921571e+000,2.8470214077e+000,3.6454005705e+000,2.8841868043e+000,3.1964473363e+000,
3.5062500000e+001,3.5624179430e+000,3.8038051937e+000,3.2466481573e+000,3.4451988292e+000,3.2386197971e+000,4.0953253860e+000,2.6759826125e+000,3.5013967213e+000,3.5612206299e+000,3.9330678801e+000,2.8886204144e+000,3.6450324764e+000,2.9122060808e+000,3.1952552712e+000,
3.5156250000e+001,3.5103531498e+000,3.6928330185e+000,3.1164220154e+000,3.3512304032e+000,3.3755107395e+000,4.1768748644e+000,2.8100770142e+000,3.5494581916e+000,3.5275575738e+000,4.0819744241e+000,2.8663395134e+000,3.6699018824e+000,2.9472414027e+000,3.1809806467e+000,
3.5250000000e+001,3.5030930588e+000,3.6969886705e+000,3.0563275637e+000,3.3509007924e+000,3.4389405093e+000,4.2375399331e+000,2.7790432138e+000,3.5742054491e+000,3.5578722108e+000,4.0536251222e+000,2.8894824731e+000,3.6906170175e+000,3.0460216811e+000,3.1667175791e+000,
3.5343750000e+001,3.5840099046e+000,3.8181740440e+000,3.0580018810e+000,3.3717218990e+000,3.5012490485e+000,4.2831503152e+000,2.8662801536e+000,3.6209955488e+000,3.5605865176e+000,4.0656979238e+000,2.9317194982e+000,3.6642109300e+000,3.0707749284e+000,3.1783521168e+000,
3.5437500000e+001,3.5503765606e+000,3.8337119822e+000,2.9747263231e+000,3.3312766492e+000,3.5129122449e+000,4.2703886715e+000,2.8097951130e+000,3.5978582128e+000,3.5961404560e+000,4.0072924142e+000,2.9185818362e+000,3.6099439304e+000,3.0732588905e+000,3.1898896336e+000,
3.5531250000e+001,3.4214103432e+000,3.7873950979e+000,2.9061736572e+000,3.2548232721e+000,3.5256604612e+000,4.2402228803e+000,2.8374266384e+000,3.5616151883e+000,3.6454988980e+000,4.0159337000e+000,2.7443426877e+000,3.5539523405e+000,2.9606895791e+000,3.1323797524e+000,
3.5625000000e+001,3.3635359372e+000,3.7376192538e+000,2.8473743860e+000,3.2088687587e+000,3.5429479610e+000,4.6405534280e+000,2.7594047427e+000,3.5005031977e+000,3.6625588912e+000,4.0062476521e+000,2.6856468172e+000,3.4682601500e+000,2.8779718396e+000,2.9784507777e+000,
3.5718750000e+001,3.3741198673e+000,3.6976461811e+000,2.9715451863e+000,3.2615672313e+000,3.5082630182e+000,4.7843622253e+000,2.7881201833e+000,3.4574884706e+000,3.4738773410e+000,3.9251294128e+000,2.8373817854e+000,3.4011778591e+000,2.9010473493e+000,3.0395248977e+000,
3.5812500000e+001,3.4771153346e+000,3.6655764053e+000,2.9793183031e+000,3.2534553842e+000,3.4651408238e+000,4.7326076945e+000,2.9754722441e+000,3.4554444053e+000,3.3329127245e+000,3.9778634833e+000,2.9257660878e+000,3.2872937651e+000,2.9010309573e+000,2.8383139663e+000,
3.5906250000e+001,3.4853877265e+000,3.7748265435e+000,2.8616626174e+000,3.3603978132e+000,3.4041462290e+000,4.7134274956e+000,3.0059611777e+000,3.4894609207e+000,3.2274198384e+000,3.9187333496e+000,2.9064565177e+000,3.3112875233e+000,2.9113044666e+000,2.8927055671e+000,
3.6000000000e+001,3.5773070712e+000,3.7713137037e+000,2.8477194678e+000,3.4211439194e+000,3.3513302463e+000,4.6853322168e+000,2.9270106468e+000,3.5516086350e+000,3.2179428232e+000,3.9652202516e+000,2.9599683655e+000,3.3142440423e+000,2.8912356887e+000,2.9834569517e+000,
3.6093750000e+001,3.4657016996e+000,3.6803028056e+000,2.7369207059e+000,3.3675045428e+000,3.1947800730e+000,4.6130185190e+000,2.9064043066e+000,3.5126851571e+000,3.2725788435e+000,3.9744860427e+000,2.8957259855e+000,3.3873419756e+000,2.8594589939e+000,2.9734078180e+000,
3.6187500000e+001,3.5068016952e+000,3.6302827690e+000,2.7104701886e+000,3.1587479994e+000,3.1225264930e+000,4.5662408600e+000,2.7573473728e+000,3.3710666210e+000,3.3126794767e+000,3.7828877507e+000,2.8236745107e+000,3.2985634286e+000,2.8328658877e+000,3.0204251703e+000,
3.6281250000e+001,3.2769096389e+000,3.6538803201e+000,2.6795066720e+000,2.9608012396e+000,2.9650547075e+000,4.4281055585e+000,2.8849972615e+000,3.2044373107e+000,3.2377784072e+000,3.6953426961e+000,2.7432999645e+000,3.3428312141e+000,2.7147310319e+000,3.0197732955e+000,
3.6375000000e+001,3.2917643597e+000,3.6866592090e+000,2.6938847309e+000,3.0000139355e+000,2.9888721943e+000,4.4948576129e+000,2.9760647319e+000,3.3306724887e+000,3.2936075836e+000,3.7138499706e+000,2.8708087027e+000,3.3453387038e+000,2.8401320148e+000,3.0158391038e+000,
3.6468750000e+001,3.4859553046e+000,3.9603208112e+000,2.9484490408e+000,3.1910678054e+000,3.0564117004e+000,4.5467717009e+000,3.1341671998e+000,3.5015023034e+000,3.3735477087e+000,3.7399050608e+000,3.0650514993e+000,3.4296825633e+000,2.8850347845e+000,3.1492811283e+000,
3.6562500000e+001,3.5553762375e+000,4.0678147038e+000,2.9970840168e+000,3.2516847369e+000,3.1054493279e+000,4.4164079105e+000,3.1256214165e+000,3.5152193497e+000,3.4279309706e+000,3.8023563925e+000,3.1870929055e+000,3.3931564252e+000,2.9871864238e+000,3.2697899482e+000,
3.6656250000e+001,3.5880753035e+000,4.1662019782e+000,2.9790235496e+000,3.3736719347e+000,3.1488020472e+000,3.8321317582e+000,3.2158355497e+000,3.6169413854e+000,3.4945625417e+000,3.8609837080e+000,3.2501742438e+000,3.4570633382e+000,2.9543851994e+000,3.2952506488e+000,
3.6750000000e+001,3.6024323217e+000,4.1581076113e+000,3.0197313187e+000,3.4305749019e+000,3.1826388336e+000,3.7008064876e+000,3.2578859255e+000,3.6796571539e+000,3.6474032364e+000,3.8579593904e+000,3.2081163517e+000,3.3365853832e+000,2.8980782993e+000,3.1566777736e+000,
3.6843750000e+001,3.6538226571e+000,4.2177130756e+000,3.0828326408e+000,3.4228147289e+000,3.2241657761e+000,3.7864584759e+000,3.1422157856e+000,3.6916901659e+000,3.6137393615e+000,3.8125454042e+000,3.2341375069e+000,3.2387031114e+000,2.8825527890e+000,3.1902119381e+000,
3.6937500000e+001,3.7320117218e+000,4.2256066270e+000,3.1947215052e+000,3.6182638208e+000,3.3068380690e+000,3.9235286215e+000,3.2031830044e+000,3.8238704366e+000,3.6127465431e+000,3.9169583049e+000,3.2645156004e+000,3.4224520718e+000,2.8122375214e+000,3.2114429186e+000,
3.7031250000e+001,3.8118485410e+000,4.4769987966e+000,3.3419732232e+000,3.7643326542e+000,3.3332549253e+000,4.0854435764e+000,3.3356892969e+000,3.9593872354e+000,3.6461213623e+000,4.0219557448e+000,3.3477261575e+000,3.6175731595e+000,2.8002275834e+000,3.4405520604e+000,
3.7125000000e+001,3.9491186744e+000,4.6565612616e+000,3.3867108751e+000,3.8413040019e+000,3.4014556398e+000,4.1992003434e+000,3.3677838078e+000,4.0384743625e+000,3.7355603988e+000,4.0879198298e+000,3.4035150071e+000,3.6912306178e+000,2.8829729818e+000,3.4100757365e+000,
3.7218750000e+001,3.9345062500e+000,4.6797224989e+000,3.4840192870e+000,3.9591380909e+000,3.4462669728e+000,4.2917814228e+000,3.3472904155e+000,4.1025559983e+000,3.8288224105e+000,4.1552203478e+000,3.4080106132e+000,3.8027207069e+000,2.8744546907e+000,3.5238394893e+000,
3.7312500000e+001,3.9903869709e+000,4.6738418951e+000,3.5222864366e+000,3.9521968390e+000,3.4591974555e+000,4.2373539859e+000,3.2864009412e+000,4.0931827640e+000,3.8934819994e+000,4.1074436330e+000,3.3832029789e+000,3.7751860224e+000,2.8352252103e+000,3.5613962315e+000,
3.7406250000e+001,4.0311866688e+000,4.6359543545e+000,3.4732278615e+000,3.9163591700e+000,3.4004096481e+000,4.1903892655e+000,3.2070019415e+000,4.0575559799e+000,3.9053520773e+000,4.0867526732e+000,3.4564069720e+000,3.7700406777e+000,2.8987872847e+000,3.5629553029e+000,
3.7500000000e+001,4.1016318345e+000,4.5862639626e+000,3.4956554221e+000,4.0224821974e+000,3.4262249462e+000,4.2138947319e+000,3.0978341328e+000,4.0898055429e+000,3.8153890004e+000,4.2360130445e+000,3.4000470049e+000,3.8327095527e+000,2.8572111945e+000,3.5215610223e+000,
3.7593750000e+001,4.1210910121e+000,4.7128795059e+000,3.5670101814e+000,4.0160322721e+000,3.4192706605e+000,4.2384475937e+000,3.1284983247e+000,4.1265412737e+000,3.7778668696e+000,4.2205985178e+000,3.3931588039e+000,3.8585957621e+000,2.9307478875e+000,3.4929780464e+000,
3.7687500000e+001,4.1270992164e+000,4.7664714558e+000,3.5183725100e+000,3.9792990459e+000,3.4843161376e+000,4.2127136502e+000,3.0195973879e+000,4.1099530355e+000,3.7746572967e+000,4.1896768937e+000,3.3805194974e+000,3.8912006516e+000,2.9251122528e+000,3.5037917071e+000,
3.7781250000e+001,4.0565332719e+000,4.7512997747e+000,3.4722954609e+000,3.9248865362e+000,3.4110532840e+000,4.2000861072e+000,2.9865205035e+000,4.0442670458e+000,3.6983289938e+000,4.1778608881e+000,3.2926067042e+000,3.8737461804e+000,2.8624327157e+000,3.4536785263e+000,
3.7875000000e+001,3.9837184720e+000,4.7041199350e+000,3.3965258274e+000,3.8671763932e+000,3.4513819806e+000,4.0865648267e+000,3.0817696355e+000,4.0086896068e+000,3.6922449139e+000,4.1709800842e+000,3.2893174605e+000,3.8557811555e+000,2.9072019379e+000,3.4450254193e+000,
3.7968750000e+001,3.9300847462e+000,4.7421284504e+000,3.3780477640e+000,3.8138649915e+000,3.4996979135e+000,4.0875587110e+000,3.0373604757e+000,3.9870528502e+000,3.6586601266e+000,4.2482849253e+000,3.2630552024e+000,3.7106623405e+000,3.0110164195e+000,3.2985492154e+000,
3.8062500000e+001,3.9374882487e+000,4.4730329359e+000,3.4003357188e+000,3.7315061710e+000,3.4789591402e+000,3.9970238217e+000,3.0813295862e+000,3.9745718027e+000,3.6751235670e+000,4.2462902370e+000,3.2387328311e+000,3.6086708221e+000,3.0622007690e+000,3.1853518628e+000,
3.8156250000e+001,3.8086071047e+000,4.4499427948e+000,3.2842582928e+000,3.5406684922e+000,3.4163186409e+000,3.8726602968e+000,3.0992589172e+000,3.8725408042e+000,3.5599940467e+000,4.1500653311e+000,3.2526466679e+000,3.4610060831e+000,3.0065139417e+000,2.9917294398e+000,
3.8250000000e+001,3.8080010928e+000,4.4882238321e+000,3.2456404929e+000,3.4910002316e+000,3.4119269815e+000,3.7524877387e+000,3.1018356704e+000,3.8559670282e+000,3.5075040318e+000,4.1932864933e+000,3.2535233571e+000,3.5316452684e+000,3.0137719985e+000,2.8217214074e+000,
3.8343750000e+001,3.7429898897e+000,4.4919794791e+000,3.1926289259e+000,3.4636198554e+000,3.3848065686e+000,3.6882247849e+000,3.0836139690e+000,3.8306556156e+000,3.5560080389e+000,4.2150428869e+000,3.2236854079e+000,3.5331474965e+000,3.0097085855e+000,2.8248675746e+000,
3.8437500000e+001,3.5873322748e+000,4.4254292146e+000,3.2000972512e+000,3.3344843132e+000,3.2863822253e+000,3.6396300589e+000,3.1143997650e+000,3.7643760641e+000,3.5569800196e+000,4.1367839794e+000,2.9825494399e+000,3.4427988754e+000,2.8925195776e+000,2.7413754428e+000,
3.8531250000e+001,3.5051272297e+000,4.3375137167e+000,3.1617576759e+000,3.2546497150e+000,3.1988928009e+000,3.5362567778e+000,3.1678959602e+000,3.6627270563e+000,3.5478797069e+000,4.0163743223e+000,2.8971407854e+000,3.3807604943e+000,2.9413142803e+000,2.6867205119e+000,
3.8625000000e+001,3.5326236318e+000,4.1911082098e+000,3.1289005795e+000,3.4449881620e+000,3.2703095416e+000,3.7483862675e+000,3.2837224318e+000,3.6577943547e+000,3.5130091605e+000,3.9890980289e+000,2.9820335632e+000,3.3730994343e+000,2.8723144034e+000,2.6473029500e+000,
3.8718750000e+001,3.5211505021e+000,4.1496177308e+000,3.2285541977e+000,3.4674553579e+000,3.3559616256e+000,3.7307226927e+000,3.3332591860e+000,3.7198758668e+000,3.4623100843e+000,3.9331572367e+000,2.8507015737e+000,3.3325075440e+000,2.8793257935e+000,2.6353558778e+000,
3.8812500000e+001,3.5320599320e+000,4.2321078989e+000,3.2024462740e+000,3.4493321737e+000,3.2785148645e+000,3.7394142159e+000,3.2447675814e+000,3.7389360871e+000,3.5083874150e+000,4.0477709821e+000,2.8609188641e+000,3.4047578998e+000,2.9003349711e+000,2.7011173973e+000,
3.8906250000e+001,3.4685770239e+000,4.1734369110e+000,3.2156240629e+000,3.3645345909e+000,3.1342004974e+000,3.6761609543e+000,3.1655586125e+000,3.7064197409e+000,3.5075582422e+000,4.0903579842e+000,2.8179809126e+000,3.4296985062e+000,2.8582703864e+000,2.7190359662e+000,
3.9000000000e+001,3.2956663860e+000,4.1176986497e+000,3.0740112387e+000,3.2033023321e+000,2.9880045633e+000,3.4614450793e+000,3.0542585713e+000,3.5313739473e+000,3.5057883680e+000,3.8057736235e+000,2.8107292939e+000,3.3432970297e+000,2.8138228951e+000,2.6813601933e+000,
3.9093750000e+001,3.2957104915e+000,4.1121198796e+000,3.0538449571e+000,3.3697194828e+000,3.0473755208e+000,3.5507662194e+000,3.0314291267e+000,3.6751446810e+000,3.5702858540e+000,3.8753670817e+000,2.9629820631e+000,3.5421026166e+000,2.9528384021e+000,3.0485495256e+000,
3.9187500000e+001,3.3840448132e+000,3.9613200065e+000,3.1982889804e+000,3.6778631657e+000,3.0147763775e+000,3.7395900130e+000,3.0458766287e+000,3.9088371559e+000,3.5689056417e+000,3.9207552146e+000,3.1224133149e+000,3.6556772203e+000,3.0137374781e+000,3.3094538106e+000,
3.9281250000e+001,3.5006468237e+000,4.0035775135e+000,3.2645487321e+000,3.7468615345e+000,3.0434469374e+000,3.8998720109e+000,3.0969483024e+000,4.0231172219e+000,3.4528903862e+000,4.0080182835e+000,3.2883647510e+000,3.8872277441e+000,3.1185389970e+000,3.6173526299e+000,
3.9375000000e+001,3.4894821288e+000,4.1322032165e+000,3.2448102101e+000,3.7447574649e+000,3.1385042084e+000,3.9395154488e+000,3.0939932277e+000,4.0515722739e+000,3.3466408126e+000,4.0574013114e+000,3.2776749339e+000,3.8604859089e+000,3.0963549225e+000,3.5880785006e+000,
3.9468750000e+001,3.3944634729e+000,4.1662374005e+000,3.1710939996e+000,3.7204188090e+000,3.1483335941e+000,3.9644607625e+000,3.1011242280e+000,4.0332747902e+000,3.2747989446e+000,4.1351755627e+000,3.3210293671e+000,3.9320941748e+000,3.0663141990e+000,3.6164283498e+000,
3.9562500000e+001,3.4762182726e+000,4.1629506476e+000,3.3519096942e+000,3.7150149786e+000,3.2563213023e+000,4.0503486990e+000,3.0744770173e+000,4.0956669916e+000,3.3274802992e+000,4.2780432903e+000,3.5546464500e+000,4.0249388695e+000,3.0287497452e+000,3.7285212966e+000,
3.9656250000e+001,3.4203153776e+000,4.0536637303e+000,3.3086963360e+000,3.5480096815e+000,3.2491921333e+000,3.9148553109e+000,3.0776056352e+000,4.0862241938e+000,3.6475564937e+000,4.3279337835e+000,3.5867887110e+000,4.1192241656e+000,3.2699940801e+000,3.8455986512e+000,
3.9750000000e+001,3.5956486443e+000,4.0969996534e+000,3.3753715557e+000,3.6303676278e+000,3.4871222981e+000,4.0676302606e+000,3.1027513285e+000,4.2960673662e+000,3.7226562167e+000,4.3132792792e+000,3.7017153160e+000,4.1090888267e+000,3.3249000330e+000,3.8582573393e+000,
3.9843750000e+001,3.7190380456e+000,4.2166470866e+000,3.5408909425e+000,3.8711164927e+000,3.6234339393e+000,4.3606018832e+000,3.1630031923e+000,4.4637044003e+000,3.7672731357e+000,4.5396060608e+000,3.8920861306e+000,4.1721139792e+000,3.3853667838e+000,3.9285300239e+000,
3.9937500000e+001,3.8826530495e+000,4.2506732537e+000,3.6335156540e+000,4.0575327732e+000,3.7648041313e+000,4.6756436669e+000,3.1445876072e+000,4.5978204620e+000,3.7407341404e+000,4.7319232915e+000,4.0516172561e+000,4.4547559069e+000,3.4973617264e+000,4.1310909626e+000,
4.0031250000e+001,4.1082292375e+000,4.4841240303e+000,3.7603152935e+000,4.1799441866e+000,3.8344352282e+000,5.2924981390e+000,3.1774527592e+000,4.6315330169e+000,3.7595386125e+000,4.7420932483e+000,4.1069662473e+000,4.4913425727e+000,3.5456179784e+000,4.1932532429e+000,
4.0125000000e+001,4.1143533510e+000,4.5567893315e+000,3.7952391248e+000,4.1480902503e+000,3.8789456423e+000,6.3363002927e+000,3.2476851893e+000,4.6108165236e+000,3.7702548170e+000,4.7290897086e+000,4.0964708291e+000,4.4734580749e+000,3.5211480875e+000,4.1591898740e+000,
4.0218750000e+001,4.1314580452e+000,4.5687466198e+000,3.8471651335e+000,4.1347838357e+000,3.9927884536e+000,6.4693750420e+000,3.2418240865e+000,4.6094828897e+000,3.8026205280e+000,4.7593971169e+000,4.0780653474e+000,4.4288804093e+000,3.4797830453e+000,4.2013354853e+000,
4.0312500000e+001,4.1286993935e+000,4.5719797309e+000,3.8939697950e+000,4.1276005558e+000,4.0364240874e+000,6.5547820003e+000,3.3959371252e+000,4.6163035464e+000,3.8108625880e+000,4.8197254947e+000,4.1175170811e+000,4.4245327415e+000,3.4489863590e+000,4.1710471671e+000,
4.0406250000e+001,4.2244135567e+000,4.5088845179e+000,4.0006085898e+000,4.1913679160e+000,4.1178773081e+000,6.6142145293e+000,3.5341524608e+000,4.7005550097e+000,3.9471821270e+000,4.8550427678e+000,4.1551626039e+000,4.4514352582e+000,3.5515979832e+000,4.2067807754e+000,
4.0500000000e+001,4.2964618826e+000,4.5432560983e+000,4.0805952583e+000,4.3069302872e+000,4.2849912742e+000,6.6801383664e+000,3.5872735909e+000,4.7516896943e+000,4.0101378936e+000,4.9854708154e+000,4.2174208806e+000,4.5777102177e+000,3.5577816372e+000,4.2439969771e+000,
4.0593750000e+001,4.3309569512e+000,4.5576753686e+000,3.9943145580e+000,4.3548663465e+000,4.2794145108e+000,6.8767293984e+000,3.6905799130e+000,4.7451818490e+000,3.8638834586e+000,4.9431031493e+000,4.1052486813e+000,4.5802094895e+000,3.5315234856e+000,4.2757284972e+000,
4.0687500000e+001,4.3570424315e+000,4.6528658748e+000,3.9959045244e+000,4.4268242838e+000,4.2670237447e+000,6.9062834035e+000,3.7094967333e+000,4.7521114135e+000,3.9275509817e+000,5.0070374861e+000,4.1886733818e+000,4.6447121820e+000,3.6687038090e+000,4.3227298041e+000,
4.0781250000e+001,4.2455510409e+000,4.5863167204e+000,3.8956235457e+000,4.4029443260e+000,4.1768060385e+000,6.9240337916e+000,3.7334527054e+000,4.6851488590e+000,3.8876002772e+000,4.9216599295e+000,4.1952938950e+000,4.6621219213e+000,3.6081993920e+000,4.4173147130e+000,
4.0875000000e+001,4.1788891614e+000,4.5411398582e+000,3.8641393968e+000,4.2966055750e+000,4.1478374327e+000,6.9426704145e+000,3.7343434702e+000,4.5161325205e+000,3.9809610288e+000,4.7673969287e+000,4.2759182061e+000,4.5250539735e+000,3.5275292171e+000,4.3513042071e+000,
4.0968750000e+001,4.0825267176e+000,4.5513819034e+000,3.7335934460e+000,4.1605563850e+000,4.1539622648e+000,6.9005569759e+000,3.7897895782e+000,4.5193239413e+000,4.0142031915e+000,4.7996592232e+000,4.2734588233e+000,4.3749832447e+000,3.4622396057e+000,4.2129965800e+000,
4.1062500000e+001,3.9291838304e+000,4.3557491161e+000,3.7002187979e+000,4.1058944913e+000,4.0696520837e+000,6.7795702664e+000,3.7925445622e+000,4.4873562060e+000,4.0308139941e+000,4.7885745440e+000,4.2373105424e+000,4.3678873450e+000,3.4277363468e+000,4.1951554292e+000,
4.1156250000e+001,3.8839221787e+000,4.2750591669e+000,3.6298621054e+000,4.0434045474e+000,4.0560102527e+000,6.2840133184e+000,3.7368835129e+000,4.4134026167e+000,3.9588092293e+000,4.8144952738e+000,4.2497428085e+000,4.3221974544e+000,3.4511838484e+000,4.1812075264e+000,
