Time (s),AF3,AF4,F3,F4,F7,F8,FC5,FC6,T7,T8,P7,P8,O1,O2,Sampling Rate
0.0000000000e+000,4.0089561133e+000,4.6872283689e+000,4.2030982314e+000,4.2578249544e+000,3.6311840177e+000,3.3671797624e+000,3.2748123517e+000,3.5895403433e+000,2.4226973420e+000,4.0499356185e+000,2.4959008362e+000,3.9076180839e+000,3.2249718531e+000,3.6633450906e+000,1
9.3750000000e-002,3.7410659643e+000,4.2654836869e+000,4.0373800623e+000,4.0169435343e+000,3.6747987291e+000,3.1145730094e+000,3.3626659172e+000,3.3218460966e+000,2.3862677513e+000,3.7623153897e+000,2.3630165676e+000,3.4754369645e+000,3.0695016095e+000,3.4056275782e+000,
1.8750000000e-001,3.5362440962e+000,3.9609677086e+000,3.8942375472e+000,3.9669930497e+000,3.5428381745e+000,3.0818697074e+000,3.4084405077e+000,3.2078953245e+000,2.4485129382e+000,3.8448189026e+000,2.3697756665e+000,3.5621242487e+000,3.0618825461e+000,3.4179770997e+000,
2.8125000000e-001,3.5176995174e+000,4.0133974605e+000,3.8896838305e+000,3.9136305883e+000,3.5385362095e+000,3.1893964331e+000,3.4053733686e+000,3.2634450315e+000,2.5188671598e+000,4.0616253588e+000,2.2178980286e+000,3.6124747180e+000,2.9703859451e+000,3.1379111379e+000,
3.7500000000e-001,3.4799096556e+000,4.0211870324e+000,3.8332697292e+000,3.8187944785e+000,3.6117317029e+000,3.3053439697e+000,3.4236489408e+000,3.2298070442e+000,2.5805258982e+000,4.1322194321e+000,2.2576110792e+000,3.6785195831e+000,2.9287362555e+000,3.2789387581e+000,
4.6875000000e-001,3.4733666468e+000,4.0122611292e+000,3.8699298007e+000,3.8297588127e+000,3.6346261393e+000,3.3452281010e+000,3.4194365576e+000,3.1258204412e+000,2.5973580391e+000,4.1269482331e+000,2.4354244873e+000,3.7430367092e+000,3.0194078182e+000,3.4031904512e+000,
5.6250000000e-001,3.3743446235e+000,3.9768958705e+000,3.7962244256e+000,3.8015102509e+000,3.5770863454e+000,3.3158250625e+000,3.3791587468e+000,3.3060827411e+000,2.4956906822e+000,4.1459354340e+000,2.4173667783e+000,3.7918661739e+000,2.9706948702e+000,3.3993937460e+000,
6.5625000000e-001,3.3733984958e+000,3.9291018700e+000,3.8176371747e+000,3.7730588412e+000,3.5929768488e+000,3.2769634911e+000,3.3670607745e+000,3.1743636173e+000,2.4991898121e+000,4.0557616732e+000,2.5002156025e+000,3.8068215249e+000,3.0811266553e+000,3.4923622113e+000,
7.5000000000e-001,3.4384074160e+000,4.0334683338e+000,3.8600421695e+000,3.7654142905e+000,3.7444030561e+000,3.4034591493e+000,3.5218930526e+000,3.3383123000e+000,2.6142375643e+000,4.2011710616e+000,2.6873653121e+000,3.8754270485e+000,3.1049795837e+000,3.5241915017e+000,
8.4375000000e-001,3.3629441041e+000,4.0793130573e+000,3.7952442511e+000,3.8700642516e+000,3.8099689059e+000,3.5207881173e+000,3.6085514204e+000,3.4582078038e+000,2.5999701390e+000,4.2563358523e+000,2.8161693088e+000,3.9462696824e+000,3.1079761079e+000,3.5465911633e+000,
9.3750000000e-001,3.3393288670e+000,4.1113457551e+000,3.8019957109e+000,3.9460325465e+000,3.7858206668e+000,3.5269532701e+000,3.6954136211e+000,3.4959440728e+000,2.6199897091e+000,4.3130511291e+000,2.8350543330e+000,4.0225519607e+000,3.0172599973e+000,3.5568551869e+000,
1.0312500000e+000,3.4670646671e+000,4.2191956919e+000,3.9889783998e+000,4.0241513742e+000,3.8353743663e+000,3.6241854707e+000,3.7743191302e+000,3.5974916885e+000,2.6474336897e+000,4.4047369385e+000,2.9424528607e+000,4.0731302536e+000,3.2495717119e+000,3.5918548289e+000,
1.1250000000e+000,3.4031101047e+000,4.1632788156e+000,4.0172689205e+000,3.9697903657e+000,3.8162248697e+000,3.6697106177e+000,3.6756580040e+000,3.5278998521e+000,2.6706532397e+000,4.4169910824e+000,2.9993669446e+000,4.1092756885e+000,3.3457181061e+000,3.5611757547e+000,
1.2187500000e+000,3.2982589702e+000,3.9973136527e+000,4.1092297835e+000,3.8944501682e+000,3.8420841978e+000,3.5635404236e+000,3.5893163513e+000,3.4471833162e+000,2.6811870623e+000,4.2777849209e+000,3.0245362908e+000,4.0602922141e+000,3.4125790666e+000,3.5857942297e+000,
1.3125000000e+000,3.4481866696e+000,4.0825037479e+000,4.2033603998e+000,4.0367965278e+000,3.9221750580e+000,3.6124975391e+000,3.6654735334e+000,3.5337342140e+000,2.6747349493e+000,4.2391511580e+000,2.9725540828e+000,4.1157998024e+000,3.4114375654e+000,3.6421692451e+000,
1.4062500000e+000,3.4121804846e+000,4.0292910842e+000,4.2192216636e+000,4.0389625597e+000,3.8945307182e+000,3.5662184662e+000,3.6197372583e+000,3.5831277926e+000,2.6047804157e+000,4.2434282645e+000,2.9787934671e+000,4.0461317979e+000,3.4830702162e+000,3.4746696403e+000,
1.5000000000e+000,3.3702410102e+000,3.9821347232e+000,4.2288413793e+000,4.0256419573e+000,3.8403744067e+000,3.4619747003e+000,3.5659780585e+000,3.5114758282e+000,2.6534692090e+000,4.1909356834e+000,2.8389458684e+000,4.0792955459e+000,3.4934987341e+000,3.5688165229e+000,
1.5937500000e+000,3.5057792685e+000,4.0080318502e+000,4.2545107095e+000,4.0490739335e+000,3.8398432578e+000,3.4991683782e+000,3.5149979703e+000,3.4588405899e+000,2.6510568686e+000,4.1854580523e+000,2.9035928363e+000,4.0927641785e+000,3.4845017378e+000,3.6067014249e+000,
1.6875000000e+000,3.6130921625e+000,4.0234266186e+000,4.4570877716e+000,4.0913546397e+000,3.8809271052e+000,3.3774687066e+000,3.6840443889e+000,3.4237122298e+000,2.6723159554e+000,4.1908492611e+000,2.9357822159e+000,4.0656087437e+000,3.4282036263e+000,3.5993519056e+000,
1.7812500000e+000,3.5907633138e+000,3.8944080704e+000,4.5814252227e+000,4.0551683574e+000,3.7654679018e+000,3.2364354682e+000,3.5862588988e+000,3.2923894603e+000,2.5635396914e+000,4.0908688310e+000,2.7804150521e+000,4.0463457010e+000,3.3840423104e+000,3.6846384885e+000,
1.8750000000e+000,3.6394203407e+000,3.8185134476e+000,4.7196468338e+000,3.9582878032e+000,3.7387688371e+000,3.1522761983e+000,3.5180328940e+000,3.2356120246e+000,2.5229662297e+000,4.0626287437e+000,2.7194158916e+000,3.9656303628e+000,3.3712008459e+000,3.5624962945e+000,
1.9687500000e+000,4.5246151531e+000,5.1077368390e+000,4.8244740186e+000,4.0748763736e+000,3.9775754023e+000,3.3483707098e+000,3.5492920709e+000,3.3516299337e+000,2.5942444325e+000,4.0596649139e+000,2.7257566183e+000,3.9996411157e+000,3.4396041568e+000,3.6384606584e+000,
2.0625000000e+000,4.6332719830e+000,5.1921129317e+000,4.7604146742e+000,3.9745250931e+000,3.9035853608e+000,3.1786589542e+000,3.4497500469e+000,3.3285577288e+000,2.5612983596e+000,4.0618927299e+000,2.7134109891e+000,4.0482644724e+000,3.2785044202e+000,3.7516288136e+000,
2.1562500000e+000,4.6725415096e+000,5.2174007535e+000,4.7561411622e+000,4.0023861611e+000,3.9590819231e+000,3.1653028798e+000,3.5388690453e+000,3.4112664833e+000,2.5468586079e+000,4.0706621484e+000,2.7198863630e+000,4.0578931577e+000,3.3186194732e+000,3.9601641989e+000,
2.2500000000e+000,4.7081656398e+000,5.2240068910e+000,4.7798793232e+000,3.9783310275e+000,4.0154873573e+000,3.2056937321e+000,3.7114261540e+000,3.4026156543e+000,2.5778839582e+000,3.9959477267e+000,2.7689364405e+000,4.0007947118e+000,3.4876074356e+000,3.9359784691e+000,
2.3437500000e+000,4.6723067116e+000,5.1722328713e+000,4.7756342851e+000,3.8328550135e+000,3.9156791260e+000,2.9176337035e+000,3.6648585690e+000,3.2047278792e+000,2.5914052375e+000,3.7212004646e+000,2.8381183813e+000,3.8270029644e+000,3.5679695716e+000,3.9327938067e+000,
2.4375000000e+000,4.6740735609e+000,5.1739140450e+000,4.7448191275e+000,3.8029257159e+000,3.9927932090e+000,2.9679341310e+000,3.7521160264e+000,3.2226665203e+000,2.6578280290e+000,3.7788470633e+000,2.8783599528e+000,3.9026976149e+000,3.6984189548e+000,3.9664829791e+000,
2.5312500000e+000,4.6633371331e+000,5.1797344850e+000,4.7551821346e+000,3.8435271194e+000,3.9996544191e+000,3.1281105483e+000,3.7963014910e+000,3.2092775252e+000,2.6678693678e+000,3.8960777722e+000,2.9458739251e+000,3.8091947822e+000,3.7639021130e+000,3.8618412987e+000,
2.6250000000e+000,4.6381738507e+000,5.2106144984e+000,4.7298225833e+000,3.8353735518e+000,3.9864716213e+000,3.1241068789e+000,3.7516644485e+000,3.3036709522e+000,2.6950212371e+000,3.9586953645e+000,2.9951641294e+000,3.8305357904e+000,3.8101285691e+000,3.8300029925e+000,
2.7187500000e+000,4.6142640289e+000,5.2502675229e+000,4.7516823919e+000,3.8509861189e+000,4.0477037848e+000,3.2734217581e+000,3.7967004354e+000,3.4108828380e+000,2.7629678531e+000,3.9961305415e+000,2.9437516229e+000,3.8837939782e+000,3.8433490917e+000,3.9089280536e+000,
2.8125000000e+000,4.6354761011e+000,5.2597420933e+000,4.6400889496e+000,3.8709177209e+000,4.0775600602e+000,3.3137373327e+000,3.7819950047e+000,3.4315128744e+000,2.7629737707e+000,3.9601277948e+000,2.9657020687e+000,3.8792754746e+000,3.8298267679e+000,3.8865600238e+000,
2.9062500000e+000,4.4983218378e+000,5.1067798210e+000,4.5582765191e+000,3.8862474266e+000,4.0088765052e+000,3.3235224365e+000,3.7550360479e+000,3.3993273634e+000,2.7905535170e+000,4.1330483718e+000,3.0601329168e+000,3.9649481077e+000,3.7953089968e+000,4.0468424233e+000,
3.0000000000e+000,3.6968276362e+000,4.2091120878e+000,4.4196101995e+000,3.7415739319e+000,3.8749562089e+000,3.2088594401e+000,3.7513899638e+000,3.3440603079e+000,2.7398887040e+000,4.1135573059e+000,3.0123001557e+000,3.8868240728e+000,3.7736598717e+000,4.0659009597e+000,
3.0937500000e+000,3.4158906646e+000,3.9640709672e+000,4.3735899284e+000,3.7464683110e+000,3.9113345697e+000,3.2787811909e+000,3.7782274594e+000,3.4310940914e+000,2.7705177990e+000,4.0994567646e+000,3.0312690515e+000,3.8585869418e+000,3.7387171844e+000,3.9579596874e+000,
3.1875000000e+000,3.4969423102e+000,4.0169343774e+000,4.3664932714e+000,3.9325669512e+000,3.9718433891e+000,3.4585000690e+000,3.7716871624e+000,3.4950295682e+000,2.9522757920e+000,4.2426631373e+000,3.0288607375e+000,3.8757668732e+000,3.6461353333e+000,3.8712464891e+000,
3.2812500000e+000,3.4782890858e+000,4.0297166536e+000,4.3184147877e+000,3.9290570681e+000,3.9376028299e+000,3.4257518743e+000,3.7056116440e+000,3.4928820741e+000,2.9162921101e+000,4.2518967857e+000,2.9946464629e+000,3.8929886804e+000,3.6586046519e+000,3.8998580068e+000,
3.3750000000e+000,3.6711379554e+000,4.0127323149e+000,4.4087860140e+000,3.8876535515e+000,3.9749909398e+000,3.4168358667e+000,3.7612630878e+000,3.4600912577e+000,2.9187284266e+000,4.2552969289e+000,3.0823350549e+000,3.8274946092e+000,3.7223728397e+000,3.7970601757e+000,
3.4687500000e+000,3.7153221335e+000,4.0370211418e+000,4.4789008206e+000,3.9151247369e+000,4.0634279146e+000,3.4465953316e+000,3.8071748173e+000,3.5197229813e+000,2.9063530696e+000,4.2222556591e+000,3.0378101893e+000,3.7337856718e+000,3.7486512188e+000,3.8300847645e+000,
3.5625000000e+000,3.9346668768e+000,4.4181185590e+000,4.8000484507e+000,4.8603472582e+000,4.3633228452e+000,3.8373334948e+000,3.9958461152e+000,3.7433210350e+000,3.0209061576e+000,4.1992610113e+000,3.0354869470e+000,3.7718359647e+000,3.6854046414e+000,3.9270123001e+000,
3.6562500000e+000,5.0322672516e+000,4.8769238601e+000,5.7286324086e+000,5.2927528688e+000,5.2048367981e+000,4.1490793255e+000,4.4917269589e+000,3.9336724394e+000,3.3038949444e+000,4.2879583488e+000,2.9841729689e+000,3.7409010140e+000,3.7719938183e+000,3.9395158998e+000,
3.7500000000e+000,5.7509340047e+000,5.2427782037e+000,6.0956271077e+000,5.5548467271e+000,5.5457530232e+000,4.6534447041e+000,4.7180346829e+000,4.5493713294e+000,3.5508598207e+000,4.5190777057e+000,3.2063472132e+000,3.8561713569e+000,4.1145373462e+000,4.0351656184e+000,
3.8437500000e+000,5.7739291756e+000,5.3740341700e+000,6.1985007941e+000,5.6737227949e+000,5.6161455653e+000,4.7136167004e+000,4.7766351428e+000,4.5926345762e+000,3.6736389637e+000,4.5757347248e+000,3.1693868652e+000,3.9679294183e+000,4.1807517588e+000,4.1132825995e+000,
3.9375000000e+000,5.8055252034e+000,5.5711150123e+000,6.2138124793e+000,5.6919487944e+000,5.6896919775e+000,4.8165819881e+000,4.7807732699e+000,4.5686692163e+000,3.6431274376e+000,4.5044734832e+000,3.0297771852e+000,3.8419824765e+000,4.1615853753e+000,3.9312965019e+000,
4.0312500000e+000,5.8130456651e+000,5.6091441717e+000,6.2301394831e+000,5.7330544391e+000,5.7447007553e+000,4.8273742025e+000,4.8889537134e+000,4.5685226735e+000,3.6609477710e+000,4.5219610892e+000,3.0662208800e+000,3.7506253607e+000,4.2407156532e+000,3.8508759752e+000,
4.1250000000e+000,5.8143582779e+000,5.6378170157e+000,6.2384892648e+000,5.7440387533e+000,5.7651618057e+000,4.8596700929e+000,4.9640438297e+000,4.6082696076e+000,3.6786824248e+000,4.6158569942e+000,2.9905391168e+000,4.0027667400e+000,4.2422465540e+000,3.9627106390e+000,
4.2187500000e+000,5.8096265019e+000,5.6232876052e+000,6.2455670497e+000,5.7293351984e+000,5.8318352199e+000,4.8406902691e+000,5.0110188651e+000,4.5898704995e+000,3.7011294410e+000,4.5816730035e+000,3.0037963053e+000,4.0562876510e+000,4.3631706858e+000,4.0428724131e+000,
4.3125000000e+000,5.8106225403e+000,5.6325015278e+000,6.2424987502e+000,5.7294748075e+000,5.8400145941e+000,4.8588747696e+000,5.0121214456e+000,4.6036592030e+000,3.7214120298e+000,4.6398086915e+000,2.9996293589e+000,4.1036539549e+000,4.3347215184e+000,4.1024589057e+000,
4.4062500000e+000,5.8017849945e+000,5.6721895843e+000,6.2539367242e+000,5.7384738320e+000,5.8308810562e+000,4.8886810905e+000,5.0184573792e+000,4.6320065212e+000,3.7264344190e+000,4.7370117063e+000,2.9736666386e+000,4.1633327216e+000,4.3561582754e+000,4.4110263247e+000,
4.5000000000e+000,5.7967026247e+000,5.6593862603e+000,6.2438694068e+000,5.7280826902e+000,5.8399087861e+000,4.8680771863e+000,5.0306560588e+000,4.6476051568e+000,3.7206246060e+000,4.8765674005e+000,2.9702798604e+000,4.4910016023e+000,4.3563588766e+000,4.7271648009e+000,
4.5937500000e+000,5.7590301655e+000,5.4051502496e+000,6.0425072555e+000,5.2663446969e+000,5.7640007500e+000,4.6795637739e+000,4.9539081330e+000,4.5707126725e+000,3.6816432737e+000,4.8753793215e+000,2.9160857670e+000,4.4956410332e+000,4.4537213901e+000,4.7041260791e+000,
4.6875000000e+000,4.5730439231e+000,5.1254513105e+000,5.4654578272e+000,4.8752362871e+000,5.2015292361e+000,4.4582782916e+000,4.6578035799e+000,4.2364793021e+000,3.3384750051e+000,4.7310634041e+000,2.8700701299e+000,4.4332547729e+000,4.3826343693e+000,4.6947665944e+000,
4.7812500000e+000,3.8272935410e+000,4.8734523229e+000,5.0166914111e+000,4.3541127335e+000,5.0883986132e+000,3.9377335808e+000,4.5825186417e+000,3.7640675349e+000,3.1448416396e+000,4.6405309495e+000,2.5440524742e+000,4.4016572122e+000,4.1831156021e+000,4.6387799090e+000,
4.8750000000e+000,3.7860412950e+000,4.8573102576e+000,4.8040842629e+000,4.2904707389e+000,5.0861415822e+000,3.7807828176e+000,4.7477066912e+000,3.7183195451e+000,3.2487999756e+000,4.5729147022e+000,2.5892549935e+000,4.3412960182e+000,4.2062418962e+000,4.6197404188e+000,
4.9687500000e+000,3.7080619834e+000,4.6320992007e+000,4.7893805744e+000,4.0849642631e+000,4.9957519998e+000,3.4967439792e+000,4.7201278152e+000,3.7581217401e+000,3.2786893369e+000,4.5444690265e+000,2.6294093052e+000,4.4976358449e+000,4.2483505522e+000,4.7324892762e+000,
5.0625000000e+000,3.7123012527e+000,4.5730192975e+000,4.7485461746e+000,3.9882869486e+000,4.9591415790e+000,3.5496658376e+000,4.6395175964e+000,3.6729108994e+000,3.2457247985e+000,4.5575863998e+000,2.5330395655e+000,4.5491301772e+000,4.2955640357e+000,4.7682540080e+000,
5.1562500000e+000,3.6809939142e+000,4.5233907365e+000,4.6916010401e+000,3.9530858988e+000,4.8549126952e+000,3.4599480829e+000,4.5413424040e+000,3.6230995536e+000,3.1945835179e+000,4.5168649522e+000,2.5019379543e+000,4.4590304672e+000,4.2615506129e+000,4.7330376665e+000,
5.2500000000e+000,3.8431204542e+000,4.8723674634e+000,4.6724693734e+000,3.9598741240e+000,4.7818598576e+000,3.5245927289e+000,4.4591380396e+000,3.6481545310e+000,3.0654017118e+000,4.4772237244e+000,2.3639057409e+000,4.4353007318e+000,4.1442335068e+000,4.6811735483e+000,
5.3437500000e+000,3.9878588121e+000,5.0694593220e+000,4.6086820243e+000,4.0273217157e+000,4.8377796640e+000,3.6453068762e+000,4.4712739533e+000,3.7125697887e+000,3.1491997631e+000,4.5157233855e+000,2.3511554118e+000,4.4693336329e+000,4.0665600586e+000,4.6200558093e+000,
5.4375000000e+000,3.9502120550e+000,5.0156887469e+000,4.5246770592e+000,4.0657447282e+000,4.7522985140e+000,3.5742443004e+000,4.3926681380e+000,3.6502500624e+000,3.0653754650e+000,4.2970165085e+000,2.4013792808e+000,4.2790343358e+000,4.0235212324e+000,4.2016230219e+000,
5.5312500000e+000,3.9658113568e+000,5.0386869281e+000,4.5201238843e+000,4.1543500839e+000,4.7225166214e+000,3.5954556903e+000,4.3639728463e+000,3.6580336570e+000,3.0337750506e+000,4.2894454381e+000,2.5326315159e+000,4.1765853679e+000,3.8322313374e+000,4.0310952816e+000,
5.6250000000e+000,3.9444502250e+000,5.0733028041e+000,4.5207923004e+000,4.1690700586e+000,4.6942920305e+000,3.6274274651e+000,4.3124780320e+000,3.7220720641e+000,3.0014913488e+000,4.3607774285e+000,2.6236470428e+000,4.2239569434e+000,3.7770202180e+000,4.0504437849e+000,
5.7187500000e+000,3.9407450384e+000,5.0493514952e+000,4.4754824377e+000,4.1246097467e+000,4.5505757812e+000,3.6196792335e+000,4.2411776724e+000,3.6787513364e+000,2.8863813804e+000,4.3213505327e+000,2.6285642959e+000,4.2400774466e+000,3.6799385261e+000,4.0503814010e+000,
5.8125000000e+000,4.0158011120e+000,5.1220400799e+000,4.3279861711e+000,4.0959740459e+000,4.4063510914e+000,3.6677675835e+000,4.0358278300e+000,3.7463931305e+000,2.7815142677e+000,4.3562024313e+000,2.6506049370e+000,4.3739613887e+000,3.6363973755e+000,4.1857756815e+000,
5.9062500000e+000,4.4390777225e+000,5.4909470148e+000,4.2620734567e+000,4.1475033460e+000,4.2587808064e+000,3.7774843461e+000,3.8446458886e+000,3.7917883588e+000,2.6504811879e+000,4.3615703094e+000,2.6403889844e+000,4.3886584615e+000,3.5494962280e+000,4.2468470256e+000,
6.0000000000e+000,4.4725819828e+000,5.5630951406e+000,4.1381734312e+000,4.1434111239e+000,4.1907647873e+000,3.7303376990e+000,3.8193980319e+000,3.7832244522e+000,2.5279088617e+000,4.2240529474e+000,2.6478494550e+000,4.2273008305e+000,3.5026019897e+000,4.0698312283e+000,
6.0937500000e+000,4.4720259935e+000,5.5564037923e+000,4.1938044185e+000,4.1692890452e+000,4.2109834100e+000,3.6369511630e+000,3.8637998870e+000,3.7576096412e+000,2.6075811353e+000,4.1859306596e+000,2.7173867075e+000,4.1798337923e+000,3.7428296578e+000,4.0284555204e+000,
6.1875000000e+000,4.4668771615e+000,5.5590632686e+000,4.5043601885e+000,4.2885389285e+000,4.3014104943e+000,3.7044433264e+000,3.9085818828e+000,3.8040037686e+000,2.7310263180e+000,4.2417936096e+000,3.0336702793e+000,4.1880940908e+000,4.1139587720e+000,4.0447695476e+000,
6.2812500000e+000,4.2941681305e+000,5.3029964796e+000,4.6374201717e+000,4.2119391989e+000,4.2267925025e+000,3.4796593166e+000,3.8391181853e+000,3.7404805039e+000,2.6770413201e+000,4.1156523332e+000,3.0332250103e+000,4.0812875559e+000,4.1749588269e+000,4.0157130401e+000,
6.3750000000e+000,4.3179857871e+000,5.2962079970e+000,4.6170176559e+000,4.2052849527e+000,4.3969584241e+000,3.4874250883e+000,3.9775873078e+000,3.7542400867e+000,2.9355956257e+000,4.1202208575e+000,3.0809095238e+000,4.0930918029e+000,4.2007646115e+000,4.0143307196e+000,
6.4687500000e+000,4.3259236157e+000,5.2898364387e+000,4.5929786713e+000,4.1495902157e+000,4.4357743925e+000,3.4499993427e+000,4.0205989754e+000,3.6811383657e+000,2.9270737913e+000,4.0493319533e+000,3.0430985078e+000,4.1810456607e+000,4.2711934331e+000,4.1472832794e+000,
6.5625000000e+000,4.3398139128e+000,5.2399087050e+000,4.5551842837e+000,4.0806906085e+000,4.4886983588e+000,3.3087337314e+000,4.0748951915e+000,3.5306100756e+000,2.9384681867e+000,3.8893066361e+000,3.0232968472e+000,4.0302445853e+000,4.2807569254e+000,4.0507563333e+000,
6.6562500000e+000,4.3549044590e+000,5.2519760647e+000,4.5367277258e+000,4.0970652616e+000,4.4733097413e+000,3.3538410167e+000,3.9475993920e+000,3.5451601934e+000,3.0431231427e+000,3.9521990339e+000,2.9830987924e+000,4.1018588392e+000,4.2721021365e+000,4.0276048747e+000,
6.7500000000e+000,4.3705747247e+000,5.2780488673e+000,4.5858285876e+000,4.1383919359e+000,4.5034103729e+000,3.4621449705e+000,3.9351002901e+000,3.6372467083e+000,3.2184606868e+000,4.0479273096e+000,3.1180513275e+000,4.1095868962e+000,4.2819138948e+000,3.9589087185e+000,
6.8437500000e+000,4.1772220057e+000,5.0574844565e+000,4.5981203802e+000,4.1063931189e+000,4.5082480277e+000,3.3339765390e+000,3.9548030595e+000,3.5261892355e+000,3.3118022120e+000,4.0021652550e+000,3.2250507060e+000,3.9788296039e+000,4.2778402444e+000,3.8073990737e+000,
6.9375000000e+000,3.6922742109e+000,4.2745051858e+000,4.5407021509e+000,4.0570141122e+000,4.4532002303e+000,3.2846317684e+000,3.9396748670e+000,3.4960156597e+000,3.3151317667e+000,4.4746888897e+000,3.2425864324e+000,4.0409978000e+000,4.2642148844e+000,3.7306781005e+000,
7.0312500000e+000,3.7274458352e+000,4.1982564449e+000,4.5781620418e+000,4.0768646210e+000,4.4716875446e+000,3.3080839058e+000,4.0306448989e+000,3.4858432134e+000,3.3964402217e+000,4.4761614598e+000,3.2297010730e+000,4.0211237609e+000,4.1901456577e+000,3.7344921498e+000,
7.1250000000e+000,3.6804253132e+000,4.1584590357e+000,4.3724569020e+000,3.8965902939e+000,4.4391005333e+000,3.1364521609e+000,3.9754107771e+000,3.4037135804e+000,3.3307103528e+000,4.4284202149e+000,3.1709643135e+000,4.0184439620e+000,3.9410077612e+000,3.8135804996e+000,
7.2187500000e+000,3.6812506110e+000,4.1375019002e+000,4.2705367585e+000,3.8433124687e+000,4.3661616467e+000,3.2217543019e+000,3.9087337437e+000,3.4055149460e+000,3.3008921977e+000,4.4107473712e+000,3.0574699486e+000,4.0216644755e+000,3.4705095314e+000,3.8704612693e+000,
7.3125000000e+000,3.5518689662e+000,4.0590790159e+000,4.0066786334e+000,3.7448430334e+000,4.0540728333e+000,3.1041819004e+000,3.7680109962e+000,3.3225585382e+000,3.0838096493e+000,4.3991696264e+000,3.0600952863e+000,4.0512742874e+000,3.4514884248e+000,3.9032217463e+000,
7.4062500000e+000,3.5499767256e+000,4.0925531163e+000,3.9770490157e+000,3.7979189082e+000,3.9205341718e+000,3.1041688365e+000,3.6636422572e+000,3.3133461702e+000,3.0436584910e+000,4.3933410786e+000,3.0160331243e+000,4.0383106747e+000,3.2594010737e+000,3.8810911204e+000,
7.5000000000e+000,3.5256741948e+000,4.0851720280e+000,4.0143250452e+000,3.7750501900e+000,3.8430961799e+000,3.1079027992e+000,3.6166750816e+000,3.2625504220e+000,3.0032655242e+000,4.3491040820e+000,2.9903200491e+000,3.8914100594e+000,3.0966717387e+000,3.7493130246e+000,
7.5937500000e+000,3.4617578610e+000,4.0728150899e+000,4.0518649108e+000,3.7509868075e+000,3.8782216195e+000,3.1073431764e+000,3.6397494406e+000,3.4137303432e+000,2.9859716873e+000,4.3660695301e+000,3.0328692551e+000,3.9358904538e+000,3.0823090204e+000,3.8024960294e+000,
7.6875000000e+000,3.4428162391e+000,3.9207553325e+000,4.0122529655e+000,3.7122079035e+000,3.8516179323e+000,2.9240508542e+000,3.6539368237e+000,3.2670333741e+000,2.8736442973e+000,4.2700353838e+000,2.9146967512e+000,3.7561199892e+000,3.0368808442e+000,3.7358809790e+000,
7.7812500000e+000,3.5496684990e+000,4.1149506470e+000,4.0618784614e+000,3.8641881867e+000,3.8544021166e+000,3.1182792031e+000,3.6963058235e+000,3.4057239602e+000,2.5844998626e+000,4.3934985193e+000,2.8068796882e+000,3.8192959967e+000,3.0356203464e+000,3.7400416298e+000,
7.8750000000e+000,3.4954378569e+000,4.0073165437e+000,4.0505958595e+000,3.7571942163e+000,3.8806953781e+000,3.0819818414e+000,3.7520374367e+000,3.3634704869e+000,2.6132591927e+000,4.0738823358e+000,2.6835736966e+000,3.6709671692e+000,3.1680106761e+000,3.6643720031e+000,
7.9687500000e+000,3.4228033961e+000,3.9876475215e+000,4.2458314329e+000,3.6818713527e+000,4.0780679589e+000,3.0677276668e+000,3.7950708747e+000,3.3421412220e+000,2.6326873082e+000,3.9134571108e+000,2.6463573131e+000,3.5606290635e+000,3.2693359529e+000,3.6710813846e+000,
8.0625000000e+000,3.4385628039e+000,3.8018529208e+000,4.4655021687e+000,3.7380523875e+000,4.2609470021e+000,3.1369850114e+000,3.8937969960e+000,3.3629418397e+000,2.6960068441e+000,4.0092497238e+000,2.6450073627e+000,3.5532484400e+000,3.1924936042e+000,3.6323240982e+000,
8.1562500000e+000,3.5231601574e+000,3.8819022017e+000,4.9233654593e+000,4.0992656294e+000,4.8982276827e+000,3.4435424505e+000,4.3192799075e+000,3.5553381444e+000,3.3895514615e+000,4.4791642069e+000,2.6390818008e+000,3.5756268463e+000,3.2470693062e+000,3.4811904777e+000,
8.2500000000e+000,3.9768773316e+000,4.2661190787e+000,6.1259733375e+000,4.7086867886e+000,5.5823596302e+000,3.8496286051e+000,5.1366226023e+000,3.8618781472e+000,4.0045893885e+000,4.4824282328e+000,2.9181509866e+000,3.7920983811e+000,3.3860688830e+000,3.5743558559e+000,
8.3437500000e+000,4.5824391271e+000,5.1523208664e+000,6.1952431700e+000,4.7283374106e+000,5.6401932672e+000,4.2036026888e+000,5.2184963358e+000,4.1465870201e+000,4.0308572433e+000,4.5277835891e+000,2.8354445973e+000,3.7603892069e+000,3.4464603284e+000,3.5625534013e+000,
8.4375000000e+000,4.6314476929e+000,5.1996618769e+000,6.2085163956e+000,4.7278746336e+000,5.6414359309e+000,4.2275890423e+000,5.2277389528e+000,4.1599675589e+000,4.0205072107e+000,4.5222844133e+000,2.9047626485e+000,3.7985874239e+000,3.6043013239e+000,3.6175840568e+000,
8.5312500000e+000,4.6548451783e+000,5.2338960443e+000,6.2058031887e+000,4.7389270499e+000,5.6601871226e+000,4.2521506594e+000,5.2275050750e+000,4.2046371954e+000,4.0148689605e+000,4.5244117895e+000,2.8980564236e+000,3.8112858072e+000,3.7385121752e+000,3.6214632033e+000,
8.6250000000e+000,4.6812189890e+000,5.2567522632e+000,6.2077202792e+000,4.7913327142e+000,5.6552474874e+000,4.2689577975e+000,5.2323469429e+000,4.2264795881e+000,4.0157630074e+000,4.5294219386e+000,2.9199230252e+000,3.8650188587e+000,3.8188616828e+000,3.6488955496e+000,
8.7187500000e+000,4.6669529797e+000,5.2553530145e+000,6.1989932193e+000,4.7612915387e+000,5.6612624834e+000,4.2565508325e+000,5.2161014158e+000,4.2093428661e+000,4.0292273447e+000,4.5652167751e+000,3.0060971418e+000,4.0839955226e+000,3.9841839351e+000,3.8427457024e+000,
8.8125000000e+000,4.7347745123e+000,5.3031238602e+000,6.2234187633e+000,4.8145267873e+000,5.6663483141e+000,4.3190564388e+000,5.2363590734e+000,4.2173274675e+000,4.0190126641e+000,4.5318919740e+000,3.2097369553e+000,3.9983958703e+000,4.0309711993e+000,3.8089066001e+000,
8.9062500000e+000,4.7531851134e+000,5.3634129205e+000,6.2282019383e+000,4.8940871748e+000,5.6822937712e+000,4.3846077353e+000,5.2426574744e+000,4.2714617295e+000,4.0269750517e+000,4.6421013330e+000,3.2840325168e+000,4.1372493255e+000,4.0436476022e+000,4.0006430931e+000,
9.0000000000e+000,4.7492668200e+000,5.3591186833e+000,6.2006077575e+000,4.8803277354e+000,5.6154229853e+000,4.3672070819e+000,5.1946607121e+000,4.2892331695e+000,4.0150997880e+000,4.5772595426e+000,3.3034531663e+000,4.2073416592e+000,4.1534340294e+000,4.2294190744e+000,
9.0937500000e+000,4.7293623432e+000,5.3637739252e+000,6.1493891969e+000,4.8574087561e+000,5.5855583425e+000,4.3385798001e+000,5.1487495466e+000,4.2639934779e+000,4.0062868059e+000,4.5205465321e+000,3.2900843085e+000,4.2124937057e+000,4.1829236955e+000,4.2945714144e+000,
9.1875000000e+000,4.6775027020e+000,5.3437885629e+000,5.9408868592e+000,4.7233426905e+000,4.8354011371e+000,4.0897368029e+000,4.5080108168e+000,4.0357913578e+000,3.1395915986e+000,4.0438872528e+000,3.1673179885e+000,4.0072962002e+000,4.1853832978e+000,4.2066148679e+000,
9.2812500000e+000,4.1557950237e+000,4.8971466370e+000,4.3862103586e+000,4.0799040698e+000,4.0833731371e+000,3.7146900736e+000,3.7103318503e+000,3.6894994546e+000,2.6226717098e+000,3.9894737825e+000,3.0421344651e+000,4.0200638364e+000,4.1798522754e+000,4.1225918573e+000,
9.3750000000e+000,3.8184439976e+000,4.4056883338e+000,4.1103738527e+000,4.0544304971e+000,4.0218265239e+000,3.5324082608e+000,3.5899409469e+000,3.6130080132e+000,2.7545149323e+000,4.0622641227e+000,3.1204043037e+000,4.0160662524e+000,4.1989911027e+000,4.1057772033e+000,
9.4687500000e+000,3.7042178546e+000,4.2566382241e+000,4.1155027789e+000,4.1057493937e+000,3.9164865324e+000,3.6154131207e+000,3.6293688409e+000,3.5503616974e+000,2.7401214926e+000,4.1331710148e+000,3.0990238477e+000,4.0744499849e+000,4.0772035866e+000,4.1303617212e+000,
9.5625000000e+000,3.7154095209e+000,4.2500555837e+000,4.1388382020e+000,4.0678776208e+000,3.9108316751e+000,3.6290292562e+000,3.6342725370e+000,3.5706845846e+000,2.7626182643e+000,4.1660030636e+000,3.0612417209e+000,4.0838229938e+000,4.0054199294e+000,4.1723533802e+000,
9.6562500000e+000,3.6950566882e+000,4.2564936932e+000,4.0959310483e+000,3.9627881163e+000,3.8969149277e+000,3.5877621959e+000,3.6447620440e+000,3.4828617197e+000,2.7543601522e+000,4.0503397935e+000,3.0935740569e+000,4.0096953623e+000,3.9923844813e+000,4.1412584481e+000,
9.7500000000e+000,4.0136792713e+000,4.5604609491e+000,4.0554926963e+000,3.9590360131e+000,3.9130346397e+000,3.5482515529e+000,3.7594184746e+000,3.4528111766e+000,2.7134522125e+000,4.0085711904e+000,2.9903491992e+000,3.8373849783e+000,3.8894115622e+000,4.0513919912e+000,
9.8437500000e+000,3.9944431396e+000,4.5259985509e+000,3.9412025659e+000,3.7104889996e+000,3.7218407744e+000,3.3244118756e+000,3.6284042619e+000,3.3053803760e+000,2.6600102972e+000,3.8439909444e+000,2.8256736600e+000,3.7918712353e+000,3.8682333306e+000,4.0249606009e+000,
9.9375000000e+000,4.0886183367e+000,4.5331337401e+000,4.0778955585e+000,3.7589509446e+000,3.7508488265e+000,3.3575111095e+000,3.7078982995e+000,3.3193648151e+000,2.5717559371e+000,3.7700548143e+000,2.7603871146e+000,3.6512082381e+000,3.8241274111e+000,3.9015194495e+000,
1.0031250000e+001,4.0767684054e+000,4.5357850362e+000,3.9628210235e+000,3.7921249330e+000,3.7283205393e+000,3.3757912800e+000,3.7233463705e+000,3.3085099577e+000,2.5223858244e+000,3.7863423030e+000,2.7986880613e+000,3.5526481043e+000,3.7711587382e+000,3.5852567291e+000,
1.0125000000e+001,4.0699338157e+000,4.5387196410e+000,3.9361310593e+000,3.7323809218e+000,3.7171974378e+000,3.4184955224e+000,3.7095073848e+000,3.3958089943e+000,2.4291192061e+000,3.8023635445e+000,2.8492782963e+000,3.6197603960e+000,3.7691309959e+000,3.5793468466e+000,
1.0218750000e+001,4.1303203611e+000,4.5163193479e+000,4.0592528945e+000,3.7134954940e+000,3.8133824579e+000,3.4033144093e+000,3.7286450317e+000,3.3799402946e+000,2.3452345853e+000,3.7574930275e+000,2.8007312470e+000,3.6593092981e+000,3.7556499498e+000,3.6482021733e+000,
1.0312500000e+001,4.1299494565e+000,4.5584154190e+000,4.0806595017e+000,3.7785146860e+000,3.8196457451e+000,3.3253198313e+000,3.7281531350e+000,3.3030611731e+000,2.3030757188e+000,3.6289833734e+000,2.8436035784e+000,3.5418312871e+000,3.7206995536e+000,3.6198882729e+000,
1.0406250000e+001,4.1524410256e+000,4.6332496720e+000,4.1075920951e+000,3.8345720793e+000,3.8586839275e+000,3.5003191618e+000,3.6913190408e+000,3.3900218182e+000,2.2285120120e+000,3.7723415859e+000,2.7423367331e+000,3.8100010381e+000,3.6985202454e+000,3.8300358895e+000,
1.0500000000e+001,4.1708388021e+000,4.7102393228e+000,4.0743683730e+000,3.9750016358e+000,3.9372316987e+000,3.5339973847e+000,3.7141766284e+000,3.5651457948e+000,2.2773930688e+000,3.9217187016e+000,2.7204466560e+000,3.9161090714e+000,3.7639890194e+000,3.9241037980e+000,
1.0593750000e+001,4.1524743882e+000,4.6951126102e+000,4.0847369136e+000,4.0233975498e+000,3.9559358382e+000,3.5445388942e+000,3.7205520780e+000,3.5308213625e+000,2.3359059394e+000,3.8837494850e+000,2.7019934230e+000,3.9202667159e+000,3.7605103646e+000,3.8078886933e+000,
1.0687500000e+001,4.0765973603e+000,4.6052147047e+000,4.0254081697e+000,4.0131990823e+000,3.9236107086e+000,3.5393526867e+000,3.7057624284e+000,3.4947564996e+000,2.3490556108e+000,3.8653599982e+000,2.6038274405e+000,3.8924040644e+000,3.6923740263e+000,3.7481240234e+000,
1.0781250000e+001,3.9236267664e+000,4.4062613770e+000,4.0242837444e+000,4.0713843848e+000,3.9481465365e+000,3.5285114753e+000,3.7148313946e+000,3.5615199174e+000,2.4203197113e+000,3.9422729646e+000,2.5691544117e+000,3.9623644510e+000,3.6430414400e+000,3.7672504550e+000,
1.0875000000e+001,3.7142692712e+000,4.0975327646e+000,3.8461774468e+000,3.9401736925e+000,3.8621956043e+000,3.4868088404e+000,3.5571147354e+000,3.4978364940e+000,2.4843289869e+000,3.9379395824e+000,2.4784107681e+000,3.9793899368e+000,3.6879420864e+000,3.7456043129e+000,
1.0968750000e+001,3.7934045641e+000,4.2241387497e+000,3.7142081145e+000,3.9242453736e+000,3.9389522815e+000,3.4807377347e+000,3.5402529066e+000,3.5254121142e+000,2.5361772175e+000,4.0262169907e+000,2.4948428109e+000,4.0845649667e+000,3.6472978443e+000,3.7439696597e+000,
1.1062500000e+001,3.7810513791e+000,4.3217958070e+000,3.7837765011e+000,3.9782229764e+000,3.8814140820e+000,3.5446241388e+000,3.4652145565e+000,3.6111997437e+000,2.4261858419e+000,4.1210929197e+000,2.4767527470e+000,4.1492250790e+000,3.6408867337e+000,3.8118652562e+000,
1.1156250000e+001,3.7858606591e+000,4.3719209853e+000,3.8630410822e+000,4.0284164286e+000,3.8726927140e+000,3.5526662109e+000,3.5124266465e+000,3.6191670174e+000,2.4568651628e+000,4.1287705945e+000,2.4859754182e+000,4.1200940137e+000,3.7088356678e+000,3.7608172582e+000,
1.1250000000e+001,3.7908486560e+000,4.3994146384e+000,3.8306074582e+000,4.0479115439e+000,3.9310303501e+000,3.5922950623e+000,3.5904901928e+000,3.6770688770e+000,2.4850450297e+000,4.1412365096e+000,2.5311935118e+000,4.1297755370e+000,3.6367112681e+000,3.7943496932e+000,
1.1343750000e+001,3.7901782091e+000,4.3820983925e+000,3.8771874530e+000,4.0272210402e+000,3.9596469075e+000,3.5786193772e+000,3.5623780666e+000,3.6971897698e+000,2.4102552070e+000,4.1209388252e+000,2.4649521877e+000,4.1482155938e+000,3.6098945522e+000,3.8285993219e+000,
1.1437500000e+001,3.6248713972e+000,4.1420402357e+000,3.7379471996e+000,3.8310065592e+000,3.7571858857e+000,3.2198081453e+000,3.3681523825e+000,3.4202899095e+000,2.3696556938e+000,3.7743236394e+000,2.4727337259e+000,3.9151041476e+000,3.6080726415e+000,3.5026413930e+000,
1.1531250000e+001,3.6402845052e+000,4.1838650281e+000,3.8276024205e+000,3.8070346183e+000,3.8145806905e+000,3.2637163499e+000,3.4865507939e+000,3.5876089398e+000,2.6137455962e+000,3.8899539502e+000,2.6857645920e+000,4.0181318906e+000,3.6044717248e+000,3.6072720171e+000,
1.1625000000e+001,3.6815733230e+000,4.2556673087e+000,3.8564911181e+000,3.9685384987e+000,3.8314890970e+000,3.3155011754e+000,3.4198756836e+000,3.6489813766e+000,2.6296255777e+000,3.9543454252e+000,2.8013197287e+000,4.0503935746e+000,3.6321192462e+000,3.6562334462e+000,
1.1718750000e+001,3.6493111275e+000,4.2574803515e+000,3.9095752095e+000,3.9727411736e+000,3.8984815899e+000,3.3851903172e+000,3.3587487835e+000,3.7043590772e+000,2.6676964444e+000,3.9586236708e+000,2.8566731460e+000,4.0414498149e+000,3.6246616809e+000,3.6959336019e+000,
1.1812500000e+001,3.4934635646e+000,4.1445971205e+000,3.9045124126e+000,3.9396241313e+000,3.8482947256e+000,3.2880437644e+000,3.2327154308e+000,3.6677630508e+000,2.5603852142e+000,3.8739458255e+000,2.9045608149e+000,4.0016422499e+000,3.5873128325e+000,3.7234946704e+000,
1.1906250000e+001,3.4240277007e+000,4.1080753628e+000,3.9476567489e+000,3.9766905478e+000,3.7470662016e+000,3.2157973106e+000,3.2393181584e+000,3.7056277066e+000,2.5084070765e+000,3.8621763935e+000,2.8932748573e+000,3.9744369508e+000,3.4318933425e+000,3.7267533085e+000,
1.2000000000e+001,3.2604010288e+000,3.8673666772e+000,3.9538252156e+000,3.8828189850e+000,3.6581914483e+000,3.0388327298e+000,3.2584345376e+000,3.5544716056e+000,2.4746551428e+000,3.5443715458e+000,2.8660819648e+000,3.7644752342e+000,3.4892402424e+000,3.5877314947e+000,
1.2093750000e+001,3.3307966975e+000,3.8996905812e+000,3.9253378335e+000,3.8753715405e+000,3.6747159241e+000,3.0514733450e+000,3.3206473330e+000,3.5367554158e+000,2.5369156303e+000,3.4745401660e+000,2.8533386444e+000,3.7167810452e+000,3.3717780562e+000,3.5711108683e+000,
1.2187500000e+001,4.0151491917e+000,4.9432540423e+000,4.0208257158e+000,4.0844317500e+000,3.6644941910e+000,3.3371002140e+000,3.1829375664e+000,3.6429595342e+000,2.5568441756e+000,3.6256767521e+000,2.8047314706e+000,3.8159454442e+000,3.3031519292e+000,3.6115977915e+000,
1.2281250000e+001,4.5895244117e+000,5.6070326089e+000,4.1963017910e+000,4.2950158134e+000,3.5500162122e+000,3.6950779299e+000,3.2222759801e+000,3.8024561462e+000,2.5691435574e+000,3.6924077732e+000,2.8188407036e+000,3.7942454413e+000,3.3162824521e+000,3.6586388615e+000,
1.2375000000e+001,4.6113502320e+000,5.6338266197e+000,4.3005685745e+000,4.3711228735e+000,3.6403930932e+000,3.7113247922e+000,3.2847450075e+000,3.8039454746e+000,2.5942176273e+000,3.7453875174e+000,2.7784289945e+000,3.8132636306e+000,3.2878264009e+000,3.7883312355e+000,
1.2468750000e+001,4.6152857091e+000,5.6464526656e+000,4.3683733087e+000,4.3923942216e+000,3.7114657480e+000,3.6816812706e+000,3.3529036811e+000,3.8170542234e+000,2.5367816515e+000,3.7563964732e+000,2.7495943246e+000,3.7763012888e+000,3.3673173261e+000,3.9015771990e+000,
1.2562500000e+001,4.6207180989e+000,5.6081421233e+000,4.3258873588e+000,4.2204440284e+000,3.6966195963e+000,3.5951220165e+000,3.2876143136e+000,3.6272442251e+000,2.2167250872e+000,3.4421591641e+000,2.6302969896e+000,3.4382570934e+000,3.2608985751e+000,3.7421405132e+000,
1.2656250000e+001,4.5884052888e+000,5.6024180061e+000,4.2803733825e+000,4.2055853836e+000,3.6164000415e+000,3.5667497584e+000,3.3913998752e+000,3.6160878094e+000,2.1953382695e+000,3.4351978368e+000,2.5971475281e+000,3.4447806457e+000,3.3007201889e+000,3.7596663004e+000,
1.2750000000e+001,4.5841120677e+000,5.5910982219e+000,4.3328263672e+000,4.1503831260e+000,3.5107233664e+000,3.5229989728e+000,3.4046039193e+000,3.5277034882e+000,2.1923823237e+000,3.4383324322e+000,2.6387894659e+000,3.4654666977e+000,3.4310968335e+000,3.7702701568e+000,
1.2843750000e+001,4.5902827973e+000,5.6104946846e+000,4.3467874568e+000,4.2107237805e+000,3.5616264416e+000,3.5955130019e+000,3.4819612556e+000,3.5947679272e+000,2.1970666240e+000,3.5595246613e+000,2.7614467540e+000,3.5477882835e+000,3.5109329087e+000,3.7586149592e+000,
1.2937500000e+001,4.6185413498e+000,5.6340474823e+000,4.3472792109e+000,4.3241526173e+000,3.6708861630e+000,3.7543771033e+000,3.6865842941e+000,3.6545641468e+000,2.3530381132e+000,3.8269688224e+000,2.7798321618e+000,3.7299794683e+000,3.5884674663e+000,3.7610646121e+000,
1.3031250000e+001,4.6202230784e+000,5.6235449306e+000,4.3375838623e+000,4.3880708529e+000,3.7201041750e+000,3.7029440875e+000,3.6330824310e+000,3.6541795845e+000,2.2818733012e+000,3.7821687297e+000,2.6797414624e+000,3.6651657976e+000,3.4797858841e+000,3.7145170594e+000,
1.3125000000e+001,4.5980226292e+000,5.5897315701e+000,4.3116711641e+000,4.3600520318e+000,3.7047695454e+000,3.6789866179e+000,3.5952129984e+000,3.6537066743e+000,2.2331196877e+000,3.7826366469e+000,2.6678728799e+000,3.6521387978e+000,3.4898560324e+000,3.7194725386e+000,
1.3218750000e+001,3.6072619067e+000,4.3030891316e+000,4.0389193849e+000,3.9763986801e+000,3.6034291596e+000,3.0224073532e+000,3.5858071389e+000,3.3478644751e+000,2.2905709208e+000,3.6563649336e+000,2.7160429074e+000,3.6538052458e+000,3.5332171801e+000,3.7006589898e+000,
1.3312500000e+001,3.3434164691e+000,3.7802127772e+000,4.1609252688e+000,4.0229125628e+000,3.6828359663e+000,3.0105439721e+000,3.6103296258e+000,3.3026323228e+000,2.4545321775e+000,3.7007848364e+000,2.7041179516e+000,3.7114100498e+000,3.5441963664e+000,3.6180609777e+000,
1.3406250000e+001,3.2474033360e+000,3.5935847623e+000,4.1060443539e+000,3.9633203625e+000,3.6540299436e+000,2.9981766884e+000,3.6337901239e+000,3.3823424611e+000,2.4564456365e+000,3.8044681625e+000,2.6361596382e+000,3.8291357114e+000,3.6057346992e+000,3.7953260996e+000,
1.3500000000e+001,3.3039248610e+000,3.6055885535e+000,4.0689912162e+000,3.9161183236e+000,3.6916685912e+000,2.9731627075e+000,3.7644103147e+000,3.4877251721e+000,2.6612224003e+000,3.8641675714e+000,2.6602383746e+000,3.8873530597e+000,3.6449071594e+000,3.9403540205e+000,
1.3593750000e+001,3.2511478423e+000,3.6913445534e+000,4.0377027859e+000,3.9690421789e+000,3.7786066862e+000,3.1608708860e+000,3.8562394837e+000,3.6780766443e+000,2.7431125004e+000,4.0944758491e+000,2.7701291030e+000,4.0729740836e+000,3.6540311896e+000,4.0944730847e+000,
1.3687500000e+001,3.2417945892e+000,3.7019739801e+000,3.9958344791e+000,3.9840152051e+000,3.8161590417e+000,3.1917134504e+000,3.7641403961e+000,3.7123492845e+000,2.6911769118e+000,4.0884939424e+000,2.7838202183e+000,4.1015597000e+000,3.8185813800e+000,4.2055742599e+000,
1.3781250000e+001,3.2696512352e+000,3.7392369024e+000,4.0186037930e+000,4.0773111769e+000,3.8516806047e+000,3.2536689616e+000,3.7759682891e+000,3.7324129575e+000,2.7746569162e+000,4.1733055510e+000,2.7103466900e+000,4.2104129679e+000,3.7764201201e+000,4.2290981627e+000,
1.3875000000e+001,3.1682200705e+000,3.4512698704e+000,3.9658328281e+000,3.9096545711e+000,3.8790425019e+000,2.9693130030e+000,3.6904713011e+000,3.5956549696e+000,2.8464950954e+000,3.9955082537e+000,2.4787090043e+000,4.0789738239e+000,3.7606260895e+000,4.2365241394e+000,
1.3968750000e+001,3.1286941293e+000,3.4001130374e+000,4.0106547950e+000,3.8248859462e+000,3.9034921518e+000,2.8578782316e+000,3.6699526498e+000,3.5541946766e+000,2.7937513238e+000,3.9984005865e+000,2.4791290592e+000,4.0774282492e+000,3.7701113211e+000,4.2313033005e+000,
1.4062500000e+001,3.1664488689e+000,3.4745516847e+000,4.0496356034e+000,3.7153602681e+000,3.9858449065e+000,2.9412428598e+000,3.7284587862e+000,3.4996297203e+000,2.8604206087e+000,4.0162430876e+000,2.5186682545e+000,4.1536253546e+000,3.9358790203e+000,4.3050018519e+000,
1.4156250000e+001,3.2387166289e+000,3.5945684351e+000,4.0346985280e+000,3.7832134962e+000,4.0063369183e+000,2.9071653568e+000,3.7233853558e+000,3.4921149496e+000,2.8553115734e+000,3.9712875822e+000,2.4608456142e+000,4.1496129276e+000,3.9345650973e+000,4.4004805173e+000,
1.4250000000e+001,3.2315059186e+000,3.7398921327e+000,4.0765820615e+000,3.7837119908e+000,3.9806322991e+000,3.0206965733e+000,3.7920265706e+000,3.5952177380e+000,2.8021112970e+000,4.0966492096e+000,2.4883311757e+000,4.1990836965e+000,3.9274178433e+000,4.4811929128e+000,
1.4343750000e+001,3.1964172702e+000,3.6981425790e+000,3.8608611795e+000,3.6724466528e+000,3.9408648823e+000,2.9940955759e+000,3.7848286359e+000,3.5175064393e+000,2.7747885062e+000,4.0352566188e+000,2.5421582717e+000,4.1003700617e+000,3.8518793910e+000,4.4041355028e+000,
1.4437500000e+001,3.2635544172e+000,3.7011943596e+000,3.8549471951e+000,3.6590791222e+000,3.8422625951e+000,2.9866263147e+000,3.7248403532e+000,3.4333503664e+000,2.7352690521e+000,3.9588363920e+000,2.6447020525e+000,4.0666533723e+000,3.8409298438e+000,4.3291859988e+000,
1.4531250000e+001,3.2548583175e+000,3.6590582719e+000,3.8572796933e+000,3.6236331703e+000,3.8569698121e+000,2.9556395968e+000,3.6360015689e+000,3.2813294001e+000,2.5033072227e+000,3.8732478386e+000,2.5370077164e+000,3.9865486618e+000,3.8779540629e+000,4.0491931382e+000,
1.4625000000e+001,3.2891998021e+000,3.5594409849e+000,4.1088415713e+000,3.5926710266e+000,3.7671281319e+000,2.7456896600e+000,3.5611030529e+000,2.9538227514e+000,2.4566459684e+000,3.6973517831e+000,2.5001765255e+000,3.8826774993e+000,3.8732523731e+000,3.9590575810e+000,
1.4718750000e+001,3.8935653498e+000,4.3091427404e+000,4.2404734561e+000,3.6757080729e+000,3.8287001209e+000,2.9957059020e+000,3.7106250338e+000,3.0062809849e+000,2.4972992955e+000,3.8755447135e+000,2.5788158804e+000,3.8652411238e+000,3.7850882117e+000,3.8738707894e+000,
1.4812500000e+001,4.1414472434e+000,4.6308736150e+000,4.3129577640e+000,3.6127341775e+000,3.9167432310e+000,2.9160909325e+000,3.6934143952e+000,2.9536557197e+000,2.4326904708e+000,3.7947632600e+000,2.5809348982e+000,3.8842727986e+000,3.7755636385e+000,3.8563182087e+000,
1.4906250000e+001,4.1451349258e+000,4.6894643926e+000,4.3640407980e+000,3.6686105760e+000,3.9428552539e+000,3.1605032049e+000,3.7184962902e+000,3.0435132358e+000,2.4443388786e+000,3.8590067899e+000,2.7263662181e+000,3.9469570312e+000,3.8317753388e+000,3.9511621535e+000,
1.5000000000e+001,4.1664830601e+000,4.6938320981e+000,4.3686979840e+000,3.7072301996e+000,3.9195654770e+000,3.1431853464e+000,3.6684849493e+000,3.1064253114e+000,2.4122360493e+000,3.8999920983e+000,2.6967218993e+000,4.0030038664e+000,3.7982934998e+000,3.9900372408e+000,
1.5093750000e+001,4.1633386885e+000,4.6741105981e+000,4.4036368174e+000,3.7100453551e+000,3.8829428626e+000,3.1084447175e+000,3.5744193580e+000,3.0797096321e+000,2.2729903300e+000,3.9009165616e+000,2.6411584938e+000,3.9234778721e+000,3.6750625151e+000,3.8189150382e+000,
1.5187500000e+001,4.1310228971e+000,4.6715171639e+000,4.3897488479e+000,3.7176771355e+000,3.9156233846e+000,3.1292796624e+000,3.5696281524e+000,3.0437804642e+000,2.3953232168e+000,3.9108942426e+000,2.6492090296e+000,3.8976016100e+000,3.6579168716e+000,3.7211826850e+000,
1.5281250000e+001,4.1351692974e+000,4.6351868891e+000,4.4010694290e+000,3.6846870898e+000,3.9302100533e+000,2.9314484454e+000,3.4879596792e+000,2.8664179578e+000,2.2942048765e+000,3.7737333624e+000,2.5934847277e+000,3.8110659566e+000,3.6908456880e+000,3.6033719801e+000,
1.5375000000e+001,4.1502012376e+000,4.6409736981e+000,4.4591610561e+000,3.7188746289e+000,3.8976011064e+000,2.9213604134e+000,3.4191913079e+000,2.7728089194e+000,2.3501613464e+000,3.7863303725e+000,2.4850917469e+000,3.8485693401e+000,3.6896301882e+000,3.5399359777e+000,
1.5468750000e+001,4.1563417197e+000,4.6223243591e+000,4.4915824090e+000,3.7038330514e+000,3.9813176544e+000,2.9397256941e+000,3.4956360826e+000,2.9118115802e+000,2.3802960561e+000,3.7069270061e+000,2.5175710985e+000,3.7929116235e+000,3.6836627131e+000,3.5547412431e+000,
1.5562500000e+001,4.1716908207e+000,4.7005488016e+000,4.6410894859e+000,3.9340807813e+000,3.9962467294e+000,3.1888333588e+000,3.4115571452e+000,3.0829563237e+000,2.4271716592e+000,3.9155415147e+000,2.7479025242e+000,3.8569877900e+000,3.7184058577e+000,3.6045143520e+000,
1.5656250000e+001,4.1322950037e+000,4.6470470692e+000,4.5156156870e+000,3.8941393009e+000,4.0082495535e+000,3.1325337377e+000,3.5052053356e+000,3.1276966447e+000,2.4534604040e+000,3.9444039662e+000,2.7194297456e+000,3.9315725180e+000,3.6902387922e+000,3.6558737491e+000,
1.5750000000e+001,3.5654655949e+000,4.0169687190e+000,4.4958018686e+000,3.8073490785e+000,3.9659766648e+000,2.9782312864e+000,3.3681850793e+000,3.1826300771e+000,2.4416273073e+000,3.8236683751e+000,2.6673086253e+000,3.7747343602e+000,3.6421202441e+000,3.6519056943e+000,
1.5843750000e+001,3.3016640094e+000,3.6564442071e+000,4.4778182299e+000,3.8110072922e+000,3.9026602495e+000,2.9779963679e+000,3.4338864422e+000,3.2452541036e+000,2.3926069489e+000,3.8152042243e+000,2.5846500633e+000,3.7761411581e+000,3.5935777122e+000,3.7336827445e+000,
1.5937500000e+001,3.3291020219e+000,3.5893332112e+000,4.4249248289e+000,3.8447386350e+000,3.7817418886e+000,2.7515492085e+000,3.4442602497e+000,3.0749393280e+000,2.3893264619e+000,3.6827856779e+000,2.6213897597e+000,3.6520717337e+000,3.5052014686e+000,3.6615909338e+000,
1.6031250000e+001,3.3267476695e+000,3.5938382898e+000,4.4009293070e+000,3.8497222792e+000,3.8179625561e+000,2.7395669994e+000,3.5417917138e+000,3.0796336362e+000,2.5113900014e+000,3.6014977601e+000,2.6799802215e+000,3.5282406959e+000,3.4898132491e+000,3.6273366321e+000,
1.6125000000e+001,3.2591428696e+000,3.6248660603e+000,4.4182896931e+000,3.7709525789e+000,3.7496982581e+000,2.7837322455e+000,3.5792074613e+000,3.0915868263e+000,2.5508532093e+000,3.5185654989e+000,2.8201104626e+000,3.5053919795e+000,3.5363491180e+000,3.5776547707e+000,
1.6218750000e+001,3.4012609681e+000,3.8026919939e+000,4.4546470471e+000,3.8486282767e+000,3.7551930732e+000,3.0720118525e+000,3.5976519101e+000,3.3563204758e+000,2.5175662342e+000,3.6577795778e+000,2.9096929728e+000,3.6407856303e+000,3.5062911920e+000,3.6012637754e+000,
1.6312500000e+001,3.4476547932e+000,3.9042891588e+000,4.4247043203e+000,3.8891944175e+000,3.7466035212e+000,3.2158860935e+000,3.7703337734e+000,3.5008587751e+000,2.4627763157e+000,3.7804291140e+000,3.0111855313e+000,3.6201823852e+000,3.6222530410e+000,3.7161224282e+000,
1.6406250000e+001,3.4261958045e+000,3.9497760967e+000,4.4065788823e+000,3.8977524635e+000,3.7264056113e+000,3.2456540210e+000,3.8272360884e+000,3.4972508422e+000,2.4733679289e+000,3.8377917442e+000,3.0432602101e+000,3.6227423682e+000,3.6416558011e+000,3.7162152718e+000,
1.6500000000e+001,3.4375387471e+000,4.0576698299e+000,4.2873782624e+000,3.9603377902e+000,3.7016448672e+000,3.2999041171e+000,3.7785653148e+000,3.4810843245e+000,2.4325846291e+000,3.8679753485e+000,2.9625569489e+000,3.6628243580e+000,3.5982800245e+000,3.6589998837e+000,
1.6593750000e+001,3.3836447190e+000,3.9558241654e+000,4.1778425977e+000,3.8770769882e+000,3.6690835217e+000,3.2309469806e+000,3.8579340780e+000,3.4555262323e+000,2.4315934609e+000,3.6858425539e+000,2.8147259511e+000,3.5281065088e+000,3.6433149308e+000,3.6755769501e+000,
1.6687500000e+001,3.3884426085e+000,3.9420195589e+000,4.1364004410e+000,3.8686286447e+000,3.5600886370e+000,3.2295612664e+000,3.8374716067e+000,3.4390492904e+000,2.3781570742e+000,3.5884382677e+000,2.8781601879e+000,3.4398088424e+000,3.6834772241e+000,3.5979468408e+000,
1.6781250000e+001,3.4179669799e+000,3.9116876171e+000,4.0885987026e+000,3.8384628715e+000,3.5049315896e+000,3.2381382959e+000,3.8382522919e+000,3.4235293343e+000,2.3963063855e+000,3.4966356193e+000,2.8457226452e+000,3.4930375482e+000,3.6843426474e+000,3.5503782592e+000,
1.6875000000e+001,3.3970073516e+000,3.9525628616e+000,3.9947799707e+000,3.8019142089e+000,3.4935458694e+000,3.2301974081e+000,3.8118125436e+000,3.4153061631e+000,2.2983306763e+000,3.7460585771e+000,2.8053187861e+000,3.7000440542e+000,3.7202750559e+000,3.5954039381e+000,
1.6968750000e+001,3.4793419630e+000,4.0031759156e+000,4.0078081063e+000,3.8698548895e+000,3.5879703673e+000,3.2616373846e+000,3.8626596154e+000,3.4766596966e+000,2.4546572892e+000,3.9037726890e+000,2.9761492580e+000,3.8598004542e+000,3.8370681378e+000,3.7856267602e+000,
1.7062500000e+001,3.5393234147e+000,4.0315594755e+000,4.0279507666e+000,3.9300202501e+000,3.5094991087e+000,3.3176047079e+000,3.8189303467e+000,3.5247719396e+000,2.5393706845e+000,3.9579283083e+000,3.0181962880e+000,3.9201518380e+000,3.7932394821e+000,3.7403749159e+000,
1.7156250000e+001,3.5191038736e+000,3.9934285313e+000,3.9632732325e+000,3.9391156236e+000,3.4869146847e+000,3.2893446332e+000,3.8566473236e+000,3.5144170680e+000,2.4507300521e+000,4.0273057752e+000,2.9127230157e+000,3.9602997334e+000,3.7555145326e+000,3.7920580069e+000,
1.7250000000e+001,3.3535025467e+000,3.7160888422e+000,3.8873977098e+000,3.7925283784e+000,3.3854220499e+000,3.0225515041e+000,3.8304710014e+000,3.2215232449e+000,2.4591631162e+000,3.8788516883e+000,2.7825906816e+000,3.8983710067e+000,3.7102825859e+000,3.7963528397e+000,
1.7343750000e+001,3.3691159218e+000,3.6043620963e+000,3.8086077562e+000,3.7723980330e+000,3.2608218143e+000,2.8586038729e+000,3.7841923133e+000,3.0801418085e+000,2.5386851926e+000,3.7935734764e+000,2.6655815483e+000,3.9306898976e+000,3.5772434028e+000,3.8198327045e+000,
1.7437500000e+001,3.3662056534e+000,3.5161549866e+000,3.9133318935e+000,3.7334870242e+000,3.2707409910e+000,2.8174179913e+000,3.7756363242e+000,3.0479082202e+000,2.6567689877e+000,3.7280536293e+000,2.7203014164e+000,3.8909188850e+000,3.6297884595e+000,3.8273375612e+000,
1.7531250000e+001,3.5372361795e+000,3.5874736849e+000,3.8761649534e+000,3.6761149296e+000,3.3240596006e+000,2.9220373913e+000,3.8825596939e+000,3.2283952329e+000,2.7331999091e+000,3.9994280850e+000,2.8484117791e+000,3.9750002196e+000,3.7637447484e+000,3.8959310432e+000,
1.7625000000e+001,3.4760951259e+000,3.6491419027e+000,3.8362367693e+000,3.6479214209e+000,3.3605711845e+000,2.9670648003e+000,3.7558067231e+000,3.2515048661e+000,2.7604867553e+000,4.0780724263e+000,2.7574512094e+000,4.0453570840e+000,3.7126238317e+000,3.9677341764e+000,
1.7718750000e+001,3.4218457266e+000,3.6781797926e+000,3.8374211812e+000,3.6828259753e+000,3.4832504134e+000,3.0026050859e+000,3.6854820216e+000,3.2612408488e+000,2.8068639057e+000,4.0873707030e+000,2.7100656697e+000,4.0586579069e+000,3.5999763552e+000,3.9458564986e+000,
1.7812500000e+001,3.6736933466e+000,3.9981590989e+000,3.8123783330e+000,3.6409394570e+000,3.5546544824e+000,3.0352140742e+000,3.6709826484e+000,3.1946276648e+000,2.7427302388e+000,4.0299987995e+000,2.7347733477e+000,3.9327976140e+000,3.5707544408e+000,3.8720162944e+000,
1.7906250000e+001,4.0846255261e+000,4.8787451513e+000,3.9152220932e+000,3.6757451001e+000,3.6505811968e+000,3.3030840167e+000,3.6350335432e+000,3.2161799366e+000,2.7653502872e+000,4.0186026368e+000,2.7450598755e+000,3.8885524386e+000,3.5392816598e+000,3.8404058370e+000,
1.8000000000e+001,4.1650481674e+000,4.9919226207e+000,3.9651695996e+000,3.7418911624e+000,3.6231608334e+000,3.3961617617e+000,3.5380248196e+000,3.1826626326e+000,2.6805169445e+000,3.9919000565e+000,2.6124740750e+000,3.7801028130e+000,3.4358819159e+000,3.6934540430e+000,
1.8093750000e+001,4.1229390778e+000,5.0055998480e+000,3.9527534306e+000,3.7830205840e+000,3.7260483917e+000,3.4272213230e+000,3.5584652124e+000,3.2759748068e+000,2.6521816679e+000,4.0390590591e+000,2.5870873315e+000,3.8284024623e+000,3.5031187820e+000,3.7462479747e+000,
1.8187500000e+001,4.1833023064e+000,5.0355413122e+000,3.9902779325e+000,3.7857262253e+000,3.8452698270e+000,3.4984053553e+000,3.6132853087e+000,3.3011342046e+000,2.7502937771e+000,4.0269853199e+000,2.7093395929e+000,3.8450105685e+000,3.6288355976e+000,3.7106468733e+000,
1.8281250000e+001,4.1970532050e+000,5.0518806426e+000,3.9930555442e+000,3.8281911229e+000,3.9681712281e+000,3.5792427946e+000,3.6349737444e+000,3.2962686527e+000,2.8890233993e+000,4.0394088591e+000,2.7030415974e+000,3.8981189229e+000,3.6822837792e+000,3.7513406453e+000,
1.8375000000e+001,4.2323826171e+000,5.0843398233e+000,4.0530583212e+000,3.8212140332e+000,4.0747862463e+000,3.6338516696e+000,3.6590828981e+000,3.3478989774e+000,2.8599812740e+000,4.0977059281e+000,2.8298066317e+000,3.9029930168e+000,3.8137948602e+000,3.7587182084e+000,
1.8468750000e+001,4.2360102764e+000,5.1082701567e+000,4.0088754053e+000,3.8909366483e+000,4.0502796562e+000,3.6746596169e+000,3.7884372777e+000,3.4180681980e+000,2.8777821621e+000,4.1286946459e+000,2.8095311242e+000,3.9282547575e+000,3.7524350935e+000,3.8142122640e+000,
1.8562500000e+001,4.1455713108e+000,5.0515300385e+000,3.9060410608e+000,3.8013502355e+000,4.0693595740e+000,3.5487533383e+000,3.7604409557e+000,3.1187092023e+000,2.9102084329e+000,3.8397866582e+000,2.7985050028e+000,3.7402922206e+000,3.6987479209e+000,3.6895414466e+000,
1.8656250000e+001,4.1648968001e+000,5.0512339965e+000,4.0402113884e+000,3.7836097068e+000,4.0792984183e+000,3.4988354333e+000,3.7799057355e+000,3.0936195826e+000,2.9605071828e+000,3.8169701454e+000,2.8807540084e+000,3.7371346179e+000,3.6776280858e+000,3.6862527899e+000,
1.8750000000e+001,4.2076007704e+000,5.0676282278e+000,4.1943171034e+000,3.7850943572e+000,4.0718618693e+000,3.5206732008e+000,3.8026532277e+000,3.0794644296e+000,2.9933230449e+000,3.9004555272e+000,2.9437008220e+000,3.8275453174e+000,3.6791315264e+000,3.7451689318e+000,
1.8843750000e+001,3.9811182381e+000,4.7570561890e+000,4.2314176516e+000,3.8285572583e+000,4.0522244401e+000,3.4597542967e+000,3.8416771561e+000,3.2202835480e+000,3.0064472290e+000,3.9806457317e+000,2.9085360377e+000,3.8264560643e+000,3.6523753692e+000,3.7770684379e+000,
1.8937500000e+001,3.5982862188e+000,4.0998567545e+000,4.2179217975e+000,3.7158910001e+000,3.9512427351e+000,3.2568092317e+000,3.8880365631e+000,3.1239174244e+000,2.9465376865e+000,3.8199859111e+000,2.9990398178e+000,3.7689713174e+000,3.7040461893e+000,3.6958630438e+000,
1.9031250000e+001,3.4208573719e+000,3.8751390830e+000,4.1611271052e+000,3.6210369452e+000,3.9571335291e+000,3.2093213832e+000,3.9585302838e+000,3.0822246630e+000,2.9723712509e+000,3.8244745599e+000,2.9695363625e+000,3.7856705533e+000,3.7692863287e+000,3.6853393349e+000,
1.9125000000e+001,3.3760380085e+000,3.8073577334e+000,4.1751453118e+000,3.5398082412e+000,3.8838447450e+000,3.1214014865e+000,3.9003690759e+000,2.9418465123e+000,2.8917573797e+000,3.7139128183e+000,2.8559765307e+000,3.6458994192e+000,3.6502544478e+000,3.5730433253e+000,
1.9218750000e+001,3.3543815682e+000,3.8969606181e+000,4.2267211142e+000,3.6405951742e+000,3.8883925628e+000,3.2001990508e+000,3.8248545027e+000,3.0637972989e+000,2.7243255415e+000,3.7459031648e+000,2.8947886881e+000,3.6009640419e+000,3.7532343644e+000,3.5156561518e+000,
1.9312500000e+001,3.7555785153e+000,4.4517335370e+000,4.2092663029e+000,3.7308322861e+000,3.8701995989e+000,3.3174743245e+000,3.7992477305e+000,3.2459286093e+000,2.6126794958e+000,3.7965383280e+000,2.9094294764e+000,3.6179599733e+000,3.6455368090e+000,3.4696777703e+000,
1.9406250000e+001,4.0344279825e+000,4.8126084187e+000,4.2913247203e+000,3.8502411526e+000,4.0302450437e+000,3.4780099735e+000,3.8125528002e+000,3.2872581007e+000,2.6236102290e+000,3.8096251960e+000,2.9324451971e+000,3.7555026145e+000,3.7738258718e+000,3.4922391126e+000,
1.9500000000e+001,4.1012378370e+000,4.8791061076e+000,4.2759900427e+000,3.9357169602e+000,4.0209293994e+000,3.4741679310e+000,3.8515330636e+000,3.2793695009e+000,2.5621966398e+000,3.7453758204e+000,3.2071357065e+000,3.7941078190e+000,3.8285512850e+000,3.4840570289e+000,
1.9593750000e+001,4.0933842836e+000,4.9017541549e+000,4.2508263779e+000,3.9207572627e+000,4.0006870542e+000,3.4845971740e+000,3.8198448056e+000,3.3608179570e+000,2.4618321648e+000,3.7843039987e+000,3.1849090320e+000,3.8012190807e+000,3.8440244782e+000,3.4372137649e+000,
1.9687500000e+001,4.0592661054e+000,4.8670954082e+000,4.0774649010e+000,3.8921812905e+000,3.9716741517e+000,3.4269052626e+000,3.8510128916e+000,3.3462465029e+000,2.3544222916e+000,3.7781708714e+000,3.1434247682e+000,3.8523199035e+000,3.9670118457e+000,3.7851242310e+000,
1.9781250000e+001,4.1134863169e+000,4.8752587021e+000,3.9563785959e+000,3.9127875413e+000,3.9890750496e+000,3.4779704004e+000,3.8975629325e+000,3.3868645415e+000,2.4884561604e+000,3.8542321424e+000,3.1146790041e+000,3.8913008737e+000,4.0297105465e+000,3.7530032027e+000,
1.9875000000e+001,4.0729812358e+000,4.8825041346e+000,4.1373911066e+000,3.9464245852e+000,3.9516336061e+000,3.4488807522e+000,3.8675665024e+000,3.3270661101e+000,2.5230004056e+000,3.8004913304e+000,3.1604045592e+000,3.8929265706e+000,4.1848608801e+000,3.9137771022e+000,
1.9968750000e+001,4.1388509038e+000,4.8860563147e+000,4.1995191719e+000,3.9648401358e+000,3.9781005919e+000,3.4159439696e+000,3.8816684516e+000,3.3334692585e+000,2.5652772189e+000,3.7831518638e+000,3.2541283166e+000,3.9597159963e+000,4.3468922691e+000,4.0976315899e+000,
2.0062500000e+001,4.1473406323e+000,4.9051116098e+000,4.1788299598e+000,3.9261943855e+000,4.0447972732e+000,3.3755964232e+000,3.8735752859e+000,3.3763758456e+000,2.5379884789e+000,3.8123938114e+000,3.2468001045e+000,3.9726074370e+000,4.3365758381e+000,4.1762454436e+000,
2.0156250000e+001,4.2864256855e+000,5.2101644509e+000,4.1520205010e+000,3.9892947596e+000,4.0034492444e+000,3.7470506910e+000,3.8793129844e+000,3.5934870488e+000,2.6008351294e+000,3.8958095762e+000,3.3345684032e+000,4.1124927621e+000,4.4268101319e+000,4.2837740852e+000,
2.0250000000e+001,4.4564493624e+000,5.6012892053e+000,4.1183903412e+000,4.1668808579e+000,3.9916496107e+000,4.0275352072e+000,3.9451875721e+000,3.8623632484e+000,2.6188296130e+000,3.9343658926e+000,3.2828486180e+000,4.0970868628e+000,4.4519136716e+000,4.2990843037e+000,
2.0343750000e+001,4.1187133773e+000,5.4233534730e+000,4.1352075078e+000,4.2437166416e+000,3.8617683887e+000,4.0761451073e+000,3.8869476048e+000,3.8819415634e+000,2.7090229785e+000,4.2980520177e+000,3.3398178146e+000,4.1441388947e+000,4.4695362234e+000,4.4000767925e+000,
2.0437500000e+001,4.2217769493e+000,5.4376896683e+000,4.2272880199e+000,4.3476268746e+000,3.9268783386e+000,4.1111571177e+000,3.9172909576e+000,3.9373847017e+000,2.7530145464e+000,4.4020622976e+000,3.2638446055e+000,4.1407049591e+000,4.4715857616e+000,4.4070435252e+000,
2.0531250000e+001,4.2412476206e+000,5.4218190953e+000,4.2650249331e+000,4.3530951014e+000,3.9651645011e+000,4.1205920458e+000,3.9476343979e+000,3.9460539553e+000,2.7741360239e+000,4.4538519670e+000,3.1695009864e+000,4.0857044096e+000,4.4334229211e+000,4.4426284235e+000,
2.0625000000e+001,4.2683833887e+000,5.4278573792e+000,4.2509785574e+000,4.4002189072e+000,4.0043595653e+000,4.1510318097e+000,3.9857281787e+000,3.9509906538e+000,2.7741049632e+000,4.4797694561e+000,3.2409591426e+000,4.1646646899e+000,4.4455860949e+000,4.4630126529e+000,
2.0718750000e+001,4.3055398828e+000,5.4570896259e+000,4.2718701185e+000,4.4114217026e+000,4.0765147169e+000,4.1825905827e+000,3.9554208913e+000,3.9435669265e+000,2.7580200592e+000,4.5591583361e+000,3.2755123680e+000,4.1672659357e+000,4.4107570218e+000,4.3447773604e+000,
2.0812500000e+001,4.3052696128e+000,5.4514535058e+000,4.3299543044e+000,4.3808313976e+000,4.0608902958e+000,4.1695840266e+000,3.9149358841e+000,3.9366780358e+000,2.7910742578e+000,4.5191008537e+000,3.3395678666e+000,4.2748409611e+000,4.3767141729e+000,4.3450946876e+000,
2.0906250000e+001,4.3602807559e+000,5.5018087105e+000,4.2664093728e+000,4.5079447312e+000,4.1466074593e+000,4.2877968396e+000,4.0044614064e+000,4.0417467312e+000,2.8119388035e+000,4.6535413587e+000,3.3008952774e+000,4.3454031029e+000,4.1674134869e+000,4.2623191073e+000,
2.1000000000e+001,4.3387584975e+000,5.5045696285e+000,4.2501127651e+000,4.5426213049e+000,4.1797287406e+000,4.2824451677e+000,3.9914059394e+000,4.0640696565e+000,2.7720006112e+000,4.6896499734e+000,3.2170161704e+000,4.3928853118e+000,4.1284963559e+000,4.2388061473e+000,
2.1093750000e+001,4.3646901093e+000,5.4841018511e+000,4.2598090248e+000,4.5201066972e+000,4.1529607351e+000,4.2813981935e+000,3.9524308469e+000,4.0418264267e+000,2.8652470426e+000,4.6748089985e+000,3.3070873373e+000,4.4084203994e+000,4.3016645094e+000,4.1762253366e+000,
2.1187500000e+001,4.1597012137e+000,4.9787903017e+000,4.2150584213e+000,4.3949109270e+000,4.1160810528e+000,3.9365264752e+000,3.8280775284e+000,3.8326058553e+000,2.7935175159e+000,4.6291501512e+000,3.2628570653e+000,4.3747762226e+000,4.2827221637e+000,4.1512221382e+000,
2.1281250000e+001,3.9950127236e+000,4.5955022255e+000,4.2207586288e+000,4.3514580283e+000,3.9484057284e+000,3.7579344147e+000,3.6801470703e+000,3.6289368683e+000,2.7566227212e+000,4.5481314025e+000,3.2298091950e+000,4.4120522400e+000,4.1824696439e+000,4.1788829031e+000,
2.1375000000e+001,3.7406087073e+000,4.1144955731e+000,4.1246654257e+000,4.1283443023e+000,3.8168367733e+000,3.4442880461e+000,3.5428566608e+000,3.4292561733e+000,2.5850948440e+000,4.3126191374e+000,3.2543523246e+000,4.3961457583e+000,4.2966864775e+000,4.0729235672e+000,
2.1468750000e+001,3.7347430280e+000,4.2162063409e+000,4.0180660172e+000,4.0939770996e+000,3.8992731954e+000,3.5762320176e+000,3.6125493274e+000,3.5292908425e+000,2.4135295029e+000,4.2766050454e+000,3.2214793602e+000,4.3748188751e+000,4.3451470102e+000,3.9913548168e+000,
2.1562500000e+001,3.6467365553e+000,4.1907176441e+000,4.0100401319e+000,4.0798220112e+000,3.8007586330e+000,3.6094031968e+000,3.4840553920e+000,3.5475462595e+000,2.3551857792e+000,4.2196899700e+000,3.1570485871e+000,4.3497957657e+000,4.3309836169e+000,3.9828259589e+000,
2.1656250000e+001,3.6069531252e+000,4.0603100829e+000,4.0020501051e+000,4.0104940363e+000,3.7276467262e+000,3.5111929007e+000,3.4714114460e+000,3.4725836812e+000,2.3634489580e+000,4.1324456328e+000,3.0752839054e+000,4.3480565935e+000,4.2783104693e+000,3.9326302681e+000,
2.1750000000e+001,3.5135660835e+000,4.0674965790e+000,3.9464339789e+000,4.0107769687e+000,3.6534124212e+000,3.5312196420e+000,3.4862215392e+000,3.4635458600e+000,2.3356788764e+000,4.0929701289e+000,3.0180287627e+000,4.2393639849e+000,4.3218931054e+000,3.8957480737e+000,
2.1843750000e+001,3.5281209092e+000,4.0692186292e+000,3.7896635894e+000,4.0139633894e+000,3.6337831601e+000,3.5388846673e+000,3.4118787984e+000,3.4169356960e+000,2.0614220455e+000,4.0377107872e+000,2.9007360335e+000,4.0891142913e+000,4.3110537528e+000,3.8394000995e+000,
2.1937500000e+001,3.3372903630e+000,3.7837675458e+000,3.6530923622e+000,3.7057194176e+000,3.3625199199e+000,3.3074704488e+000,3.2060904900e+000,3.1619367018e+000,1.9244449581e+000,3.7219137102e+000,2.9327636798e+000,3.8896478210e+000,4.3011497916e+000,3.7639456072e+000,
2.2031250000e+001,3.3749661598e+000,3.9466866620e+000,3.7494669374e+000,3.8829136521e+000,3.3603680585e+000,3.4911081395e+000,3.2887657735e+000,3.3132754292e+000,1.7782314966e+000,3.8751090891e+000,2.9296245264e+000,3.9283467979e+000,4.1488996244e+000,3.7056774633e+000,
2.2125000000e+001,3.3926657949e+000,3.9846057437e+000,3.7221414260e+000,3.9345504302e+000,3.3495723643e+000,3.4702061510e+000,3.2422860377e+000,3.3743558854e+000,1.7688872018e+000,3.9416471636e+000,2.9121193981e+000,3.7821454005e+000,3.9232912796e+000,3.6243248194e+000,
2.2218750000e+001,3.3614884877e+000,3.9781441283e+000,3.7031801543e+000,3.9300953802e+000,3.3272427236e+000,3.4903678834e+000,3.2102159098e+000,3.3355639830e+000,1.8015610172e+000,3.8876363795e+000,2.9688357212e+000,3.6607717682e+000,3.8417191642e+000,3.4282451095e+000,
2.2312500000e+001,3.4413230000e+000,3.9826588330e+000,3.7258412566e+000,3.9039852317e+000,3.5440335653e+000,3.4592214746e+000,3.2845748719e+000,3.4213982926e+000,1.9884975082e+000,3.8769012749e+000,2.8880822501e+000,3.6299400599e+000,3.6603348047e+000,3.3754482003e+000,
2.2406250000e+001,3.4417955869e+000,3.9897103511e+000,3.7139319411e+000,3.8172793908e+000,3.6159605795e+000,3.5228247178e+000,3.2911137177e+000,3.4066199015e+000,2.0299069004e+000,3.8468063876e+000,2.8108900016e+000,3.5546586787e+000,3.4856660286e+000,3.4371849295e+000,
2.2500000000e+001,3.3529525477e+000,3.7888996779e+000,3.6407851893e+000,3.6597552782e+000,3.6052038613e+000,3.3042064924e+000,3.3642239322e+000,3.2207746620e+000,2.2558345605e+000,3.6928850983e+000,2.7785242987e+000,3.4255997903e+000,3.3639978496e+000,3.4968065903e+000,
2.2593750000e+001,3.3925987490e+000,3.7451280835e+000,3.6904752331e+000,3.6487868297e+000,3.6232770168e+000,3.2138161750e+000,3.3972218838e+000,3.2052253804e+000,2.2249214427e+000,3.6529079314e+000,2.7578246910e+000,3.4256368872e+000,3.5388109385e+000,3.7542305853e+000,
2.2687500000e+001,3.4138052675e+000,3.8143451451e+000,3.7017398029e+000,3.6965139976e+000,3.5631174880e+000,3.2731318477e+000,3.4578940245e+000,3.3635644276e+000,2.2438027476e+000,3.9038779262e+000,2.8371038797e+000,3.6701850654e+000,3.5088515912e+000,3.9483722972e+000,
2.2781250000e+001,3.4421406803e+000,3.8597304863e+000,3.7628334793e+000,3.7581692190e+000,3.5580835122e+000,3.3672121284e+000,3.5368187040e+000,3.4520713719e+000,2.3145536465e+000,3.9685022131e+000,2.8045088359e+000,3.8364927269e+000,3.4308835024e+000,4.0540181658e+000,
2.2875000000e+001,3.3947513546e+000,3.8413432530e+000,3.7523210052e+000,3.7749583124e+000,3.6772695984e+000,3.2764119343e+000,3.7258941626e+000,3.4801005143e+000,2.5296738937e+000,4.0465419911e+000,2.7693165403e+000,3.8611349936e+000,3.4341493337e+000,4.0259621893e+000,
2.2968750000e+001,3.4516181837e+000,3.8025271900e+000,3.8078491932e+000,3.7749946383e+000,3.7759351483e+000,3.2554011190e+000,3.7961489727e+000,3.4706576549e+000,2.6556998782e+000,4.0611870524e+000,2.8162879876e+000,3.8776729742e+000,3.4945291709e+000,4.0577670054e+000,
2.3062500000e+001,3.2845041717e+000,3.4645520497e+000,3.7177754514e+000,3.4434558933e+000,3.7395184650e+000,3.0149851083e+000,3.7682476830e+000,3.3091140470e+000,2.6508832456e+000,3.9029322640e+000,2.7991825657e+000,3.8010839340e+000,3.6046892704e+000,4.1886465732e+000,
2.3156250000e+001,3.8267907867e+000,4.4133765599e+000,3.8587130274e+000,3.6393205350e+000,3.9308776624e+000,3.2303507371e+000,3.9115781339e+000,3.4134508453e+000,2.6786310798e+000,3.9302212393e+000,2.7140487912e+000,3.8536264714e+000,3.6863526793e+000,4.2633000135e+000,
2.3250000000e+001,4.0241045399e+000,4.6963131746e+000,4.0063841584e+000,3.7539813357e+000,4.0221180576e+000,3.2708433169e+000,3.9647073784e+000,3.4640031821e+000,2.7601200596e+000,3.9178701079e+000,2.6440040186e+000,3.8547393379e+000,3.6733477987e+000,4.3604156580e+000,
2.3343750000e+001,4.0928137072e+000,4.7439044228e+000,4.0169882721e+000,3.8507283556e+000,4.0579844392e+000,3.3040791779e+000,4.0244555495e+000,3.4340959354e+000,3.0495917756e+000,4.0594601956e+000,2.7130042354e+000,3.8984927830e+000,3.7616824580e+000,4.4934989743e+000,
2.3437500000e+001,4.1141413290e+000,4.7489467588e+000,3.9866188083e+000,3.9056750541e+000,4.1210493773e+000,3.2429336047e+000,4.0015367988e+000,3.4460833587e+000,3.2030535725e+000,4.1526002564e+000,2.7231295920e+000,3.9684579074e+000,3.7752504106e+000,4.5170346413e+000,
2.3531250000e+001,4.1111468712e+000,4.7585587468e+000,4.0781692274e+000,3.9262559272e+000,4.2439185406e+000,3.2522455479e+000,4.0947165281e+000,3.4227267791e+000,3.2639454446e+000,4.2509256586e+000,2.6835470407e+000,3.9909712197e+000,3.7501290417e+000,4.4947080887e+000,
2.3625000000e+001,4.0975326609e+000,4.7591276027e+000,4.1041375310e+000,3.8475718413e+000,4.2927698330e+000,3.1927784225e+000,4.0940247631e+000,3.3633325775e+000,3.2958335188e+000,4.2015361695e+000,2.6849169201e+000,3.8523267630e+000,3.6991912793e+000,4.3627969589e+000,
2.3718750000e+001,4.0820364525e+000,4.7071710625e+000,4.2627531096e+000,3.8619986235e+000,4.3705400058e+000,3.0048566085e+000,4.0814964795e+000,3.1686030216e+000,3.3494072838e+000,3.9523785510e+000,2.7417138728e+000,3.7075768958e+000,3.6471450563e+000,4.2517990785e+000,
2.3812500000e+001,4.0816436311e+000,4.6905538866e+000,4.2679002637e+000,3.8162609492e+000,4.3452851219e+000,2.8936604243e+000,3.9898336664e+000,3.0779280476e+000,3.3039197175e+000,3.9168107633e+000,2.8052226305e+000,3.9068094174e+000,3.6091508738e+000,4.3280212026e+000,
2.3906250000e+001,4.1833520672e+000,4.7636162344e+000,4.4515910893e+000,3.9616283831e+000,4.4953822382e+000,2.9894657101e+000,4.2141478880e+000,3.2509741040e+000,3.3967703807e+000,4.1242030552e+000,2.7677362682e+000,4.0320787894e+000,3.5836267883e+000,4.4438193200e+000,
2.4000000000e+001,4.2600028088e+000,4.7964558882e+000,4.4594902151e+000,4.0427830370e+000,4.6069059987e+000,3.0623983810e+000,4.3242315091e+000,3.3110092430e+000,3.4392260817e+000,4.1079995209e+000,2.6366014931e+000,4.0285822374e+000,3.5095479828e+000,4.3867494292e+000,
2.4093750000e+001,4.2928549468e+000,4.7724224210e+000,4.9716047134e+000,4.1249989558e+000,4.9228326635e+000,3.0383149111e+000,4.6117422960e+000,3.3847665475e+000,3.6958468270e+000,4.1366606567e+000,2.5740398848e+000,4.1220417223e+000,3.4398283268e+000,4.4402500903e+000,
2.4187500000e+001,3.8354202896e+000,4.1001724718e+000,5.0779393922e+000,4.1586161386e+000,5.0605890147e+000,3.0364415828e+000,4.6393840283e+000,3.4974634617e+000,3.7633221930e+000,4.4273450037e+000,2.6129024587e+000,4.3331574239e+000,3.3988450175e+000,4.6122169112e+000,
2.4281250000e+001,3.8308757068e+000,4.0565452453e+000,5.0642869600e+000,4.1756324320e+000,5.0800385352e+000,3.0898677164e+000,4.6283341150e+000,3.5561387282e+000,3.7072499983e+000,4.4641018424e+000,2.6970227466e+000,4.3356839899e+000,3.3555876144e+000,4.5617289976e+000,
2.4375000000e+001,3.8895735077e+000,4.0701069703e+000,5.1062030543e+000,4.1413796927e+000,5.0835292103e+000,3.0243430040e+000,4.6980328141e+000,3.5260149540e+000,3.6610143529e+000,4.4057587524e+000,2.8188413041e+000,4.3243051884e+000,3.2958003024e+000,4.4000912539e+000,
2.4468750000e+001,3.8322024968e+000,4.0209662934e+000,5.1097356005e+000,4.1555003454e+000,5.0067228007e+000,3.0020198857e+000,4.6593719040e+000,3.5096124955e+000,3.6192230857e+000,4.2493926873e+000,2.7880674156e+000,4.2663056836e+000,3.3321696871e+000,4.3932130594e+000,
2.4562500000e+001,3.8080658145e+000,4.0031309727e+000,5.0986051548e+000,4.1499300981e+000,5.0195457359e+000,3.0740289268e+000,4.6423046370e+000,3.4915489543e+000,3.6535472424e+000,4.2745704178e+000,2.8360055446e+000,4.2983047576e+000,3.3862354190e+000,4.3374534446e+000,
2.4656250000e+001,3.8066168820e+000,3.9963394166e+000,5.0793886819e+000,4.1660598981e+000,5.0052537553e+000,3.1517071421e+000,4.6462879282e+000,3.5439579081e+000,3.6533609796e+000,4.2991736347e+000,2.7767318256e+000,4.3641827528e+000,3.3718382993e+000,4.3750629827e+000,
2.4750000000e+001,3.8086436594e+000,3.9951889465e+000,5.0867976218e+000,4.1440782999e+000,5.0127740559e+000,3.2252877363e+000,4.6709868905e+000,3.6103863454e+000,3.6348531920e+000,4.3143517752e+000,2.6657021536e+000,4.3207825704e+000,3.3811577312e+000,4.3722443448e+000,
2.4843750000e+001,3.7070157212e+000,3.9735302556e+000,5.0751938936e+000,4.0931562699e+000,5.0090732409e+000,3.3527378236e+000,4.6244537198e+000,3.6326635448e+000,3.6522872842e+000,4.2505662597e+000,2.6902963010e+000,4.1544379093e+000,3.3552998615e+000,4.1533045710e+000,
2.4937500000e+001,3.8589828078e+000,4.2894348340e+000,5.1773048229e+000,4.3941035456e+000,4.9879553512e+000,3.6446437341e+000,4.5594224780e+000,3.8962852861e+000,3.5418026930e+000,4.5341823125e+000,2.7296930293e+000,4.3203477453e+000,3.3749609667e+000,4.1980660292e+000,
2.5031250000e+001,3.8830756533e+000,4.4150583039e+000,5.1492556321e+000,4.5082291457e+000,4.9566873553e+000,3.8028026156e+000,4.5432878477e+000,3.9876801342e+000,3.5132023614e+000,4.6809932180e+000,2.7134886875e+000,4.3985196967e+000,3.4024440525e+000,4.2886855196e+000,
2.5125000000e+001,3.8328516031e+000,4.3503025177e+000,4.7523887029e+000,4.5346609969e+000,4.4278745515e+000,3.7044983626e+000,4.1682381908e+000,3.8526289379e+000,3.1068652927e+000,4.4571621617e+000,2.6865957843e+000,4.2094610141e+000,3.4152450020e+000,4.0634146923e+000,
2.5218750000e+001,3.7732689546e+000,4.2378306298e+000,4.6832044201e+000,4.4276173897e+000,4.2985593143e+000,3.6385635876e+000,4.1490211664e+000,3.7916438585e+000,3.0533352507e+000,4.3753014785e+000,2.6122076801e+000,4.2592337788e+000,3.4883732714e+000,4.2386925621e+000,
2.5312500000e+001,3.7175916453e+000,4.1665900500e+000,4.5951717727e+000,4.3837654846e+000,4.3299939699e+000,3.6515582180e+000,4.2712552637e+000,3.7918424033e+000,3.0972848103e+000,4.3638464411e+000,2.4027771243e+000,4.2488072741e+000,3.5709650028e+000,4.2133703135e+000,
2.5406250000e+001,3.7603817522e+000,4.1953920268e+000,4.6147690952e+000,4.3968542758e+000,4.2435565536e+000,3.6926839136e+000,4.1689580319e+000,3.8157173318e+000,2.9413440800e+000,4.3928173129e+000,2.3100197709e+000,4.2067966257e+000,3.6380381853e+000,4.2542000066e+000,
2.5500000000e+001,3.7845503285e+000,4.3486929119e+000,4.5639498580e+000,4.4864536697e+000,4.1529598249e+000,3.7541675510e+000,4.1039548749e+000,3.8911778329e+000,2.8975176565e+000,4.4835755413e+000,2.5468379084e+000,4.2749014114e+000,3.8630349528e+000,4.3779577313e+000,
2.5593750000e+001,3.7736859107e+000,4.4211358391e+000,4.5517805656e+000,4.5524909618e+000,4.1316928098e+000,3.7687283589e+000,4.0614341342e+000,3.9388086682e+000,2.8322228931e+000,4.5132766950e+000,2.5320181036e+000,4.2546345132e+000,3.8905173318e+000,4.3664654331e+000,
2.5687500000e+001,3.8373245468e+000,4.5141726587e+000,4.5732286209e+000,4.5971741791e+000,4.1660457004e+000,3.8605410968e+000,4.1147029854e+000,3.9412854496e+000,2.8854674960e+000,4.6394717033e+000,2.6168342061e+000,4.2771157721e+000,3.9038064560e+000,4.3152539645e+000,
2.5781250000e+001,3.8131022386e+000,4.5722626204e+000,4.5253914936e+000,4.6147359320e+000,4.0415730325e+000,3.8872108863e+000,4.0420344368e+000,3.9941743916e+000,2.8871612788e+000,4.6597173858e+000,2.8037958280e+000,4.2230748679e+000,3.9983545660e+000,4.3391863423e+000,
2.5875000000e+001,3.8371730796e+000,4.5824660543e+000,4.4153896556e+000,4.6042224797e+000,4.1186314014e+000,3.8641353827e+000,4.0638223803e+000,4.0156571907e+000,2.8390661928e+000,4.6997347210e+000,2.8972454596e+000,4.3366438008e+000,4.0467856904e+000,4.4996997288e+000,
2.5968750000e+001,3.4571083082e+000,4.2153996007e+000,4.0368131979e+000,4.3131766905e+000,3.8571397217e+000,3.5213497689e+000,3.9651600378e+000,3.6181116012e+000,2.8582556379e+000,4.3392677539e+000,2.9608025943e+000,4.1350238893e+000,4.1142227227e+000,4.4433430707e+000,
2.6062500000e+001,3.4777443811e+000,4.2639638385e+000,4.0494679542e+000,4.2592175811e+000,3.9880635874e+000,3.4631960513e+000,4.0098104896e+000,3.6353793502e+000,2.9725754136e+000,4.3650475252e+000,2.9809720979e+000,4.1470749160e+000,4.1761811965e+000,4.3474484219e+000,
2.6156250000e+001,3.7220037327e+000,4.4523210973e+000,4.1621487842e+000,4.4344230698e+000,3.9937320919e+000,3.5964582972e+000,4.0038666755e+000,3.8116361969e+000,2.9785921506e+000,4.5267943260e+000,2.9842609679e+000,4.3183228264e+000,4.1916851317e+000,4.2478090300e+000,
2.6250000000e+001,3.8747343904e+000,4.5667053911e+000,4.1921197437e+000,4.5068502833e+000,4.0184774122e+000,3.5837064476e+000,4.0145350057e+000,3.8519154833e+000,2.9951120880e+000,4.5504351262e+000,2.9735143384e+000,4.2612459323e+000,4.2237422821e+000,4.0374679308e+000,
2.6343750000e+001,3.8811915542e+000,4.5746104764e+000,4.2434049371e+000,4.4829935105e+000,3.9879803969e+000,3.5732260445e+000,3.8245228900e+000,3.8040903455e+000,2.9356930160e+000,4.5280029564e+000,2.9962330781e+000,4.2578715311e+000,4.2739208359e+000,4.0660097929e+000,
2.6437500000e+001,3.8791450038e+000,4.4864944439e+000,4.1642901812e+000,4.4073291075e+000,4.0813869503e+000,3.5461102443e+000,3.8545301240e+000,3.7829790757e+000,2.9351260188e+000,4.5217905466e+000,2.9153641426e+000,4.3456816800e+000,4.1894255411e+000,4.1847349078e+000,
2.6531250000e+001,3.9023051653e+000,4.4727000155e+000,4.2481258174e+000,4.4280476124e+000,4.0841826639e+000,3.6079894342e+000,3.8271230326e+000,3.7953307846e+000,2.8729540351e+000,4.6087858399e+000,2.8516139872e+000,4.5195974732e+000,4.1880966230e+000,4.4290959224e+000,
2.6625000000e+001,3.9757893303e+000,4.5059035177e+000,4.2608993091e+000,4.4374797373e+000,4.1617580718e+000,3.6290836826e+000,3.8828871322e+000,3.8304996863e+000,2.8525322906e+000,4.6026307300e+000,2.8601454622e+000,4.5682850837e+000,4.3311748633e+000,4.4798334507e+000,
2.6718750000e+001,4.0373115390e+000,4.4459312385e+000,4.2444943621e+000,4.4335109047e+000,4.1989374380e+000,3.5457808051e+000,3.8543051689e+000,3.7353199811e+000,2.8640542393e+000,4.5270030042e+000,2.6694748894e+000,4.5809557278e+000,4.3710436843e+000,4.4969833748e+000,
2.6812500000e+001,4.0618114794e+000,4.4608552951e+000,4.2651239884e+000,4.4354266668e+000,4.1718362770e+000,3.5154371536e+000,3.8594822898e+000,3.7074636798e+000,2.7958451668e+000,4.5323005262e+000,2.6066563990e+000,4.6089859762e+000,4.3630927985e+000,4.4742989111e+000,
2.6906250000e+001,4.0586898389e+000,4.3696173045e+000,4.2703579939e+000,4.3328804204e+000,4.1274700906e+000,3.3941978177e+000,3.8142104416e+000,3.5894537839e+000,2.7806018824e+000,4.4010968902e+000,2.5449619073e+000,4.4800065360e+000,4.3319693487e+000,4.2905962780e+000,
2.7000000000e+001,4.0239709005e+000,4.3953978863e+000,4.2949758853e+000,4.3399055019e+000,4.1177077800e+000,3.4004632863e+000,3.6882703653e+000,3.6048046231e+000,2.7957695483e+000,4.4211445188e+000,2.5131716814e+000,4.4947315933e+000,4.2708820943e+000,4.3060772039e+000,
2.7093750000e+001,4.1834247024e+000,4.4140872174e+000,4.2675016303e+000,4.3439505324e+000,4.1176855823e+000,3.5331515542e+000,3.6069106693e+000,3.5947821628e+000,2.6601970986e+000,4.4981876015e+000,2.5213254030e+000,4.5149198995e+000,4.2054072231e+000,4.3560215396e+000,
2.7187500000e+001,4.1994749816e+000,4.3892970259e+000,4.2088404689e+000,4.2772477286e+000,4.2050710237e+000,3.4919838660e+000,3.7631322666e+000,3.4912575936e+000,2.7114276021e+000,4.5614793648e+000,2.5407313978e+000,4.6290996906e+000,4.1585309174e+000,4.5381460706e+000,
2.7281250000e+001,4.1253569645e+000,4.3306876441e+000,4.1446762335e+000,4.2748287533e+000,4.2131382658e+000,3.4688379517e+000,3.7367659058e+000,3.5258747554e+000,2.8147683727e+000,4.6046693412e+000,2.6718641950e+000,4.7198215346e+000,4.0534131976e+000,4.6152755220e+000,
2.7375000000e+001,4.0932792993e+000,4.2812280766e+000,4.1126153376e+000,4.2640927192e+000,4.1352360815e+000,3.4412188693e+000,3.7552181165e+000,3.4873967180e+000,2.7509567007e+000,4.5856715936e+000,2.8033655873e+000,4.7244423396e+000,3.9075166917e+000,4.5837093038e+000,
2.7468750000e+001,4.0389674947e+000,4.2377840743e+000,4.1206352612e+000,4.2272163066e+000,4.1090355350e+000,3.2857549030e+000,3.7834915503e+000,3.4185927471e+000,2.8078396367e+000,4.4267911205e+000,2.8254350722e+000,4.5819446998e+000,3.8352032986e+000,4.3703618720e+000,
2.7562500000e+001,4.0033457649e+000,4.1507088893e+000,4.0653883080e+000,4.0827671502e+000,4.1068491316e+000,3.1920206552e+000,3.8092118814e+000,3.3699490960e+000,2.8322925470e+000,4.3435172057e+000,2.6870745492e+000,4.4232829286e+000,3.5826625143e+000,4.1148780652e+000,
2.7656250000e+001,3.9069538866e+000,4.0729205925e+000,4.0068439055e+000,3.9918220569e+000,3.9574537521e+000,3.1485656386e+000,3.7252155814e+000,3.3988621887e+000,2.7935394201e+000,4.3959535195e+000,2.7202738525e+000,4.3824766935e+000,3.3550655262e+000,4.0966127311e+000,
2.7750000000e+001,3.8709682516e+000,4.1147308037e+000,4.0322022619e+000,4.0129244089e+000,3.9552365382e+000,3.1790983283e+000,3.7002002262e+000,3.4819123098e+000,2.7987546660e+000,4.4414571445e+000,2.8327615425e+000,4.4113142008e+000,3.1953639703e+000,4.1507719028e+000,
2.7843750000e+001,3.8610063040e+000,4.1002500732e+000,3.9627811991e+000,4.0168955779e+000,3.9752739955e+000,3.1793417874e+000,3.6530197917e+000,3.5114759919e+000,2.8980948925e+000,4.4334558737e+000,2.8208571756e+000,4.3930817391e+000,3.1346222021e+000,4.1458748578e+000,
2.7937500000e+001,4.0940170096e+000,4.5452853699e+000,3.9455073349e+000,4.0605683332e+000,4.0047395917e+000,3.3208480856e+000,3.6395570455e+000,3.6017889544e+000,2.9174248392e+000,4.4343498756e+000,2.7972984241e+000,4.3718420382e+000,3.1546976171e+000,4.1538162162e+000,
2.8031250000e+001,4.0147512536e+000,4.5595921183e+000,3.8559683392e+000,3.8768691387e+000,3.9459805746e+000,3.2436248209e+000,3.6547750970e+000,3.5162660578e+000,2.9042525907e+000,4.2943691416e+000,2.8678597991e+000,4.2399938275e+000,3.1833274207e+000,4.0726440452e+000,
2.8125000000e+001,3.8818339208e+000,4.4862278167e+000,3.7545448381e+000,3.6341072313e+000,3.8522819545e+000,2.9997141068e+000,3.6478945584e+000,3.3632505440e+000,2.9300663291e+000,4.0072811266e+000,2.8481448346e+000,4.0376154106e+000,3.2382682019e+000,3.9391674274e+000,
2.8218750000e+001,3.6438858867e+000,4.3848415146e+000,3.6968716796e+000,3.3826644722e+000,3.5181914577e+000,2.8566610416e+000,3.3679462168e+000,3.2052933000e+000,2.6770183866e+000,3.6529707328e+000,2.8826516839e+000,3.7106539102e+000,3.3168752287e+000,3.6481524288e+000,
2.8312500000e+001,3.6887509575e+000,4.4624748056e+000,3.7376510526e+000,3.4932129931e+000,3.5354833238e+000,3.1675176472e+000,3.3858985785e+000,3.3903634359e+000,2.6211082246e+000,3.7920289299e+000,2.8210171997e+000,3.6719092433e+000,3.3403515257e+000,3.6100529322e+000,
2.8406250000e+001,3.8337065453e+000,4.5464239486e+000,3.7928601979e+000,3.6596696377e+000,3.5934516293e+000,3.3142966149e+000,3.4539994958e+000,3.5761554369e+000,2.5594959268e+000,4.0496930925e+000,2.7526834799e+000,3.8121591882e+000,3.2786315538e+000,3.6139020970e+000,
2.8500000000e+001,3.8227000522e+000,4.5404078471e+000,3.7681576184e+000,3.6761238413e+000,3.5805828892e+000,3.3602903051e+000,3.4149966356e+000,3.5733756456e+000,2.5066469000e+000,4.0720478332e+000,2.7809481814e+000,3.8181963343e+000,3.2492353671e+000,3.6539714170e+000,
2.8593750000e+001,3.8337200311e+000,4.5834393697e+000,3.8057282314e+000,3.7245023297e+000,3.5844012875e+000,3.4187532911e+000,3.4329601130e+000,3.6108275939e+000,2.5118469097e+000,4.0827447939e+000,2.8461315675e+000,3.8636186574e+000,3.1975015861e+000,3.7020159749e+000,
2.8687500000e+001,3.8278345664e+000,4.5778546866e+000,3.8892674183e+000,3.8939777334e+000,3.6861200130e+000,3.3553181070e+000,3.5024112159e+000,3.5425841314e+000,2.5526559182e+000,3.9813769005e+000,2.9113666507e+000,3.9681544639e+000,3.2127970108e+000,3.8576858410e+000,
2.8781250000e+001,3.8283394447e+000,4.5878964595e+000,3.8123624108e+000,3.9024962815e+000,3.7077823907e+000,3.3733393039e+000,3.5350317861e+000,3.5644385196e+000,2.5723144096e+000,4.0215428686e+000,2.8209002253e+000,4.0026332792e+000,3.1780786829e+000,3.8711556949e+000,
2.8875000000e+001,3.5042768596e+000,4.2846782196e+000,3.7772993064e+000,3.9360786739e+000,3.7236548275e+000,3.3089883160e+000,3.5572589381e+000,3.5269835841e+000,2.5349266566e+000,4.0510827992e+000,2.9557045492e+000,4.0734394194e+000,3.2694370431e+000,3.9428579346e+000,
2.8968750000e+001,3.5000993793e+000,4.2419929329e+000,3.7656077150e+000,4.0009570965e+000,3.7117927546e+000,3.3914857940e+000,3.5648883242e+000,3.6045837534e+000,2.5070632284e+000,4.1604186359e+000,2.8398824232e+000,4.1982904282e+000,3.2372266376e+000,3.9460852514e+000,
2.9062500000e+001,3.4402716690e+000,4.1037666703e+000,3.8256983544e+000,4.0506647031e+000,3.7352189348e+000,3.3982609855e+000,3.5522216690e+000,3.6270156997e+000,2.5066325823e+000,4.1773578619e+000,2.9004972509e+000,4.2278627311e+000,3.3418727952e+000,3.9679498045e+000,
2.9156250000e+001,3.3776102212e+000,4.1228968947e+000,3.9736054123e+000,4.1285471884e+000,3.7754505178e+000,3.5088677646e+000,3.5787169321e+000,3.6472144883e+000,2.5938008431e+000,4.2085440916e+000,2.8390478177e+000,4.1484504683e+000,3.2158377107e+000,3.8026754050e+000,
2.9250000000e+001,3.3931046605e+000,4.1183683464e+000,4.0275939215e+000,4.1085491257e+000,3.7573494841e+000,3.5632347025e+000,3.6253017804e+000,3.6328189852e+000,2.7600652402e+000,4.2372201239e+000,2.7420950937e+000,4.1467197332e+000,3.1892189332e+000,3.7642460221e+000,
2.9343750000e+001,3.2774555227e+000,3.9078891517e+000,3.9696813491e+000,3.9448384021e+000,3.6972887429e+000,3.3111199138e+000,3.5547133071e+000,3.3521826170e+000,2.7577413484e+000,4.0280735946e+000,2.7174485876e+000,4.0356357283e+000,3.1557598889e+000,3.6335326109e+000,
2.9437500000e+001,3.1731018330e+000,3.8979219279e+000,4.0551391303e+000,3.9700594735e+000,3.6751190591e+000,3.3638320000e+000,3.5441899725e+000,3.3589514366e+000,2.8456292404e+000,3.9290158478e+000,2.7270334225e+000,3.9976197941e+000,3.1693024681e+000,3.6113606189e+000,
2.9531250000e+001,3.2640790104e+000,4.0520848572e+000,4.0448279814e+000,4.1021123255e+000,3.7586559098e+000,3.4836672886e+000,3.5791762438e+000,3.5967423057e+000,2.9491444002e+000,4.2808197660e+000,2.8351213360e+000,4.2111175774e+000,3.2988159877e+000,3.7447626551e+000,
2.9625000000e+001,3.3782415983e+000,4.1233821105e+000,4.0490311645e+000,4.1811961057e+000,3.8717747181e+000,3.6053602353e+000,3.6289680755e+000,3.6340794449e+000,2.9712152573e+000,4.4224537267e+000,2.8221634597e+000,4.2338986071e+000,3.3156637299e+000,3.6582155477e+000,
2.9718750000e+001,3.2710857546e+000,3.9769870312e+000,4.0056240641e+000,4.0099180519e+000,3.8717331396e+000,3.4976300893e+000,3.7055766908e+000,3.5042850575e+000,3.0400166438e+000,4.3369013134e+000,2.8930540583e+000,4.1208386878e+000,3.3545904741e+000,3.4621778152e+000,
2.9812500000e+001,3.3317502458e+000,4.0179740991e+000,4.0826115392e+000,4.0635538197e+000,3.9029758419e+000,3.5706402655e+000,3.7934991006e+000,3.6108798914e+000,3.0838209020e+000,4.3853348037e+000,2.8764845424e+000,4.1593154675e+000,3.3159440858e+000,3.5129916677e+000,
2.9906250000e+001,3.3852232459e+000,4.0878733249e+000,4.1203616815e+000,4.0864046571e+000,3.8657768103e+000,3.6406820026e+000,3.7461014660e+000,3.6426248064e+000,3.0811206712e+000,4.4438881564e+000,2.8458105482e+000,4.1435052306e+000,3.4149067495e+000,3.5047980655e+000,
3.0000000000e+001,3.4606760742e+000,4.0711637938e+000,4.0749399775e+000,4.0731310322e+000,3.9923285107e+000,3.6324760149e+000,3.8080974118e+000,3.5595203282e+000,3.1662467229e+000,4.4503449476e+000,2.8754507057e+000,4.1153679984e+000,3.4810517649e+000,3.6761076125e+000,
3.0093750000e+001,3.4635443237e+000,4.0929505046e+000,4.0212508725e+000,4.0811331067e+000,3.9976176361e+000,3.6536314364e+000,3.7569537413e+000,3.5876566167e+000,3.2075717978e+000,4.4901761295e+000,2.8037326529e+000,4.1538723799e+000,3.4244052266e+000,3.7258864582e+000,
3.0187500000e+001,3.5754437101e+000,4.1692054552e+000,4.0929195798e+000,4.1060561604e+000,4.0825303948e+000,3.6357710274e+000,3.7204672726e+000,3.6824133187e+000,3.1537403406e+000,4.5490116214e+000,2.9313926878e+000,4.1532503733e+000,3.4220973696e+000,3.8751692346e+000,
3.0281250000e+001,3.5864321264e+000,4.2092710764e+000,4.1318004825e+000,4.1816010226e+000,4.0970001986e+000,3.6755057308e+000,3.7203449536e+000,3.7681471912e+000,3.1100443095e+000,4.5456807798e+000,3.0069333370e+000,4.1842648600e+000,3.4143339602e+000,4.0170790017e+000,
3.0375000000e+001,3.5914530052e+000,4.2507058509e+000,4.0946711169e+000,4.2233149371e+000,4.0993058882e+000,3.6978365528e+000,3.7189878227e+000,3.7725763077e+000,3.0744030197e+000,4.5539899449e+000,3.0070420526e+000,4.2100159158e+000,3.4210148869e+000,4.0848626324e+000,
3.0468750000e+001,3.5155068558e+000,4.1990233104e+000,4.0303640371e+000,4.1744937754e+000,4.0937568505e+000,3.6142646054e+000,3.7450801143e+000,3.6890687233e+000,3.0393675608e+000,4.5391070055e+000,2.9881733769e+000,4.2176459905e+000,3.4442784813e+000,4.0894104717e+000,
3.0562500000e+001,3.3712473440e+000,4.0020434104e+000,3.9619053583e+000,4.0183604012e+000,3.9888677671e+000,3.3831805334e+000,3.7506820032e+000,3.3918527778e+000,3.0131874520e+000,4.1687358075e+000,2.8383174864e+000,3.8882660770e+000,3.3377680252e+000,3.9752198523e+000,
3.0656250000e+001,3.6854950472e+000,4.3100491301e+000,3.9121273328e+000,3.9345584184e+000,3.9066113929e+000,3.3198211762e+000,3.5995821275e+000,3.4132294759e+000,2.9319328819e+000,4.1369327053e+000,2.7826290261e+000,3.7944853882e+000,3.2896864162e+000,3.9637097831e+000,
3.0750000000e+001,4.3244889011e+000,5.1236360600e+000,4.1010151089e+000,4.2368230050e+000,3.9415794116e+000,3.7759569722e+000,3.5355545859e+000,3.6301099477e+000,2.9413368816e+000,4.1755347437e+000,2.7306234010e+000,3.8220716089e+000,3.3327052400e+000,3.9733059716e+000,
3.0843750000e+001,4.3394623612e+000,5.1317222688e+000,4.1131714941e+000,4.3005127519e+000,3.8847888170e+000,3.8472371548e+000,3.4652233497e+000,3.7914031875e+000,2.8587142971e+000,4.2299767576e+000,2.7172367559e+000,3.9148564159e+000,3.4507403401e+000,4.0238911759e+000,
3.0937500000e+001,4.3245286853e+000,5.0821832018e+000,4.0778786880e+000,4.2440700815e+000,3.8172861822e+000,3.7733959180e+000,3.4844629042e+000,3.7134300397e+000,2.7125503905e+000,4.1225344174e+000,2.6530781331e+000,3.8175335567e+000,3.3693605040e+000,3.9372232044e+000,
3.1031250000e+001,4.2824078808e+000,5.0587877825e+000,4.0826644538e+000,4.2155745131e+000,3.7636848079e+000,3.6957774680e+000,3.4693018481e+000,3.7161874675e+000,2.6808661647e+000,4.0762936620e+000,2.6650503978e+000,3.7502370912e+000,3.3545540722e+000,3.8903363121e+000,
3.1125000000e+001,4.2537158661e+000,5.0378859441e+000,4.0060864178e+000,4.2148806685e+000,3.6478517209e+000,3.7108524434e+000,3.4446286472e+000,3.6800504769e+000,2.6313736445e+000,4.0060519774e+000,2.6367021917e+000,3.7691332716e+000,3.3524089359e+000,3.9150318430e+000,
3.1218750000e+001,4.2740528995e+000,5.0497035050e+000,3.9536810509e+000,4.2516670205e+000,3.6232783421e+000,3.7254718573e+000,3.3332976898e+000,3.5744662762e+000,2.5351375990e+000,4.0202358380e+000,2.4959987960e+000,3.8442956466e+000,3.3710207216e+000,3.8129197722e+000,
3.1312500000e+001,4.2908466487e+000,5.0452568546e+000,3.9452301870e+000,4.3094463534e+000,3.6434345780e+000,3.7160952568e+000,3.3384031814e+000,3.5680573989e+000,2.5388913793e+000,4.0381372378e+000,2.6191416335e+000,3.9203699495e+000,3.4823907700e+000,3.7186205731e+000,
3.1406250000e+001,4.2968688106e+000,5.0340014596e+000,3.9131570823e+000,4.2636428354e+000,3.6002834559e+000,3.7045676277e+000,3.1910535582e+000,3.5392394662e+000,2.5875601696e+000,4.0881514458e+000,2.6899506887e+000,3.9709190276e+000,3.5958514857e+000,3.9155542727e+000,
3.1500000000e+001,4.3288702284e+000,5.0316349379e+000,3.9287112394e+000,4.2396229553e+000,3.6755264099e+000,3.7375314460e+000,3.1720524953e+000,3.6018630314e+000,2.5512263689e+000,4.1673824166e+000,2.7279552828e+000,4.1147560558e+000,3.6757643528e+000,4.2283752391e+000,
3.1593750000e+001,4.3072848005e+000,5.0004388390e+000,3.9411385751e+000,4.1976299841e+000,3.6573500517e+000,3.7653670389e+000,3.0271121757e+000,3.6354823596e+000,2.4754659792e+000,4.1265958159e+000,2.8692279028e+000,4.2364758994e+000,3.7206477221e+000,4.4468858551e+000,
3.1687500000e+001,3.8575021970e+000,4.2731460630e+000,3.9069529265e+000,3.9926369853e+000,3.6857870721e+000,3.5166863743e+000,3.1851502910e+000,3.5729061089e+000,2.3990497627e+000,4.1328792504e+000,2.8740976351e+000,4.3514040850e+000,3.7542709210e+000,4.6279251235e+000,
3.1781250000e+001,3.6089338684e+000,3.7034096419e+000,4.0339028107e+000,3.8465040712e+000,3.7771626568e+000,3.2379336979e+000,3.3303467992e+000,3.3744927344e+000,2.3554671577e+000,4.1069805294e+000,2.8427257300e+000,4.3963004936e+000,3.7383455927e+000,4.7495898235e+000,
3.1875000000e+001,3.5358545247e+000,3.7395846219e+000,4.1092603793e+000,3.9391677234e+000,3.7361695886e+000,3.1818371490e+000,3.2174058487e+000,3.2625323939e+000,2.2767810140e+000,4.1317465034e+000,2.7607613209e+000,4.5141201698e+000,3.6282614253e+000,4.8308877393e+000,
3.1968750000e+001,3.7915684190e+000,4.2285569151e+000,4.3588372854e+000,4.3353944133e+000,3.8173756383e+000,3.5602994997e+000,3.4045824376e+000,3.8035906982e+000,2.3293740323e+000,4.6031652375e+000,3.0376182670e+000,4.7579792246e+000,3.7383181613e+000,4.9599126781e+000,
3.2062500000e+001,3.8137301541e+000,4.2561786458e+000,4.3852771101e+000,4.3785633679e+000,3.7904373927e+000,3.5734670721e+000,3.3441427316e+000,3.8172602680e+000,2.2991723617e+000,4.6191962451e+000,3.0633423963e+000,4.7742178437e+000,3.7589339803e+000,4.9849022004e+000,
3.2156250000e+001,3.8670342592e+000,4.3367630517e+000,4.4649657653e+000,4.5307311878e+000,3.8504891066e+000,3.6228142069e+000,3.4481888584e+000,3.9135633661e+000,2.3158907364e+000,4.7405891810e+000,3.2011947874e+000,4.8482748812e+000,3.7333664959e+000,5.0675818088e+000,
3.2250000000e+001,3.8175854607e+000,4.2921837645e+000,4.4552140322e+000,4.4962500870e+000,3.8547385754e+000,3.6244754582e+000,3.5014904606e+000,3.9681285155e+000,2.3312695019e+000,4.7479450095e+000,3.1675547519e+000,4.8639881382e+000,3.7758846123e+000,5.0847917650e+000,
3.2343750000e+001,3.8275503077e+000,4.3202710130e+000,4.4510805615e+000,4.5172099385e+000,3.8851581638e+000,3.7063394078e+000,3.5033897646e+000,3.9863066554e+000,2.2920635027e+000,4.7637470378e+000,3.0513286055e+000,4.8538216682e+000,3.6769612408e+000,5.0828911323e+000,
3.2437500000e+001,3.8783252763e+000,4.3785308168e+000,4.4834601822e+000,4.5250478813e+000,3.9106582165e+000,3.7467619441e+000,3.5916500959e+000,4.0398653514e+000,2.3453293785e+000,4.7676828833e+000,3.0183444619e+000,4.8062484418e+000,3.6401308429e+000,5.0014932830e+000,
3.2531250000e+001,3.8932452160e+000,4.3913114919e+000,4.4895887405e+000,4.5709009265e+000,3.8569584722e+000,3.6999455113e+000,3.6938161290e+000,3.9850161939e+000,2.4004131210e+000,4.7150882689e+000,2.9533422252e+000,4.7185217246e+000,3.5861658747e+000,4.8600164006e+000,
3.2625000000e+001,3.8850401885e+000,4.4071465599e+000,4.5160123552e+000,4.6033967519e+000,3.8813450528e+000,3.7073953005e+000,3.6973095918e+000,3.9751185316e+000,2.4494101838e+000,4.7482269708e+000,2.8683615874e+000,4.7025333945e+000,3.5103582009e+000,4.7876158136e+000,
3.2718750000e+001,3.8071004362e+000,4.4054171097e+000,4.4119816339e+000,4.6241981858e+000,3.7230216314e+000,3.7827549854e+000,3.6000025479e+000,3.9778084670e+000,2.5701947767e+000,4.7296399707e+000,3.0833948408e+000,4.6452332146e+000,3.6106088734e+000,4.6973598022e+000,
3.2812500000e+001,3.7241082647e+000,4.3282072494e+000,4.2760252069e+000,4.5363437779e+000,3.6827772132e+000,3.7519648389e+000,3.6593990709e+000,3.9618311314e+000,2.6805426680e+000,4.6488965671e+000,3.0885858991e+000,4.4895485354e+000,3.5796594288e+000,4.5303080235e+000,
3.2906250000e+001,3.6709458504e+000,4.1333873753e+000,4.1767150155e+000,4.3406540730e+000,3.7160697971e+000,3.6642059664e+000,3.6881841298e+000,3.8463238492e+000,2.7521398959e+000,4.4852731319e+000,3.1077340113e+000,4.2467819775e+000,3.6143134479e+000,4.3324764325e+000,
3.3000000000e+001,3.4654469134e+000,3.8333873037e+000,3.9185537639e+000,4.1266576353e+000,3.5930601022e+000,3.4465060023e+000,3.6440758435e+000,3.5471227827e+000,2.7115504887e+000,4.1923283671e+000,3.0189818478e+000,4.0918989880e+000,3.5027204158e+000,4.2431022596e+000,
3.3093750000e+001,3.5095537008e+000,3.7594735261e+000,3.8704540145e+000,4.0530683267e+000,3.5539170203e+000,3.4285118645e+000,3.6985081966e+000,3.5322676373e+000,2.7679522165e+000,4.1379765582e+000,3.0005769724e+000,4.0376734501e+000,3.5077000178e+000,4.1222544460e+000,
3.3187500000e+001,3.4824950521e+000,3.6302093168e+000,3.7667774221e+000,3.7747191996e+000,3.5600447678e+000,3.3030156857e+000,3.6596296670e+000,3.4279116191e+000,2.8351509293e+000,3.8911563530e+000,2.8819501732e+000,3.8028629618e+000,3.5083613794e+000,3.9787400369e+000,
3.3281250000e+001,3.3402326633e+000,3.4726750362e+000,3.6179806470e+000,3.5992535709e+000,3.5518056274e+000,3.2134999936e+000,3.7393487172e+000,3.3377734652e+000,2.9526060479e+000,3.8142804121e+000,3.0180598379e+000,3.7174378903e+000,3.5259334128e+000,4.0350222616e+000,
3.3375000000e+001,3.2793865842e+000,3.6278955973e+000,3.7780781704e+000,3.7859801430e+000,3.6677244762e+000,3.4149272643e+000,3.7726630959e+000,3.5832234440e+000,2.9861556787e+000,4.0369458229e+000,3.1022066219e+000,3.8596813279e+000,3.5225683362e+000,4.1389264208e+000,
3.3468750000e+001,3.3092909478e+000,3.7373787072e+000,3.9717017246e+000,3.9313123357e+000,3.6401184894e+000,3.4702187584e+000,3.7493322705e+000,3.5582434422e+000,2.9990191609e+000,3.9978055074e+000,3.1563226708e+000,3.8170690761e+000,3.5290708256e+000,4.1240629944e+000,
3.3562500000e+001,3.3319331737e+000,3.8859336495e+000,3.9150659683e+000,3.9054678550e+000,3.7553730244e+000,3.5451482198e+000,3.7905494205e+000,3.6493759119e+000,3.0363122812e+000,4.1481092739e+000,3.2679991766e+000,4.0225552109e+000,3.5130282722e+000,4.2617870692e+000,
3.3656250000e+001,3.6574374330e+000,4.4188037398e+000,3.9707174799e+000,4.0117366376e+000,3.7535962644e+000,3.5928379791e+000,3.7892451753e+000,3.6462395171e+000,2.9464002255e+000,4.0954628997e+000,3.2100224982e+000,3.9541084485e+000,3.5335556224e+000,4.1910977670e+000,
3.3750000000e+001,4.3890161998e+000,5.2831359668e+000,4.2313422242e+000,4.0762522421e+000,3.8475981351e+000,3.6752680048e+000,3.7645161570e+000,3.6203226207e+000,2.8760180598e+000,4.0957070034e+000,3.0582330187e+000,3.9613525290e+000,3.4684867451e+000,4.1716505728e+000,
3.3843750000e+001,4.4593102815e+000,5.3599077313e+000,4.2635837420e+000,4.1728210529e+000,3.9333096083e+000,3.7377802897e+000,3.7625617464e+000,3.5943692026e+000,2.9088337213e+000,4.0745481546e+000,3.0781971087e+000,3.9530216295e+000,3.5874361567e+000,4.1795758560e+000,
3.3937500000e+001,4.4430503707e+000,5.3632919720e+000,4.2359910516e+000,4.1829243010e+000,3.9612394726e+000,3.6977743483e+000,3.7788700480e+000,3.5733502342e+000,2.9228910456e+000,4.0307969720e+000,3.0576062610e+000,3.8775444966e+000,3.5011876086e+000,4.1113155843e+000,
3.4031250000e+001,4.4311804400e+000,5.3714818966e+000,4.3018719727e+000,4.2508236213e+000,4.0622453699e+000,3.7251010881e+000,3.8171668790e+000,3.5970166495e+000,2.9229141608e+000,4.1296921961e+000,3.0798064093e+000,4.0248968943e+000,3.6187028601e+000,4.2248364888e+000,
3.4125000000e+001,4.4198095162e+000,5.3686574680e+000,4.3285467796e+000,4.2670715568e+000,4.0780024615e+000,3.7181058877e+000,3.8742332665e+000,3.6085853498e+000,2.9165974878e+000,4.1322092703e+000,3.1945509529e+000,4.0192053670e+000,3.6497952703e+000,4.1737505184e+000,
3.4218750000e+001,4.4186794477e+000,5.3718817256e+000,4.3410890923e+000,4.3144813385e+000,4.0571799734e+000,3.7524013688e+000,3.8235663188e+000,3.6414387587e+000,2.7962750672e+000,4.1925599743e+000,3.1804591885e+000,4.1254327507e+000,3.6744807568e+000,4.2550527717e+000,
3.4312500000e+001,4.4286382084e+000,5.3845322081e+000,4.2930310479e+000,4.3599101609e+000,4.0568004154e+000,3.7344767045e+000,3.7526870235e+000,3.6501665992e+000,2.7263886453e+000,4.1984414691e+000,3.0710173194e+000,4.1212402661e+000,3.5870664583e+000,4.2256846582e+000,
3.4406250000e+001,4.4428752259e+000,5.3404845074e+000,4.1904646680e+000,4.1958641317e+000,4.0271158561e+000,3.4772320239e+000,3.7381456317e+000,3.4694933596e+000,2.6403606608e+000,3.9638213886e+000,3.0102962608e+000,3.9592529072e+000,3.5728946601e+000,4.0863390695e+000,
3.4500000000e+001,4.4401639175e+000,5.3058615149e+000,4.1312224836e+000,4.1466209400e+000,4.0490168405e+000,3.3956453306e+000,3.7526369830e+000,3.4206245090e+000,2.6271253953e+000,3.9457182672e+000,3.0736576764e+000,3.9229251049e+000,3.5794223160e+000,4.0035449145e+000,
3.4593750000e+001,4.3779975475e+000,5.2393260614e+000,4.1990447583e+000,4.2102342139e+000,4.0466713324e+000,3.4021390864e+000,3.7039703442e+000,3.4305123497e+000,2.5540075971e+000,3.8561681978e+000,3.0108198352e+000,3.7587764266e+000,3.6180301654e+000,3.9011025769e+000,
3.4687500000e+001,4.1077891348e+000,4.7107129600e+000,4.1311644513e+000,4.1968479457e+000,4.1536664491e+000,3.4074469528e+000,3.8001459750e+000,3.4503764864e+000,2.5950457970e+000,3.8121543202e+000,2.9556593120e+000,3.7617941079e+000,3.6793952120e+000,3.9224156833e+000,
3.4781250000e+001,3.7009933879e+000,4.0078486046e+000,3.9592383780e+000,4.1178701369e+000,4.1001762767e+000,3.2541837001e+000,3.7335218516e+000,3.4329858256e+000,2.6973558204e+000,3.8234992518e+000,2.9830121547e+000,3.7497625989e+000,3.5945184423e+000,3.8737692757e+000,
3.4875000000e+001,3.5878869710e+000,3.8181124683e+000,3.9971149022e+000,4.0803752118e+000,3.9916922891e+000,3.2186800832e+000,3.6619641590e+000,3.4402086945e+000,2.5555854484e+000,3.8532105516e+000,2.9888429812e+000,3.7298911126e+000,3.5420026432e+000,3.8494896127e+000,
3.4968750000e+001,3.6253608806e+000,3.8297434879e+000,3.9609102933e+000,4.0680867386e+000,3.9684884951e+000,3.2452085054e+000,3.6790218437e+000,3.4317632808e+000,2.5135100325e+000,3.8807505885e+000,2.9240967034e+000,3.7161664889e+000,3.5148104192e+000,3.8035445410e+000,
3.5062500000e+001,3.6161626814e+000,3.7644197797e+000,3.8772879327e+000,3.9874904847e+000,3.9760791916e+000,3.2074266117e+000,3.6671829089e+000,3.3880775359e+000,2.3993818598e+000,3.8064312747e+000,2.6192860397e+000,3.6251588242e+000,3.4555890117e+000,3.7942958356e+000,
3.5156250000e+001,3.5404981751e+000,3.7138060832e+000,3.7999498437e+000,3.8270230682e+000,3.9101810224e+000,3.1375679615e+000,3.5582243697e+000,3.2885257460e+000,2.4862069541e+000,3.7457280915e+000,2.5386901245e+000,3.5987200820e+000,3.4397848283e+000,3.8164122283e+000,
3.5250000000e+001,3.6245689050e+000,3.7722066877e+000,3.9145347261e+000,3.8673288523e+000,3.9845812122e+000,3.1308898985e+000,3.7597175036e+000,3.3200963055e+000,2.5869303675e+000,3.7482527938e+000,2.4755287926e+000,3.6155995927e+000,3.3676608691e+000,3.6395344316e+000,
3.5343750000e+001,3.6717819895e+000,3.8249962828e+000,3.8981670994e+000,3.8167270954e+000,3.9978761072e+000,3.2054735361e+000,3.7672858848e+000,3.3280530865e+000,2.5948670675e+000,3.8528309254e+000,2.7006695273e+000,3.8208746117e+000,3.5170246831e+000,3.8210544430e+000,
3.5437500000e+001,3.5591639358e+000,3.6995414235e+000,3.8688542069e+000,3.7094439591e+000,3.8984779341e+000,3.1477197670e+000,3.7323703898e+000,3.1585854384e+000,2.5411162863e+000,3.7855486641e+000,2.6112167957e+000,3.8768002690e+000,3.4804782859e+000,3.8522779514e+000,
3.5531250000e+001,3.4729963982e+000,3.7080943982e+000,3.7221503296e+000,3.6610886858e+000,3.8506021733e+000,3.0728654463e+000,3.7760315685e+000,3.1533573561e+000,2.6321481120e+000,3.7827682259e+000,2.6416255960e+000,3.8591339812e+000,3.5845411016e+000,3.7648296781e+000,
3.5625000000e+001,3.2701154631e+000,3.5237743652e+000,3.5849610050e+000,3.5393449710e+000,3.7700999590e+000,2.8636878638e+000,3.6390367401e+000,3.0531106457e+000,2.6072474188e+000,3.7747154533e+000,2.7040766381e+000,3.9282630159e+000,3.4902751920e+000,3.8096199332e+000,
3.5718750000e+001,3.2449515758e+000,3.5638158596e+000,3.6376579427e+000,3.5294901445e+000,3.7509032029e+000,2.7808638575e+000,3.6697939817e+000,3.0731156345e+000,2.6557896513e+000,3.7707670755e+000,2.6765750748e+000,3.9624632178e+000,3.4995640532e+000,3.9072001522e+000,
3.5812500000e+001,3.1742410862e+000,3.5669299537e+000,3.6124973959e+000,3.5194476861e+000,3.8214194406e+000,2.7703202792e+000,3.7321375790e+000,2.9832361933e+000,2.6121343699e+000,3.7937894627e+000,2.6153403671e+000,3.9894518203e+000,3.6235274226e+000,4.0632286982e+000,
3.5906250000e+001,3.1827601989e+000,3.6105496565e+000,3.6523442943e+000,3.5913098830e+000,3.8135641026e+000,2.8325792402e+000,3.7262571052e+000,3.0381221081e+000,2.6307015730e+000,3.9389316972e+000,2.5742892880e+000,4.3184536050e+000,3.7170922920e+000,4.6168185952e+000,
3.6000000000e+001,3.2184878324e+000,3.7192178666e+000,3.7875158578e+000,3.6796852821e+000,3.8458023078e+000,2.9352700014e+000,3.7663753692e+000,3.1236728801e+000,2.6814120436e+000,4.2024162696e+000,2.6204459898e+000,4.6685428912e+000,3.6164011828e+000,5.0138494573e+000,
3.6093750000e+001,3.2819616146e+000,3.7435515793e+000,3.7953887439e+000,3.7946997239e+000,3.8498951373e+000,2.9041825283e+000,3.7989996683e+000,3.2595313271e+000,2.6369815482e+000,4.3553900981e+000,2.8217582474e+000,4.8698802783e+000,3.6117587431e+000,5.3291711897e+000,
3.6187500000e+001,3.3070502502e+000,3.7738520237e+000,3.8123984345e+000,3.8037661786e+000,3.8632396081e+000,2.9828881292e+000,3.8025327420e+000,3.3651822866e+000,2.6948147138e+000,4.4950594939e+000,2.8658551375e+000,4.9698632017e+000,3.6286179378e+000,5.4216833073e+000,
3.6281250000e+001,3.2729148564e+000,3.7681861277e+000,3.8103012243e+000,3.8150889327e+000,3.7474018392e+000,3.0762830475e+000,3.7202859382e+000,3.3718083012e+000,2.5897548034e+000,4.5206751279e+000,2.8701332053e+000,4.9526306760e+000,3.5908505276e+000,5.4216014886e+000,
3.6375000000e+001,3.1533580041e+000,3.6511401343e+000,3.8573238109e+000,3.7749769878e+000,3.6557586879e+000,2.9774277664e+000,3.6638054339e+000,3.2363941582e+000,2.6204473343e+000,4.4660172948e+000,2.7126181243e+000,4.8786683707e+000,3.5083509287e+000,5.3752487715e+000,
3.6468750000e+001,3.2146657473e+000,3.6732833648e+000,3.9394815474e+000,3.8260678037e+000,3.7135165767e+000,3.0191460100e+000,3.7229440214e+000,3.2289978349e+000,2.6872517852e+000,4.4996013820e+000,2.7870718015e+000,4.8766896658e+000,3.5150283792e+000,5.3965925369e+000,
3.6562500000e+001,3.3035602432e+000,3.6265339575e+000,4.0441982476e+000,3.7844108846e+000,3.6966209464e+000,3.0303978276e+000,3.6189755779e+000,3.1556506096e+000,2.6522412581e+000,4.4885931329e+000,2.6605105411e+000,4.8690924357e+000,3.4341890125e+000,5.3982018931e+000,
3.6656250000e+001,3.4025268007e+000,3.6997178116e+000,4.0877781721e+000,3.7718101701e+000,3.7480705099e+000,3.2313180612e+000,3.7521059252e+000,3.3377418021e+000,2.8083015113e+000,4.5839202196e+000,2.7176212694e+000,4.8834518776e+000,3.5523456713e+000,5.4133275411e+000,
3.6750000000e+001,3.3593659480e+000,3.6326108696e+000,3.9947312817e+000,3.7925366832e+000,3.6056408232e+000,3.2139315931e+000,3.6871746822e+000,3.4301975054e+000,2.7943547818e+000,4.6068098157e+000,2.7711968953e+000,4.8619439593e+000,3.6454355886e+000,5.3939957499e+000,
3.6843750000e+001,3.3555964176e+000,3.5736395294e+000,3.9375662108e+000,3.7227467874e+000,3.5816445583e+000,3.1378659926e+000,3.7095628688e+000,3.4965819003e+000,2.7328416973e+000,4.5510945291e+000,2.7811287929e+000,4.8074810818e+000,3.5670855148e+000,5.2896602670e+000,
3.6937500000e+001,3.3948174404e+000,3.6243440319e+000,3.9117355111e+000,3.7566632596e+000,3.5515748654e+000,3.2170106383e+000,3.6676738189e+000,3.5408179241e+000,2.7226976650e+000,4.4995169115e+000,2.9192787581e+000,4.6296359943e+000,3.5353123084e+000,5.0548539992e+000,
3.7031250000e+001,3.3937288049e+000,3.5121597868e+000,3.8435849779e+000,3.7033866967e+000,3.5395485778e+000,3.0995127426e+000,3.6170759632e+000,3.4556131073e+000,2.7587399428e+000,4.1364596962e+000,2.8881972405e+000,4.0994845175e+000,3.5737576135e+000,4.5196186705e+000,
3.7125000000e+001,3.3516522060e+000,3.4953527565e+000,3.7679691643e+000,3.6281622721e+000,3.5555313293e+000,3.0301423776e+000,3.5848373892e+000,3.4001142377e+000,2.7463630655e+000,4.0436030960e+000,2.7612407455e+000,4.0302451122e+000,3.6896509145e+000,4.1814416027e+000,
3.7218750000e+001,3.4533050585e+000,3.5363301638e+000,3.8340968884e+000,3.6371001947e+000,3.6898668062e+000,3.0230429252e+000,3.7646679062e+000,3.4660312515e+000,2.7332927475e+000,4.1839386479e+000,2.8804473911e+000,4.3329133086e+000,3.7694517245e+000,4.3706432238e+000,
3.7312500000e+001,3.3852326688e+000,3.7030779190e+000,3.8454005643e+000,3.7653123417e+000,3.6617107456e+000,3.0883633108e+000,3.7801146460e+000,3.5317078853e+000,2.8365997968e+000,4.2121408820e+000,2.9436181613e+000,4.3237905663e+000,3.8204113597e+000,4.3646803944e+000,
3.7406250000e+001,3.3084318441e+000,3.6987458155e+000,3.8215901387e+000,3.7361537883e+000,3.6991924736e+000,3.1718225435e+000,3.7995449889e+000,3.6380169783e+000,2.8007073527e+000,4.2666460774e+000,2.9551784995e+000,4.3484867676e+000,3.9153729978e+000,4.3281090936e+000,
3.7500000000e+001,3.3196297459e+000,3.6654209918e+000,3.7635931249e+000,3.7008871514e+000,3.6375222726e+000,3.1673431324e+000,3.7700465000e+000,3.6344168642e+000,2.7178427924e+000,4.2331833723e+000,2.8742578921e+000,4.3405801445e+000,3.9443466631e+000,4.2402709174e+000,
3.7593750000e+001,3.2414883908e+000,3.6662979444e+000,3.6037459161e+000,3.6967805551e+000,3.6149857848e+000,3.1065001163e+000,3.7994345900e+000,3.5874009055e+000,2.6357752844e+000,4.2919364112e+000,2.8575302613e+000,4.3913599438e+000,4.0473246784e+000,4.2391233382e+000,
3.7687500000e+001,3.0842702960e+000,3.6684814196e+000,3.5841828913e+000,3.6677543654e+000,3.6309350509e+000,3.0525805579e+000,3.7501124276e+000,3.4665073060e+000,2.5345671179e+000,4.1991168610e+000,2.9057720994e+000,4.3292570824e+000,3.9545451721e+000,4.1765188033e+000,
3.7781250000e+001,3.0448223942e+000,3.7255624146e+000,3.5322370210e+000,3.6914400634e+000,3.7085525883e+000,3.0560230328e+000,3.7725623291e+000,3.4009035468e+000,2.5610585252e+000,4.2409020100e+000,2.8710501319e+000,4.3184761894e+000,3.8705159401e+000,4.1503709300e+000,
3.7875000000e+001,3.1334930225e+000,3.9400345923e+000,3.6162942643e+000,3.8271879550e+000,3.7119413754e+000,3.1690686202e+000,3.7664727576e+000,3.5172756414e+000,2.6084260922e+000,4.3684678206e+000,2.9180158380e+000,4.3765183462e+000,3.8373941633e+000,4.1641914945e+000,
3.7968750000e+001,3.2926503871e+000,4.0323068527e+000,3.8245893160e+000,3.9158161541e+000,3.8656844953e+000,3.1965064337e+000,3.7859599612e+000,3.5452299720e+000,2.6063234546e+000,4.4261190616e+000,2.8005324329e+000,4.3812940097e+000,3.8465371416e+000,4.1527992769e+000,
3.8062500000e+001,3.2943289246e+000,4.0040279353e+000,3.8877353127e+000,3.8898519908e+000,3.8526870805e+000,3.1866943485e+000,3.7404393698e+000,3.4885018747e+000,2.5621952052e+000,4.4604271103e+000,2.8834250375e+000,4.3874276588e+000,3.8884269099e+000,4.1990881545e+000,
3.8156250000e+001,3.3805343832e+000,4.0221714361e+000,3.9361971932e+000,3.8387205214e+000,3.8991089163e+000,3.1462760008e+000,3.7052765042e+000,3.4968259137e+000,2.5266417085e+000,4.3175615992e+000,2.7998033759e+000,3.9974704857e+000,3.8284320879e+000,3.8127133147e+000,
3.8250000000e+001,3.3263539456e+000,3.8593263315e+000,3.7503839872e+000,3.7763664632e+000,3.8262151502e+000,2.9493689709e+000,3.5536558084e+000,3.2806062182e+000,2.4432116114e+000,4.0589064300e+000,2.5779989569e+000,3.7043782580e+000,3.8456552206e+000,3.5687199415e+000,
3.8343750000e+001,3.6049246498e+000,4.3088593116e+000,3.6875907088e+000,3.6851771651e+000,3.8550953889e+000,2.9409945071e+000,3.4999737527e+000,3.2009987565e+000,2.3880298308e+000,3.9814035910e+000,2.5755583544e+000,3.6949884924e+000,3.8011974060e+000,3.5295583270e+000,
3.8437500000e+001,4.1158432451e+000,4.8704847569e+000,3.7683393059e+000,3.7076503096e+000,3.9319426570e+000,3.0046920084e+000,3.5026806112e+000,3.2137431273e+000,2.4106006145e+000,3.9945500295e+000,2.6049503439e+000,3.7775742358e+000,3.7673333850e+000,3.7831957121e+000,
3.8531250000e+001,4.1254592261e+000,4.8913677101e+000,3.7565301030e+000,3.7036794822e+000,3.9011031345e+000,3.0492996645e+000,3.4809073339e+000,3.2914885014e+000,2.5924586807e+000,3.9461742724e+000,2.7300921149e+000,3.7193618320e+000,3.6577230187e+000,3.9051386125e+000,
3.8625000000e+001,4.2016736710e+000,4.9355108908e+000,3.9203376181e+000,3.8282972902e+000,3.8953166421e+000,3.1378961479e+000,3.4906797955e+000,3.3392540871e+000,2.6266532964e+000,3.8944387749e+000,2.7132282779e+000,3.7047824502e+000,3.6059235862e+000,3.9547072405e+000,
3.8718750000e+001,4.2065721926e+000,4.9401859067e+000,3.9285117231e+000,3.8473095091e+000,3.8854242229e+000,3.0992307246e+000,3.5852332890e+000,3.3369067715e+000,2.6838880650e+000,3.8888270105e+000,2.7471074033e+000,3.8139225616e+000,3.6763175669e+000,4.0578025401e+000,
3.8812500000e+001,4.1915651124e+000,4.9043319803e+000,3.9530512390e+000,3.8443403881e+000,3.8686126740e+000,3.0159556207e+000,3.5377985864e+000,3.2610385191e+000,2.6087900527e+000,3.7333052611e+000,2.7505169503e+000,3.7908261426e+000,3.6782216245e+000,4.0051695655e+000,
3.8906250000e+001,4.0789190324e+000,4.7857112841e+000,3.8601570341e+000,3.6217369506e+000,3.7482441011e+000,2.7649479830e+000,3.5013771624e+000,3.0948132800e+000,2.5845471958e+000,3.6094268778e+000,2.8977533005e+000,3.8368699428e+000,3.7232417858e+000,4.0880895445e+000,
3.9000000000e+001,4.0503394851e+000,4.7833929752e+000,3.7362583950e+000,3.5260195592e+000,3.6069760667e+000,2.8247591043e+000,3.4579693109e+000,3.1350310024e+000,2.6010055308e+000,3.5732165671e+000,2.9717166675e+000,3.8437358455e+000,3.7553294874e+000,4.0919982094e+000,
3.9093750000e+001,4.0123134059e+000,4.7948961276e+000,3.7228490657e+000,3.5511616210e+000,3.5267723725e+000,2.8760158457e+000,3.4603392365e+000,3.2766775077e+000,2.5881883113e+000,3.5645043050e+000,2.8229510266e+000,3.8533692212e+000,3.6021569619e+000,4.0198059758e+000,
3.9187500000e+001,3.9682772724e+000,4.8387359759e+000,3.6502480380e+000,3.6666524831e+000,3.4315265994e+000,3.0627238198e+000,3.4783415540e+000,3.4723480449e+000,2.6269197442e+000,3.8197757157e+000,3.0465818419e+000,3.9340565994e+000,3.5503662234e+000,4.0975373307e+000,
3.9281250000e+001,3.9498174565e+000,4.8595961185e+000,3.6713073823e+000,3.7347544741e+000,3.4852464491e+000,3.1092669881e+000,3.5771610811e+000,3.4729712771e+000,2.7325037586e+000,3.8362958606e+000,3.0732824769e+000,3.8857915049e+000,3.5656217768e+000,4.1214715486e+000,
3.9375000000e+001,3.6056677438e+000,4.3269880442e+000,3.6854792070e+000,3.6715510188e+000,3.4586231071e+000,2.9850525602e+000,3.5823213156e+000,3.4331857100e+000,2.7877136440e+000,3.7607389682e+000,3.0823525636e+000,3.7728956661e+000,3.4581816191e+000,4.0374612310e+000,
3.9468750000e+001,2.9963960295e+000,3.7468442293e+000,3.6385155048e+000,3.6306718481e+000,3.3541207651e+000,2.9005319767e+000,3.6498435785e+000,3.4032461099e+000,2.8135566173e+000,3.6846611583e+000,3.1114635530e+000,3.7108178741e+000,3.5563958470e+000,3.9181164979e+000,
3.9562500000e+001,2.9840334536e+000,3.6981499657e+000,3.5605343996e+000,3.6010629622e+000,3.3464061716e+000,2.8233764474e+000,3.6584300843e+000,3.2992395590e+000,2.6485125322e+000,3.6719070442e+000,3.0713325893e+000,3.7005844255e+000,3.5409736047e+000,3.9161504332e+000,
3.9656250000e+001,2.8757737657e+000,3.5106273857e+000,3.4533467769e+000,3.4341029405e+000,3.2178031259e+000,2.5909330407e+000,3.5798428327e+000,3.2548407100e+000,2.7437595036e+000,3.6035309205e+000,3.0339464309e+000,3.6770387927e+000,3.4754603869e+000,4.0452313357e+000,
3.9750000000e+001,3.1675943506e+000,3.7954936239e+000,3.6430299267e+000,3.6136002511e+000,3.3754072070e+000,2.8215172310e+000,3.5808924159e+000,3.3573791211e+000,2.7604433033e+000,3.7490500801e+000,2.9679419859e+000,3.6881095804e+000,3.3914098226e+000,3.9737627170e+000,
3.9843750000e+001,3.3024941585e+000,3.9292789432e+000,3.6150926794e+000,3.6682017808e+000,3.3840207751e+000,3.0767824695e+000,3.5851695690e+000,3.5050240557e+000,2.8261210280e+000,3.9674351955e+000,2.9500690797e+000,3.8156008368e+000,3.4514930672e+000,4.0680456083e+000,
3.9937500000e+001,3.4643695499e+000,4.0155318703e+000,3.7177131263e+000,3.6986892412e+000,3.4455133595e+000,3.1681435724e+000,3.6748166015e+000,3.4983419637e+000,2.8323386063e+000,3.9878277346e+000,2.7126486467e+000,3.7714928537e+000,3.5004005073e+000,4.1340854033e+000,
4.0031250000e+001,3.4750083957e+000,4.0118488990e+000,3.7634417199e+000,3.7297637933e+000,3.4926461403e+000,3.2020755994e+000,3.7057383752e+000,3.5423854035e+000,2.8546125294e+000,3.9875495316e+000,2.7938161249e+000,3.7921791478e+000,3.6251129342e+000,4.1661721667e+000,
4.0125000000e+001,3.4663745378e+000,3.9059929126e+000,3.8038445738e+000,3.5831436451e+000,3.5625387098e+000,3.0464383902e+000,3.6308382683e+000,3.2771961986e+000,2.8422598810e+000,3.8040936620e+000,2.7777648292e+000,3.6683995116e+000,3.7208257511e+000,4.0819163578e+000,
4.0218750000e+001,3.5341154718e+000,3.9990469430e+000,3.9741743097e+000,3.7316304198e+000,3.6016297566e+000,3.1791273039e+000,3.7503839149e+000,3.3873608544e+000,2.8023780355e+000,3.8071184346e+000,2.7604343712e+000,3.7760630299e+000,3.7114138100e+000,4.1005325082e+000,
4.0312500000e+001,3.5878680607e+000,4.0221954636e+000,4.0455765301e+000,3.8759922869e+000,3.6089102518e+000,3.1641392481e+000,3.7257764425e+000,3.4911109054e+000,2.7511435217e+000,3.8738912250e+000,2.7442512469e+000,3.8301039578e+000,3.7016531102e+000,4.0897130635e+000,
4.0406250000e+001,3.6632463279e+000,4.1905108298e+000,4.0458102341e+000,4.0364836026e+000,3.5772780037e+000,3.2764868934e+000,3.6659714866e+000,3.6587232967e+000,2.6936238831e+000,4.0442230787e+000,2.7930017360e+000,3.9195686206e+000,3.7613277764e+000,4.0991182254e+000,
4.0500000000e+001,3.6733363564e+000,4.3117552619e+000,4.0789819965e+000,4.1011016153e+000,3.5828275081e+000,3.4806374678e+000,3.6425430212e+000,3.7874635044e+000,2.6878145318e+000,4.2106240550e+000,2.7364880986e+000,4.0842139343e+000,3.7062116183e+000,4.1033318430e+000,
4.0593750000e+001,3.6463882564e+000,4.2842753099e+000,4.0835039828e+000,4.1380489379e+000,3.6144804249e+000,3.4912227922e+000,3.6273127681e+000,3.7825708900e+000,2.6823622850e+000,4.2105469453e+000,2.7601203913e+000,4.0846178455e+000,3.6864915651e+000,3.9991626261e+000,
4.0687500000e+001,3.6256687803e+000,4.2265138873e+000,4.0776024175e+000,4.0818895150e+000,3.5929283972e+000,3.5463580999e+000,3.5879311736e+000,3.7551768209e+000,2.5429391843e+000,4.2505275977e+000,2.7312860414e+000,4.1403373241e+000,3.6811330208e+000,3.8887400500e+000,
4.0781250000e+001,3.5228392114e+000,4.0281589308e+000,3.9694810991e+000,3.9448866202e+000,3.5151452428e+000,3.3872767466e+000,3.5946093410e+000,3.6039607989e+000,2.5929583507e+000,4.0589109736e+000,2.7143357601e+000,3.9730830816e+000,3.6127872442e+000,3.7051323130e+000,
4.0875000000e+001,3.3978890810e+000,3.9612436808e+000,3.9986713858e+000,3.9645520803e+000,3.4706677019e+000,3.3815269460e+000,3.6058236480e+000,3.5508412568e+000,2.4911747815e+000,4.0175059208e+000,2.8157707107e+000,3.9902050510e+000,3.6076542680e+000,3.6775465205e+000,
4.0968750000e+001,3.3174789478e+000,3.9170268709e+000,3.9408331803e+000,3.9491553087e+000,3.4221234083e+000,3.2905306304e+000,3.5479611396e+000,3.4631407899e+000,2.4753652023e+000,4.0156784193e+000,2.9014561271e+000,4.0078447024e+000,3.4061838268e+000,3.5516050184e+000,
4.1062500000e+001,3.4013483352e+000,4.0019451791e+000,3.9427759679e+000,4.0278012339e+000,3.3342373120e+000,3.3428055968e+000,3.5866771956e+000,3.4650714506e+000,2.4908652752e+000,4.0574970850e+000,2.9979556089e+000,3.9690692882e+000,3.2196618544e+000,3.5687002070e+000,
4.1156250000e+001,3.4953060936e+000,4.0404539741e+000,4.0174615364e+000,4.1134006070e+000,3.3015583941e+000,3.3116002445e+000,3.6095888513e+000,3.4280376978e+000,2.5924688648e+000,4.1447106944e+000,3.0110670096e+000,4.2418969236e+000,3.0507505374e+000,4.3451098807e+000,
