Time (s),AF3,AF4,F3,F4,F7,F8,FC5,FC6,T7,T8,P7,P8,O1,O2,Sampling Rate
0.0000000000e+000,5.2376354083e+000,5.2176511879e+000,4.7260877437e+000,5.2688433360e+000,7.5712787547e+000,1.1378703611e+001,5.0672483377e+000,4.9325955987e+000,2.8441257228e+000,7.9888001651e+000,2.5929797767e+000,5.2525627302e+000,5.0183750283e+000,5.2813636649e+000,1
9.3750000000e-002,5.2238264220e+000,5.1785593901e+000,4.6998437499e+000,5.2642032669e+000,7.5553130954e+000,1.1453097233e+001,5.0573770603e+000,5.0043083128e+000,2.6886875211e+000,8.0471586611e+000,2.5239217482e+000,5.1447683153e+000,4.9884604323e+000,5.0900317001e+000,
1.8750000000e-001,5.2062024354e+000,5.1571617657e+000,4.6723217687e+000,5.2428628278e+000,7.5523991281e+000,1.1501059256e+001,5.0217670976e+000,5.0930790525e+000,2.5898438931e+000,8.1002322880e+000,2.3444995483e+000,4.9553500180e+000,4.9342123852e+000,5.0681483797e+000,
2.8125000000e-001,5.1933578890e+000,5.1161259373e+000,4.6307326122e+000,5.2250655133e+000,7.5446232534e+000,1.1379591046e+001,5.0152240502e+000,5.0615424174e+000,2.3536001985e+000,7.9978033725e+000,2.3080315858e+000,4.6905872779e+000,4.8453580749e+000,4.9562015402e+000,
3.7500000000e-001,5.3113894319e+000,5.2074245129e+000,4.7837177458e+000,5.2892294368e+000,7.5506178920e+000,1.1253301854e+001,5.0575015521e+000,4.9914876142e+000,2.8557726119e+000,7.9138518707e+000,2.2861839354e+000,4.6741942300e+000,4.9632405329e+000,4.9243148435e+000,
4.6875000000e-001,5.2994725855e+000,5.1440228223e+000,4.7616346539e+000,5.2184437474e+000,7.5408660731e+000,1.0944779446e+001,5.0463716249e+000,4.8444572281e+000,3.0339213878e+000,7.6934082559e+000,2.1813409655e+000,4.6935729294e+000,5.0058196319e+000,4.9595078219e+000,
5.6250000000e-001,5.1143266103e+000,4.8779933533e+000,4.5720694552e+000,4.9900768072e+000,7.5235542630e+000,1.0828556247e+001,4.9733995682e+000,4.7631767336e+000,3.0871503996e+000,7.5862689547e+000,2.1726986959e+000,4.5669898208e+000,4.9351980706e+000,4.8745226879e+000,
6.5625000000e-001,4.8305587223e+000,4.4150792159e+000,4.2087017623e+000,4.5417162737e+000,7.5017884612e+000,1.0834182443e+001,4.8750335135e+000,4.6381214737e+000,3.0604048353e+000,7.4746370689e+000,2.0203224070e+000,4.3240895540e+000,4.5408047206e+000,4.5531128163e+000,
7.5000000000e-001,4.6699000558e+000,4.2565787089e+000,4.0467377833e+000,4.3104832731e+000,7.4760327037e+000,1.1258991879e+001,4.7214551557e+000,4.9333040859e+000,3.0506650186e+000,7.7746645816e+000,1.9191471443e+000,4.2570962629e+000,4.4212749153e+000,4.5006673114e+000,
8.4375000000e-001,4.2549719487e+000,4.1604951665e+000,3.9945470842e+000,4.0762245974e+000,5.0190799820e+000,1.1284033143e+001,3.2626446824e+000,5.0281674037e+000,2.9856711534e+000,7.7453955441e+000,1.8052920695e+000,4.1803285242e+000,4.3512818709e+000,4.4500459790e+000,
9.3750000000e-001,4.1401407416e+000,4.1577030094e+000,3.9651095359e+000,4.0661986834e+000,3.8960317491e+000,1.1300631178e+001,3.0306784979e+000,5.1441978225e+000,2.9754380339e+000,7.7813448000e+000,1.7901748694e+000,4.0904383099e+000,4.3373477566e+000,4.4244334669e+000,
1.0312500000e+000,4.1218383538e+000,4.1703445202e+000,3.9185963821e+000,4.0872913191e+000,3.8798607706e+000,1.1281779270e+001,2.9878841574e+000,5.1843356653e+000,2.9560996233e+000,7.7783832653e+000,1.6844627144e+000,4.0961544410e+000,4.2962634983e+000,4.4567429645e+000,
1.1250000000e+000,4.0577101666e+000,4.1419632292e+000,3.8792350162e+000,4.0631307599e+000,3.8774989755e+000,1.1229024446e+001,2.9614860823e+000,5.0900270909e+000,2.9567043394e+000,7.7095812297e+000,1.5159985919e+000,4.1264174645e+000,4.2865875085e+000,4.4592281730e+000,
1.2187500000e+000,4.0478466603e+000,4.1151531469e+000,3.8775945749e+000,4.0144424069e+000,3.8831735887e+000,1.1188891299e+001,2.9532739113e+000,5.0228480537e+000,2.9265134627e+000,7.6563067109e+000,1.5129041359e+000,4.0224124272e+000,4.3012555600e+000,4.4151774820e+000,
1.3125000000e+000,4.0304125169e+000,4.0776105955e+000,3.8643101243e+000,3.9952669418e+000,3.8625919219e+000,1.1185146591e+001,2.9720131764e+000,5.0080468665e+000,2.9142130642e+000,7.6512915013e+000,1.3975129780e+000,3.9651323444e+000,4.2875876142e+000,4.4223634900e+000,
1.4062500000e+000,3.1430114034e+000,3.2689305440e+000,2.9565908958e+000,3.3238958707e+000,2.9115089298e+000,1.1131341434e+001,2.2838216672e+000,4.9670655211e+000,2.2852308533e+000,7.6143617519e+000,1.4773785481e+000,3.6800786254e+000,3.6615282126e+000,4.0583698641e+000,
1.5000000000e+000,2.7747605690e+000,3.1520861540e+000,2.6340985057e+000,3.1855470001e+000,2.4380704117e+000,1.1150759335e+001,1.9584426617e+000,4.9828405008e+000,2.0685065770e+000,7.6231824477e+000,1.5177713967e+000,3.5281179213e+000,3.3016803670e+000,3.8508857916e+000,
1.5937500000e+000,2.7943406788e+000,3.2136659385e+000,2.6303379089e+000,3.2183082788e+000,2.4392745723e+000,1.1203273830e+001,1.9494722842e+000,5.0782176519e+000,1.9523083175e+000,7.6855051619e+000,1.9590447728e+000,3.4207155113e+000,3.1714018330e+000,3.6671969009e+000,
1.6875000000e+000,2.7118930019e+000,3.1879216914e+000,2.5798562970e+000,3.1935770388e+000,2.2679010504e+000,1.1084270132e+001,1.9680412682e+000,5.0212160293e+000,1.8954082617e+000,7.5884184012e+000,2.0338418572e+000,3.3991853285e+000,3.1568794399e+000,3.6203903102e+000,
1.7812500000e+000,2.5852092162e+000,3.0970385809e+000,2.4729004146e+000,3.0682829684e+000,2.2908244851e+000,1.0588986490e+001,1.9680103587e+000,4.7276539308e+000,1.8856488216e+000,7.1531780761e+000,2.0274018203e+000,3.3949045139e+000,3.1154007970e+000,3.4828835804e+000,
1.8750000000e+000,2.7741327743e+000,3.1217619516e+000,2.5605887046e+000,3.0790354552e+000,2.3586643446e+000,1.0167829485e+001,2.0909611180e+000,4.3558880955e+000,1.9404259848e+000,6.7596139193e+000,2.0777587053e+000,3.3917726566e+000,3.1791360692e+000,3.4886194052e+000,
1.9687500000e+000,2.7960615773e+000,3.1371515559e+000,2.5149959497e+000,3.1186906016e+000,2.3514253178e+000,1.0037835777e+001,2.0959957284e+000,4.1876252973e+000,1.8313685545e+000,6.5829118817e+000,2.0761141385e+000,3.4357827984e+000,3.1466452012e+000,3.5099714920e+000,
2.0625000000e+000,3.0306149991e+000,3.0349653965e+000,2.7049514354e+000,2.9621801253e+000,2.5550538744e+000,9.9729269245e+000,2.4022151849e+000,4.1706309184e+000,1.9376979565e+000,6.5537906899e+000,2.0816194696e+000,3.2058872774e+000,3.1718853339e+000,3.3682828321e+000,
2.1562500000e+000,3.2964800796e+000,3.2850812905e+000,2.8936662738e+000,3.0921549246e+000,2.7201662995e+000,9.9260692236e+000,2.5393872461e+000,4.1112577313e+000,2.0490634272e+000,6.5136492707e+000,2.0446511856e+000,3.1602625100e+000,3.0648770483e+000,3.3626294072e+000,
2.2500000000e+000,3.3917861626e+000,3.4486649717e+000,2.9411620513e+000,3.2690878435e+000,2.6885034084e+000,9.9046797609e+000,2.5512149481e+000,4.1511343852e+000,2.0825210558e+000,6.5004021032e+000,2.0466034772e+000,3.3119305956e+000,3.2035143866e+000,3.4394788322e+000,
2.3437500000e+000,3.4376912947e+000,3.4854541786e+000,3.0340072194e+000,3.3202085775e+000,2.6824417284e+000,9.8715180852e+000,2.5136904464e+000,4.1287131507e+000,2.1755818104e+000,6.4614031414e+000,1.9688819436e+000,3.3322605877e+000,3.1845776206e+000,3.4207450980e+000,
2.4375000000e+000,3.4912798717e+000,3.5328517739e+000,3.0911578321e+000,3.3479479169e+000,2.6871643431e+000,9.8275183815e+000,2.5131247570e+000,4.0751097054e+000,2.1637952700e+000,6.4377810478e+000,1.9228428002e+000,3.3231646473e+000,3.1024315394e+000,3.3982908983e+000,
2.5312500000e+000,3.4502570971e+000,3.4922639246e+000,3.0458255566e+000,3.3279997806e+000,2.6545294208e+000,9.5600854700e+000,2.4826244419e+000,3.9152966175e+000,2.1168541544e+000,6.2293154137e+000,1.6767287785e+000,3.3465060462e+000,3.1186751779e+000,3.4598689851e+000,
2.6250000000e+000,3.5080526766e+000,3.5271935569e+000,3.0770375349e+000,3.3533318239e+000,2.7412477208e+000,9.3430336713e+000,2.5820516452e+000,3.4002204752e+000,2.1410849807e+000,5.8966354327e+000,1.4169461943e+000,3.3699888550e+000,3.2019155397e+000,3.6320544509e+000,
2.7187500000e+000,3.5654574866e+000,3.5460836191e+000,3.0987849020e+000,3.3993565459e+000,2.8584091986e+000,9.2842124763e+000,2.6200207204e+000,3.3926244368e+000,2.2195684762e+000,5.8247835434e+000,1.3654086723e+000,3.3993265423e+000,3.1815851677e+000,3.6590252921e+000,
2.8125000000e+000,3.5447189596e+000,3.5486240754e+000,3.0851203358e+000,3.3665217340e+000,2.8792626111e+000,9.2668235548e+000,2.6371828824e+000,3.2143224053e+000,2.2053749895e+000,5.7556088323e+000,1.2683879573e+000,3.3460275559e+000,3.0282672504e+000,3.6240922101e+000,
2.9062500000e+000,3.4965394072e+000,3.5131215268e+000,3.0499374530e+000,3.3916734698e+000,2.8575916337e+000,9.2311221593e+000,2.5735414305e+000,3.1550108641e+000,2.1623860969e+000,5.7399958155e+000,1.2824761674e+000,3.3432644170e+000,2.9507345388e+000,3.5896343573e+000,
3.0000000000e+000,3.5233916846e+000,3.5639141809e+000,3.0872468713e+000,3.4456663896e+000,2.9176456174e+000,9.2334995751e+000,2.5796348027e+000,3.1118615818e+000,2.1159233076e+000,5.7372147260e+000,1.2815481450e+000,3.2164915984e+000,2.9117309095e+000,3.4583667664e+000,
3.0937500000e+000,3.2518877574e+000,3.5057352072e+000,2.7995392628e+000,3.3554171959e+000,2.5308700689e+000,9.2251777341e+000,2.2713226632e+000,3.0993597638e+000,1.9199134277e+000,5.6911162832e+000,1.2592363787e+000,3.2802007494e+000,2.8465702566e+000,3.4221764220e+000,
3.1875000000e+000,3.0674959854e+000,3.2771402911e+000,2.6405014707e+000,3.1829359095e+000,2.4408578144e+000,9.1937932604e+000,2.0770011471e+000,3.0505156626e+000,1.8492369228e+000,5.6536378548e+000,1.3313622459e+000,3.3487612270e+000,2.8306981108e+000,3.4116478062e+000,
3.2812500000e+000,2.9895763693e+000,3.2260544825e+000,2.6098828623e+000,3.1236906101e+000,2.5540513574e+000,9.1717767108e+000,2.0416982833e+000,2.9377194355e+000,1.8840611954e+000,5.6447141029e+000,1.3030515650e+000,3.2040463601e+000,2.7300198349e+000,3.2968147803e+000,
3.3750000000e+000,2.8800463209e+000,3.2257387762e+000,2.4734385054e+000,3.1193792996e+000,2.6033100548e+000,9.2953390281e+000,2.0353709596e+000,2.9157028420e+000,1.9248509547e+000,5.7772372757e+000,1.2913188981e+000,3.2280861738e+000,2.8646976436e+000,3.3642177840e+000,
3.4687500000e+000,2.9162413042e+000,3.2242748090e+000,2.4065327480e+000,3.1756230060e+000,2.5972565555e+000,9.4780181951e+000,1.9947749364e+000,2.9985335971e+000,1.9266924247e+000,5.9660869800e+000,1.3881604978e+000,3.2033458944e+000,2.9363835478e+000,3.4449604827e+000,
3.5625000000e+000,2.9107012010e+000,3.2897784378e+000,2.5388364442e+000,3.2839211157e+000,2.6343830720e+000,9.4044861996e+000,1.8903939597e+000,3.0539131134e+000,1.9600387223e+000,5.8925914636e+000,1.3979960255e+000,3.1503747977e+000,2.8263429366e+000,3.3502740804e+000,
3.6562500000e+000,2.8431185176e+000,3.2737310819e+000,2.5240470132e+000,3.2980644533e+000,2.5814993385e+000,9.2537281339e+000,1.8361680524e+000,3.0118791050e+000,1.9945277002e+000,5.7407702413e+000,1.3862159574e+000,3.1396443577e+000,2.7981079360e+000,3.2313742988e+000,
3.7500000000e+000,2.7639376522e+000,3.3621292382e+000,2.4824203948e+000,3.3569415762e+000,2.4029525057e+000,9.2569232067e+000,1.6921406424e+000,2.9955387579e+000,2.0264302306e+000,5.7600840236e+000,1.4274552615e+000,3.1686073132e+000,2.8209278092e+000,3.2862868824e+000,
3.8437500000e+000,2.7239204831e+000,3.4083972071e+000,2.4994619574e+000,3.3606657373e+000,2.4890818679e+000,9.1399311449e+000,1.8305547761e+000,3.0320489368e+000,2.0384685148e+000,5.6641515584e+000,1.4136770390e+000,3.1689696041e+000,2.9144264314e+000,3.2588580053e+000,
3.9375000000e+000,2.9012373936e+000,3.4257043172e+000,2.6369194337e+000,3.4032559194e+000,2.5261278184e+000,9.1316329018e+000,2.0309696294e+000,3.0144110356e+000,2.2010869783e+000,5.6575691285e+000,1.4551156546e+000,3.1714980807e+000,2.9013579088e+000,3.2726774103e+000,
4.0312500000e+000,2.8079956884e+000,3.3145779749e+000,2.5574251699e+000,3.3134069715e+000,2.5781776692e+000,9.1573649610e+000,1.9633695267e+000,2.9158096579e+000,2.2524539729e+000,5.6975444080e+000,1.4910166259e+000,3.1780502245e+000,2.9315266432e+000,3.3605550100e+000,
4.1250000000e+000,2.7832980240e+000,3.2773940874e+000,2.5595519660e+000,3.2789455922e+000,2.5867525591e+000,9.1157311641e+000,1.9870735687e+000,2.8286887780e+000,2.2819463267e+000,5.6614250813e+000,1.4968255764e+000,3.1401050613e+000,2.9359932589e+000,3.3681288866e+000,
4.2187500000e+000,2.8498351405e+000,3.2958627797e+000,2.5379623489e+000,3.2684368793e+000,2.5808173477e+000,9.0945819279e+000,2.1256210598e+000,2.8321151318e+000,2.2346281238e+000,5.6654979834e+000,1.4570537688e+000,3.0268686032e+000,2.8344239501e+000,3.3130304168e+000,
4.3125000000e+000,3.0783208402e+000,3.4768600082e+000,2.5963236963e+000,3.3413501891e+000,2.6194213253e+000,9.0668418572e+000,2.2121229995e+000,2.9515600573e+000,2.2719783330e+000,5.6740393185e+000,1.4560935175e+000,2.9470767142e+000,2.8339348363e+000,3.3331769172e+000,
4.4062500000e+000,3.1358593390e+000,3.4947624876e+000,2.6407251199e+000,3.2709378019e+000,2.6240275248e+000,8.9584367482e+000,2.3269316585e+000,2.9917191084e+000,2.3433578716e+000,5.5977163084e+000,1.4022523125e+000,3.0521224744e+000,2.7722686105e+000,3.3456334985e+000,
4.5000000000e+000,3.1888598351e+000,3.4795645807e+000,2.6770705246e+000,3.2545420763e+000,2.8472290761e+000,8.7859881772e+000,2.5983263816e+000,2.8503703251e+000,2.3760325180e+000,5.3655466917e+000,1.3101694734e+000,3.1337406741e+000,2.9003167033e+000,3.3837017377e+000,
4.5937500000e+000,3.2645692507e+000,3.4158176952e+000,2.5446276551e+000,3.1585003551e+000,2.8838609986e+000,8.9437145787e+000,2.6127461880e+000,2.7121582334e+000,2.3454118359e+000,5.4842643669e+000,1.1905708712e+000,3.0703389107e+000,2.8661672808e+000,3.2977371248e+000,
4.6875000000e+000,3.2377901113e+000,3.3746805753e+000,2.5383374284e+000,3.0905213556e+000,2.8635985747e+000,9.1103820735e+000,2.6173218102e+000,2.6246520850e+000,2.3937677057e+000,5.5817264506e+000,1.1653432150e+000,3.0717440599e+000,2.9458500935e+000,3.3323146230e+000,
4.7812500000e+000,3.3688734284e+000,3.3552864931e+000,2.6024348167e+000,3.1018860747e+000,2.9025549786e+000,9.1749945162e+000,2.5948282554e+000,2.5933796978e+000,2.3120241792e+000,5.6203337261e+000,1.1316718219e+000,3.1187956446e+000,2.9053924840e+000,3.3154785408e+000,
4.8750000000e+000,3.3561047860e+000,3.3254934115e+000,2.5416780586e+000,3.0910273101e+000,2.8042511554e+000,9.2676956672e+000,2.5180880002e+000,2.5424462664e+000,2.2514167201e+000,5.7037560084e+000,1.0357135717e+000,3.0914281882e+000,2.8425678436e+000,3.3603936854e+000,
4.9687500000e+000,3.2970088524e+000,3.3507651646e+000,2.4644747468e+000,3.0198249690e+000,2.8662466792e+000,9.2138606222e+000,2.6017376375e+000,2.5344256721e+000,2.1774373822e+000,5.6419831726e+000,8.7208976551e-001,3.0540703917e+000,2.8121830825e+000,3.2968474066e+000,
5.0625000000e+000,3.3198634472e+000,3.4124367319e+000,2.4997394460e+000,3.0805213752e+000,2.8646684338e+000,9.2482077223e+000,2.5698278691e+000,2.5707345602e+000,2.2338014628e+000,5.6805459621e+000,8.1312688667e-001,3.2248716555e+000,2.9332044982e+000,3.4687083216e+000,
5.1562500000e+000,3.2736601316e+000,3.3890979151e+000,2.4182734319e+000,3.0977410913e+000,2.8400931289e+000,9.2374705723e+000,2.4907555784e+000,2.5461057604e+000,2.1756322973e+000,5.6697396309e+000,7.6356294477e-001,3.2575817969e+000,2.9589042673e+000,3.4920218574e+000,
5.2500000000e+000,3.1722012608e+000,3.3267198736e+000,2.3666631202e+000,3.0590269576e+000,2.7866969079e+000,9.1873741715e+000,2.4661539134e+000,2.5383044362e+000,2.1738387711e+000,5.6231861843e+000,6.8823202251e-001,3.2979245636e+000,3.0390080199e+000,3.5626726892e+000,
5.3437500000e+000,3.1815177981e+000,3.2085306413e+000,2.4160768932e+000,2.9904472528e+000,2.7794360754e+000,9.1175105866e+000,2.4237234952e+000,2.5081552165e+000,2.0353446388e+000,5.5446979031e+000,6.8915641264e-001,3.2462250063e+000,2.9697635000e+000,3.4879085532e+000,
5.4375000000e+000,3.1214712500e+000,3.2228857545e+000,2.3249652059e+000,2.9606399312e+000,2.6470063962e+000,9.3166750145e+000,2.1558970380e+000,2.7746559029e+000,1.9354749856e+000,5.7154316295e+000,8.5292149261e-001,3.2421015349e+000,2.9888752566e+000,3.5034951540e+000,
5.5312500000e+000,2.9866081164e+000,3.1452675276e+000,2.4061339391e+000,2.9081443929e+000,2.5548971782e+000,9.2004675429e+000,1.8979136223e+000,2.7767884004e+000,1.9751779157e+000,5.6038106186e+000,1.0936802430e+000,3.2365356046e+000,2.9611343089e+000,3.5020995596e+000,
5.6250000000e+000,2.9374815730e+000,3.2592064114e+000,2.4528095480e+000,3.0663390904e+000,2.5064987856e+000,9.1154210918e+000,1.8152475764e+000,2.8752870368e+000,2.0267227628e+000,5.5616005936e+000,1.0172833361e+000,3.3532693728e+000,3.0123041177e+000,3.6351910479e+000,
5.7187500000e+000,3.0635123277e+000,3.4305433973e+000,2.5980881972e+000,3.2089211817e+000,2.5676927178e+000,8.9839040369e+000,1.8616115510e+000,2.9285934287e+000,2.1085839886e+000,5.4485237666e+000,1.1169852323e+000,3.2304337530e+000,3.0202019035e+000,3.5797260907e+000,
5.8125000000e+000,2.9172511435e+000,3.4782194863e+000,2.5585307821e+000,3.1861810788e+000,2.5848404542e+000,8.7819826399e+000,1.8941711965e+000,2.9351584759e+000,2.1635127626e+000,5.3270606014e+000,1.1283301009e+000,3.2390511752e+000,3.0967192088e+000,3.5786388011e+000,
5.9062500000e+000,2.9064551902e+000,3.4622581474e+000,2.5404417991e+000,3.1452457797e+000,2.5640404427e+000,8.7551484066e+000,1.7048833517e+000,2.9074968043e+000,2.1524225967e+000,5.3072602001e+000,1.2123777005e+000,3.2441189291e+000,3.0966198785e+000,3.5596968212e+000,
6.0000000000e+000,2.8276020617e+000,3.3746413960e+000,2.5024017970e+000,3.0790195845e+000,2.4472376081e+000,8.7756302010e+000,1.5406676516e+000,2.8931329463e+000,2.0666636038e+000,5.3186584129e+000,1.2520150752e+000,3.1939667326e+000,3.2225966398e+000,3.6215731419e+000,
6.0937500000e+000,2.8778949714e+000,3.3732435598e+000,2.5893467710e+000,3.0893667570e+000,2.6478809416e+000,8.7343029525e+000,1.6345442195e+000,2.8764352869e+000,2.1089718882e+000,5.2470552727e+000,1.3318143292e+000,3.1027178933e+000,3.1655491812e+000,3.4897273268e+000,
6.1875000000e+000,2.9449128095e+000,3.3408237501e+000,2.6284097832e+000,3.0783987378e+000,2.7783745792e+000,8.7181391364e+000,1.9267798419e+000,2.8140333780e+000,2.1421440327e+000,5.2024683902e+000,1.3735307288e+000,3.0242499644e+000,3.1973762492e+000,3.3651534879e+000,
6.2812500000e+000,3.0237604913e+000,3.3477090767e+000,2.6916993305e+000,3.1319017331e+000,2.8024741863e+000,8.7470280088e+000,1.9328270187e+000,2.8481954415e+000,2.1334103144e+000,5.1471659733e+000,1.4557039825e+000,2.9994647216e+000,3.3221316897e+000,3.4324888403e+000,
6.3750000000e+000,2.9660121523e+000,3.3940324909e+000,2.6705523487e+000,3.2071706979e+000,2.7469207685e+000,8.8011255906e+000,1.9521857904e+000,2.7769437876e+000,2.2224904863e+000,5.1685681122e+000,1.4471468710e+000,2.9173175883e+000,3.3277476317e+000,3.4269210276e+000,
6.4687500000e+000,3.0049605696e+000,3.4205812687e+000,2.6679232722e+000,3.3032105909e+000,2.7101354741e+000,8.5031944385e+000,1.9532377044e+000,2.6689242553e+000,2.2295509042e+000,4.8673706558e+000,1.3605565223e+000,3.0427654247e+000,3.3166896351e+000,3.4077370541e+000,
6.5625000000e+000,2.9978742926e+000,3.3806816004e+000,2.6448112822e+000,3.2244089122e+000,2.7175547860e+000,8.5358625547e+000,1.9822437313e+000,2.6069052545e+000,2.1951643537e+000,4.8084750434e+000,1.2343928602e+000,3.0382279396e+000,3.2372106706e+000,3.3378814651e+000,
6.6562500000e+000,3.0308010655e+000,3.4332774637e+000,2.5471450242e+000,3.2807874289e+000,2.6985400482e+000,8.5457189805e+000,1.9793328874e+000,2.7195994402e+000,2.1016142364e+000,4.9238039766e+000,1.2334560699e+000,3.1009969894e+000,3.2355110876e+000,3.3507252379e+000,
6.7500000000e+000,2.9808306787e+000,3.3088991119e+000,2.5371928297e+000,3.1606448725e+000,2.6958604247e+000,8.5379783643e+000,2.0943654519e+000,2.6943188267e+000,2.0349444477e+000,4.8825968682e+000,1.2335323800e+000,3.1536968338e+000,3.1736798942e+000,3.3367582139e+000,
6.8437500000e+000,3.1172440815e+000,3.3383266802e+000,2.6178233852e+000,3.2880043934e+000,2.7632671280e+000,8.5690228552e+000,2.1798170758e+000,2.7484185299e+000,1.9923306682e+000,4.8855109378e+000,1.2931512837e+000,3.1951394820e+000,3.2139401617e+000,3.3680273446e+000,
6.9375000000e+000,3.1900028376e+000,3.3636490251e+000,2.6357131134e+000,3.3432828764e+000,2.8622244272e+000,8.5084575387e+000,2.2592622566e+000,2.8267433985e+000,2.0575949495e+000,4.8158408040e+000,1.2954847017e+000,3.1601016258e+000,3.1812165497e+000,3.3123728477e+000,
7.0312500000e+000,3.2860652835e+000,3.4689541255e+000,2.7738202002e+000,3.4107192849e+000,2.8699930155e+000,8.6482326568e+000,2.2991107236e+000,2.8324653838e+000,2.0631319666e+000,4.9243290243e+000,1.3679471076e+000,3.1130806775e+000,3.0646404648e+000,3.3145022566e+000,
7.1250000000e+000,3.3217056251e+000,3.5223313438e+000,2.7449173780e+000,3.4607653915e+000,2.7473252924e+000,8.7183693683e+000,2.3514190808e+000,2.8418586149e+000,1.9985511171e+000,5.0279390804e+000,1.4098467469e+000,3.0546219818e+000,3.0956441656e+000,3.3109448777e+000,
7.2187500000e+000,3.2853302654e+000,3.5205434482e+000,2.7313377082e+000,3.4506111622e+000,2.6149497077e+000,8.7581206981e+000,2.1642074859e+000,2.8319643527e+000,2.0192400613e+000,5.0914582124e+000,1.5034652898e+000,3.0992904262e+000,3.0097239138e+000,3.3931039301e+000,
7.3125000000e+000,3.2407774282e+000,3.5024989005e+000,2.7446658784e+000,3.4251884214e+000,2.6221545112e+000,8.7214868733e+000,2.2123950073e+000,2.7923236938e+000,2.0084243598e+000,5.1105933897e+000,1.5249503010e+000,3.0771583885e+000,2.8333475867e+000,3.3212051817e+000,
7.4062500000e+000,3.2299423747e+000,3.4338384103e+000,2.7250667438e+000,3.3701011620e+000,2.6091718604e+000,8.9063246720e+000,2.2099381354e+000,2.8085951606e+000,1.9312951881e+000,5.3458682914e+000,1.5306543695e+000,3.0733042038e+000,2.8522305545e+000,3.3034438102e+000,
7.5000000000e+000,3.2638954250e+000,3.4617360708e+000,2.7154803591e+000,3.3844561505e+000,2.6234221051e+000,8.7547745954e+000,2.3005162908e+000,2.7179054400e+000,1.8907978722e+000,5.2318138218e+000,1.5412707548e+000,2.9737616433e+000,2.8453078886e+000,3.2390173560e+000,
7.5937500000e+000,3.2413946297e+000,3.4803989801e+000,2.7803341437e+000,3.3838656929e+000,2.6550423152e+000,8.8077582116e+000,2.2820155918e+000,2.7301337463e+000,1.8404162483e+000,5.2668507512e+000,1.6119470033e+000,2.9908437391e+000,2.8870870274e+000,3.2998647856e+000,
7.6875000000e+000,3.2640691241e+000,3.4726144730e+000,2.8551456128e+000,3.4264658299e+000,2.6688121938e+000,9.3701649212e+000,2.2008655281e+000,2.7227524963e+000,1.8774550748e+000,5.6823808465e+000,1.6282102845e+000,2.8320176849e+000,3.0388714215e+000,3.2248206785e+000,
7.7812500000e+000,3.1667564503e+000,3.3678921218e+000,2.7914165597e+000,3.3204226110e+000,2.5086196065e+000,9.4685172596e+000,2.1039120035e+000,2.6743747885e+000,1.9264396507e+000,5.8310549538e+000,1.6705083179e+000,2.8529163261e+000,3.0793716106e+000,3.3260597013e+000,
7.8750000000e+000,3.1642253894e+000,3.3071106741e+000,2.7524657565e+000,3.2575366513e+000,2.4856556888e+000,9.5679419497e+000,2.1363079701e+000,2.6679485134e+000,1.8676005355e+000,5.9133327409e+000,1.6227976329e+000,2.8180836658e+000,3.0568140944e+000,3.3594913013e+000,
7.9687500000e+000,3.0353441331e+000,3.2360167594e+000,2.7207729510e+000,3.2394328769e+000,2.4129259250e+000,9.6610349459e+000,1.9969121565e+000,2.6800128108e+000,1.8902512417e+000,6.0659548361e+000,1.5518844488e+000,2.8279894149e+000,3.1504243621e+000,3.4154054773e+000,
8.0625000000e+000,2.9299510300e+000,3.1745882230e+000,2.5911306641e+000,3.2173022323e+000,2.4669838626e+000,9.6209232402e+000,2.9634684093e+000,2.6478386112e+000,1.9361544003e+000,6.0329762888e+000,1.4575495451e+000,2.8506418682e+000,3.2444271509e+000,3.4628862536e+000,
8.1562500000e+000,2.8067646282e+000,3.1288483718e+000,3.4294353026e+000,3.1325057094e+000,2.3671316609e+000,9.6174286684e+000,3.0905358783e+000,2.6050815170e+000,1.9339121574e+000,6.0363361587e+000,1.3054889284e+000,2.8693645968e+000,3.1591291340e+000,3.4240678465e+000,
8.2500000000e+000,2.8167107337e+000,3.2157538675e+000,3.5289058443e+000,3.1833222508e+000,2.3565494886e+000,9.6423759588e+000,3.0982362297e+000,2.6340343441e+000,2.0452772799e+000,6.0364537056e+000,1.2110631642e+000,2.9709759257e+000,3.1584313390e+000,3.4036311532e+000,
8.3437500000e+000,2.8924034013e+000,3.3448624828e+000,3.5590622676e+000,3.2512523595e+000,2.4352753801e+000,9.7546799110e+000,3.0881172336e+000,2.6189968726e+000,2.0952049357e+000,6.0737154328e+000,1.1258864489e+000,2.8895314141e+000,3.1274645479e+000,3.3378322147e+000,
8.4375000000e+000,3.0075104556e+000,3.4261238856e+000,3.5918446071e+000,3.2821158552e+000,2.5515452270e+000,9.9352581315e+000,3.1458949149e+000,3.1194445145e+000,2.2408120276e+000,6.3032667873e+000,1.2276841993e+000,2.8613173791e+000,3.1926348966e+000,3.3878029525e+000,
8.5312500000e+000,3.0949399958e+000,3.3537132224e+000,3.6320907589e+000,3.1905703859e+000,2.6275964220e+000,9.9638625086e+000,3.1673541458e+000,3.2192768218e+000,2.3403887988e+000,6.3261654285e+000,1.2082525963e+000,2.8805016767e+000,3.2543301013e+000,3.4295160772e+000,
8.6250000000e+000,3.1047022792e+000,3.2666682078e+000,3.5940420185e+000,3.0837014024e+000,2.5887315902e+000,9.9148742014e+000,3.1667095667e+000,3.1906714056e+000,2.3013753136e+000,6.3091741180e+000,1.1743486774e+000,2.9511855493e+000,3.2569883883e+000,3.4303139183e+000,
8.7187500000e+000,3.0162833074e+000,3.2113449137e+000,3.5739736899e+000,3.0442221660e+000,2.5708719235e+000,9.6455074979e+000,3.1837821405e+000,3.3402477552e+000,2.2546237635e+000,6.1002261571e+000,1.3617128904e+000,2.9522246687e+000,3.1804616461e+000,3.4544660115e+000,
8.8125000000e+000,3.0045690674e+000,3.2095190806e+000,3.5978270008e+000,3.0053162425e+000,2.5934634668e+000,9.5777140111e+000,3.2398625219e+000,3.3625820784e+000,2.2349430860e+000,6.0104514333e+000,1.4328970136e+000,2.8800089116e+000,3.0710545165e+000,3.3203873816e+000,
8.9062500000e+000,3.0090291927e+000,3.2234344973e+000,3.6548306855e+000,3.0343817690e+000,2.6657334109e+000,9.5212405318e+000,3.2163552645e+000,3.4025030115e+000,2.2670135910e+000,5.9532047679e+000,1.5125550796e+000,2.9576348364e+000,3.0956063932e+000,3.3291399355e+000,
9.0000000000e+000,3.1097576092e+000,3.3622865455e+000,3.7017473021e+000,3.1189889364e+000,2.7470273255e+000,9.3984413839e+000,3.2203785384e+000,3.4301825005e+000,2.2158807093e+000,5.7679680288e+000,1.5804518712e+000,2.9919285089e+000,3.1351748781e+000,3.3606184273e+000,
9.0937500000e+000,3.2246152316e+000,3.4721101993e+000,3.5546249583e+000,3.2149504283e+000,2.7897894912e+000,9.4104775361e+000,2.4382734477e+000,3.6119707818e+000,2.1715405445e+000,5.8053374963e+000,1.6398497542e+000,3.0564170066e+000,3.1371071197e+000,3.4395776885e+000,
9.1875000000e+000,3.2564516658e+000,3.3917419696e+000,3.1043119829e+000,3.1873449427e+000,2.8365539564e+000,9.4210208033e+000,2.3949262715e+000,3.6367460551e+000,2.1012934831e+000,5.8054158580e+000,1.6739938068e+000,3.0221375696e+000,3.1238356301e+000,3.4139287730e+000,
9.2812500000e+000,3.2062236784e+000,3.2223678067e+000,3.0088352584e+000,3.0728508507e+000,2.8048977355e+000,9.5110235883e+000,2.4126894077e+000,3.7159119463e+000,1.9928493228e+000,5.9332540099e+000,1.7441952423e+000,3.0755521853e+000,3.1440204552e+000,3.4874786018e+000,
9.3750000000e+000,3.2012598478e+000,3.2437906820e+000,2.9664431838e+000,3.0686134074e+000,2.7242152874e+000,9.1141542929e+000,2.3494416884e+000,3.6965433332e+000,2.0025029688e+000,5.6406022277e+000,1.8344846442e+000,3.1608719502e+000,3.1449439793e+000,3.5009593430e+000,
9.4687500000e+000,3.1030557708e+000,3.2554692717e+000,2.8449744868e+000,2.9995161701e+000,2.6087495597e+000,8.9372976891e+000,2.2264010810e+000,3.5640863480e+000,1.8566803216e+000,5.4027514800e+000,1.8323462946e+000,3.2053353426e+000,2.9494033265e+000,3.4404352630e+000,
9.5625000000e+000,3.0114793051e+000,3.2785580728e+000,2.7855801447e+000,2.9542924750e+000,2.5669288501e+000,8.9069772472e+000,2.2424822297e+000,3.5052547415e+000,1.7565276826e+000,5.3715762180e+000,1.8658851548e+000,3.1114551590e+000,2.8920419809e+000,3.4598892395e+000,
9.6562500000e+000,3.0058122941e+000,3.3838896136e+000,2.8183391571e+000,3.0152487128e+000,2.6236497344e+000,9.0203390236e+000,2.2024228820e+000,3.5671837774e+000,1.7845491659e+000,5.4797032155e+000,1.9117556394e+000,3.0771952010e+000,2.8624799222e+000,3.5147251619e+000,
9.7500000000e+000,3.0453916658e+000,3.4131454398e+000,2.8143644722e+000,3.0098736140e+000,2.5725749030e+000,8.8889704724e+000,2.1869085449e+000,3.4390151183e+000,1.8327215556e+000,5.3864692041e+000,1.7949049546e+000,3.0679017913e+000,2.8255868063e+000,3.5457266915e+000,
9.8437500000e+000,3.0966044216e+000,3.5466044215e+000,2.7882357515e+000,3.1643322233e+000,2.5722910608e+000,8.8980428548e+000,2.1095398559e+000,3.4341454310e+000,1.9358560269e+000,5.3784849883e+000,1.7648866767e+000,3.0870102710e+000,2.8482217940e+000,3.5612701708e+000,
9.9375000000e+000,3.1265174396e+000,3.6005222476e+000,2.8068258942e+000,3.2358139877e+000,2.5611012194e+000,8.9371761387e+000,2.1662888999e+000,3.4565463313e+000,1.9165887510e+000,5.4463233841e+000,1.7353071225e+000,3.0903211872e+000,2.7731150990e+000,3.5084736205e+000,
1.0031250000e+001,3.0362500594e+000,3.4730357654e+000,2.6563778122e+000,3.1089895808e+000,2.4858787036e+000,9.0184525169e+000,2.2246863512e+000,3.4364581480e+000,1.9308665464e+000,5.5533541076e+000,1.6668791044e+000,2.9926807540e+000,2.6672216052e+000,3.3887628742e+000,
1.0125000000e+001,2.9747852299e+000,3.5200023247e+000,2.5561014958e+000,3.1764405728e+000,2.3552560188e+000,9.0091639536e+000,2.2036788251e+000,3.2890400095e+000,2.0189868993e+000,5.5069898885e+000,1.6841290571e+000,3.0220518872e+000,2.6707947761e+000,3.3535098042e+000,
1.0218750000e+001,3.1091524733e+000,3.5736473254e+000,2.6816435182e+000,3.2600282586e+000,2.4354273223e+000,8.9484370723e+000,2.2195540804e+000,3.2351966911e+000,2.0157823613e+000,5.4563793290e+000,1.6685769292e+000,2.9363939888e+000,2.7937189805e+000,3.3781785631e+000,
1.0312500000e+001,3.0660344446e+000,3.5871878453e+000,2.6858061864e+000,3.2786130692e+000,2.3986152986e+000,8.7572967161e+000,2.2030196653e+000,3.1027086945e+000,2.0034662698e+000,5.3125647096e+000,1.5849771250e+000,2.9318605444e+000,2.7624356921e+000,3.3720010839e+000,
1.0406250000e+001,3.0021076990e+000,3.4983712514e+000,2.6615218844e+000,3.2286292101e+000,2.4844949414e+000,8.6150308545e+000,2.1282855936e+000,2.9481130470e+000,2.0110547522e+000,5.1855978568e+000,1.5267001435e+000,2.8916288873e+000,2.8724151104e+000,3.4053907224e+000,
1.0500000000e+001,3.0137770860e+000,3.4969317713e+000,2.6728770273e+000,3.3117254105e+000,2.5212306110e+000,8.5388431868e+000,2.0720724713e+000,3.0085415616e+000,2.0493365570e+000,5.1520260291e+000,1.4396332577e+000,2.8470058684e+000,2.9805753642e+000,3.3881115999e+000,
1.0593750000e+001,3.0576948377e+000,3.4945015930e+000,2.7415459615e+000,3.3973846161e+000,2.5884710506e+000,8.4883283929e+000,2.1470843036e+000,3.0249690005e+000,2.0350048236e+000,5.1419116150e+000,1.3093900948e+000,2.8751424470e+000,3.1332704060e+000,3.3572819413e+000,
1.0687500000e+001,3.1022955866e+000,3.5536307215e+000,2.7307471135e+000,3.4766085835e+000,2.7796085333e+000,8.3641757798e+000,2.2232712240e+000,2.9506090922e+000,2.0617195464e+000,5.0361846459e+000,1.2786274416e+000,2.8888372893e+000,3.2383271794e+000,3.2737287265e+000,
1.0781250000e+001,3.1268148732e+000,3.5575445421e+000,2.7782065897e+000,3.4829027517e+000,2.9129864066e+000,8.2671326488e+000,2.2039569768e+000,2.8470297379e+000,2.1094788022e+000,4.9327449553e+000,1.3653255851e+000,2.9190017023e+000,3.2369516317e+000,3.3018153061e+000,
1.0875000000e+001,3.1265804619e+000,3.6226657077e+000,2.7287363613e+000,3.6075610023e+000,3.0083709268e+000,8.2488145318e+000,2.4366590301e+000,2.9990754596e+000,2.0835379916e+000,4.9456876941e+000,1.3154834560e+000,2.9025468747e+000,3.1966920592e+000,3.2706897988e+000,
1.0968750000e+001,3.0951463606e+000,3.5974092970e+000,2.7701389655e+000,3.5915329203e+000,3.0220224568e+000,8.5410144738e+000,2.4576389821e+000,2.9571115613e+000,2.1231861359e+000,5.0881669039e+000,1.3500824807e+000,2.8481483321e+000,3.2071292616e+000,3.3087123819e+000,
1.1062500000e+001,3.1201292333e+000,3.5756887144e+000,2.7909926303e+000,3.5735893885e+000,3.0306941742e+000,8.6102488644e+000,2.3916076280e+000,2.9088278069e+000,2.1022093585e+000,5.1544297482e+000,1.3249270740e+000,2.8750539456e+000,3.1418127542e+000,3.3520991572e+000,
1.1156250000e+001,3.1363177350e+000,3.4861841521e+000,2.7343392934e+000,3.4720251272e+000,3.0548397517e+000,8.7776901685e+000,2.3488561220e+000,2.8888692160e+000,2.0485529673e+000,5.3205190036e+000,1.2954606600e+000,2.8579049092e+000,3.1061977172e+000,3.3969971893e+000,
1.1250000000e+001,3.0237127056e+000,3.4510098935e+000,2.6124786526e+000,4.7768106115e+000,3.0030937749e+000,8.8542779299e+000,2.2835020350e+000,2.8917927766e+000,2.0551820374e+000,5.3625407381e+000,1.3961770970e+000,2.8998456335e+000,3.0828474096e+000,3.3580339949e+000,
1.1343750000e+001,3.0376357141e+000,3.4720183459e+000,2.6498860012e+000,5.4163059178e+000,2.9607564508e+000,8.8973187530e+000,2.3044882792e+000,2.8803346193e+000,2.1310906445e+000,5.3918807309e+000,1.5127466499e+000,2.9194697604e+000,3.0797299470e+000,3.3181101531e+000,
1.1437500000e+001,3.7363843260e+000,4.9454153338e+000,3.6327645363e+000,8.2780883263e+000,3.7140860643e+000,8.9414356076e+000,2.7100118196e+000,3.3389562296e+000,3.6084778646e+000,5.7364146222e+000,1.9735198219e+000,3.4445777293e+000,3.9202632611e+000,3.7394497731e+000,
1.1531250000e+001,3.9365273871e+000,5.0834579138e+000,3.7957457020e+000,8.4714873884e+000,3.8320207735e+000,8.9794410861e+000,2.7531459492e+000,3.3589922603e+000,3.7921399952e+000,5.8017341426e+000,2.0445379034e+000,3.5085456477e+000,3.9997229369e+000,3.7721924592e+000,
1.1625000000e+001,3.9585208007e+000,5.0816576994e+000,3.8004641444e+000,8.4738449447e+000,3.8178910795e+000,9.0464107192e+000,2.7620639196e+000,3.3793735125e+000,3.7874994514e+000,5.8122728492e+000,2.0677585409e+000,3.4851348830e+000,3.9066137268e+000,3.7111425046e+000,
1.1718750000e+001,3.9861214009e+000,5.0755919489e+000,3.8133084668e+000,8.4743179780e+000,3.7907018623e+000,9.1355705555e+000,2.8145241254e+000,3.3531483427e+000,3.7883726580e+000,5.8581862051e+000,2.0281569386e+000,3.4788886480e+000,3.8983442280e+000,3.6876464171e+000,
1.1812500000e+001,4.0127778704e+000,5.4568450226e+000,3.8135842294e+000,1.0355739214e+001,3.7572649046e+000,9.6991837627e+000,2.7646412011e+000,4.2630618682e+000,3.7654072258e+000,9.2921203984e+000,1.9978727506e+000,3.9884660141e+000,3.9188003170e+000,3.9844265864e+000,
1.1906250000e+001,4.0180853402e+000,8.3304388553e+000,3.8534668090e+000,1.1367815662e+001,3.7173960228e+000,1.1044464354e+001,2.7358109281e+000,6.0194597795e+000,3.7609864957e+000,1.1424942116e+001,2.0192437288e+000,6.0340508998e+000,3.9300674991e+000,5.6500308006e+000,
1.2000000000e+001,4.1938009370e+000,8.5707617210e+000,3.9659890163e+000,1.1427660596e+001,3.8392161864e+000,1.1322293851e+001,2.8196100180e+000,6.1208979311e+000,3.8016429625e+000,1.1572057054e+001,2.0616269719e+000,6.1858856560e+000,3.9375565168e+000,5.8276620633e+000,
1.2093750000e+001,4.1721694428e+000,8.5789612235e+000,3.9749323763e+000,1.1469020750e+001,3.8231556772e+000,1.1330774804e+001,2.8392147561e+000,6.1664699610e+000,3.8093041507e+000,1.1577422147e+001,2.0988717660e+000,6.1868098616e+000,3.9427142479e+000,5.8308448095e+000,
1.2187500000e+001,4.1816929429e+000,8.5790882920e+000,3.9756310735e+000,1.1470550918e+001,3.8302046374e+000,1.1331834560e+001,2.8074584090e+000,6.1784183424e+000,3.8079786054e+000,1.1577747882e+001,2.1200740998e+000,6.1866564810e+000,3.9386934456e+000,5.8228933335e+000,
1.2281250000e+001,4.1919324186e+000,8.5790620342e+000,4.0095184928e+000,1.1469160902e+001,3.8544175814e+000,1.1354932594e+001,2.8418097627e+000,6.1882253572e+000,3.8226209058e+000,1.1578245286e+001,2.0321943474e+000,6.1872600203e+000,3.9227333757e+000,5.8243390568e+000,
1.2375000000e+001,4.1967183266e+000,8.5793008647e+000,4.0307632572e+000,1.1467788088e+001,3.8622355240e+000,1.1365204772e+001,2.9113095046e+000,6.1948691355e+000,3.7941848330e+000,1.1578432404e+001,1.9486614620e+000,6.1881526639e+000,3.8864904714e+000,5.8223148364e+000,
1.2468750000e+001,3.7100890326e+000,8.5554841311e+000,3.3345845658e+000,1.1421552387e+001,3.1148980699e+000,1.1427451237e+001,2.6700349685e+000,6.1917999422e+000,2.3620762635e+000,1.1578789425e+001,1.3774767373e+000,6.1578690995e+000,2.7279388364e+000,5.7749821000e+000,
1.2562500000e+001,3.6239187526e+000,8.5558285233e+000,3.2983585923e+000,1.1420163016e+001,3.0865557540e+000,1.1863793704e+001,2.7066307398e+000,6.4155956877e+000,2.1764801378e+000,1.1595138734e+001,1.3216548607e+000,6.1692397258e+000,2.8367673061e+000,5.7795036025e+000,
1.2656250000e+001,3.5002979635e+000,8.5551961025e+000,3.1684972406e+000,1.1420001251e+001,2.9733679139e+000,1.1857516900e+001,2.5205290620e+000,6.4170681851e+000,2.1720699697e+000,1.1595012752e+001,1.2809533348e+000,6.1685315802e+000,2.7654721352e+000,5.7735956598e+000,
1.2750000000e+001,3.4365258874e+000,8.5718658147e+000,3.1701441814e+000,1.1419999389e+001,2.9185692050e+000,1.1946733198e+001,2.5061773555e+000,6.4504802393e+000,2.2078232759e+000,1.1598340229e+001,1.3380795286e+000,6.1692315752e+000,2.8549140022e+000,5.7761601020e+000,
1.2843750000e+001,3.4065689955e+000,8.4325311974e+000,3.1547939596e+000,1.0267583514e+001,2.9065795856e+000,1.1739804732e+001,2.5340317983e+000,5.9875380321e+000,2.1813165200e+000,1.1043943290e+001,1.2853896020e+000,5.7196259133e+000,2.8547242669e+000,5.3485170979e+000,
1.2937500000e+001,3.0836185617e+000,6.7161341437e+000,2.9364750225e+000,9.0604591649e+000,2.7005124811e+000,1.1484897786e+001,2.5084225698e+000,5.4842452743e+000,2.0832771555e+000,9.1972915504e+000,1.3329359317e+000,4.0993667199e+000,2.8488148812e+000,3.9510676387e+000,
1.3031250000e+001,2.7788211571e+000,4.9124958907e+000,2.6801842016e+000,7.0767505828e+000,2.5314578053e+000,1.1620632156e+001,2.4538322847e+000,5.5255650960e+000,1.9077712349e+000,8.2238077881e+000,1.3319225779e+000,3.3238049329e+000,2.8651889922e+000,3.1458234591e+000,
1.3125000000e+001,2.8004901222e+000,4.8934201637e+000,2.6991852569e+000,4.9242748450e+000,2.5546152671e+000,1.1620163884e+001,2.3953444432e+000,5.4803842773e+000,1.8921674603e+000,8.2255397930e+000,1.3153628588e+000,3.4195410677e+000,2.8612546972e+000,3.2161388585e+000,
1.3218750000e+001,2.7409266604e+000,4.8844851927e+000,2.5752438811e+000,4.1122929933e+000,2.5013975174e+000,1.1670482288e+001,2.4535752468e+000,5.5163185117e+000,1.8562150748e+000,8.2779193720e+000,1.5557308466e+000,3.3556214701e+000,2.8652949448e+000,3.1732529513e+000,
1.3312500000e+001,2.8849997177e+000,4.8908951352e+000,2.6498386392e+000,4.0600654978e+000,2.5631383853e+000,1.1779462726e+001,2.5286625711e+000,5.6103113999e+000,2.0147676549e+000,8.3727525620e+000,1.6309196855e+000,3.3485420810e+000,2.9560465622e+000,3.2017501827e+000,
1.3406250000e+001,2.8070539716e+000,4.8618081035e+000,2.5267372210e+000,4.0285527409e+000,2.4853182810e+000,1.1946887093e+001,2.3674599082e+000,5.7461266836e+000,2.1016516135e+000,8.5281677741e+000,1.6346203956e+000,3.5155222659e+000,2.9833868672e+000,3.3105537714e+000,
1.3500000000e+001,2.7716316388e+000,4.8767757835e+000,2.5346959843e+000,3.8556794317e+000,2.4223866065e+000,1.1827112235e+001,2.3505141723e+000,5.5542386151e+000,2.1077983461e+000,8.3942652394e+000,1.6507722093e+000,3.5292065721e+000,2.9918306375e+000,3.3218697776e+000,
1.3593750000e+001,2.7851245594e+000,4.8708098356e+000,2.6120919561e+000,3.7139168809e+000,2.4720059994e+000,1.1660390732e+001,2.3873568673e+000,5.3516274251e+000,2.0823374477e+000,8.2107719230e+000,1.6736872347e+000,3.4480243740e+000,2.8829442792e+000,3.2534612411e+000,
1.3687500000e+001,2.7949515058e+000,4.2837231569e+000,2.6212560099e+000,3.7102006413e+000,2.4530557814e+000,1.1647223304e+001,2.4708246607e+000,5.3431182976e+000,2.1398549681e+000,8.2048191313e+000,1.6449157875e+000,3.4474220607e+000,2.8717889241e+000,3.2651734774e+000,
1.3781250000e+001,2.6845576764e+000,3.8832577432e+000,2.4818914339e+000,3.7004429267e+000,2.4304976844e+000,1.1527112367e+001,2.4563603621e+000,5.2447272503e+000,2.1333010892e+000,8.0947571537e+000,1.6532778330e+000,3.5573450475e+000,2.7494746142e+000,3.2760903224e+000,
1.3875000000e+001,2.8728973668e+000,3.6029985176e+000,2.5909527751e+000,3.8303588992e+000,2.4921231252e+000,1.1514239612e+001,2.3824445780e+000,5.2418219214e+000,2.2129801843e+000,8.0755315208e+000,1.6734576429e+000,3.5794557571e+000,2.7302749326e+000,3.3240564909e+000,
1.3968750000e+001,2.9282168394e+000,3.9333876669e+000,2.5835687437e+000,3.8627228458e+000,2.5971453085e+000,1.1477508552e+001,2.1977386887e+000,5.2059580277e+000,2.2918777431e+000,8.0421956703e+000,1.7013210072e+000,3.5900592130e+000,2.5992946953e+000,3.3033960349e+000,
1.4062500000e+001,2.9921271747e+000,4.0924972246e+000,2.6470038863e+000,3.8459978015e+000,2.6831184157e+000,1.1230024487e+001,2.3116943613e+000,5.0138662340e+000,2.3724677933e+000,7.8075905689e+000,1.6694884657e+000,3.4671802863e+000,2.6758104119e+000,3.3074166857e+000,
1.4156250000e+001,2.9520228925e+000,4.1526324172e+000,2.6671159453e+000,3.8375573937e+000,2.6631844127e+000,1.1275656117e+001,2.3146942367e+000,5.0107014568e+000,2.4317964797e+000,7.7704375134e+000,1.6771007997e+000,3.4342185161e+000,2.8097643682e+000,3.3901118118e+000,
1.4250000000e+001,2.8250390414e+000,4.3559766663e+000,2.7178880524e+000,3.7034329979e+000,2.5498928226e+000,1.1182036982e+001,2.2322703543e+000,4.8402887464e+000,2.3882208915e+000,7.6533371352e+000,1.5281896882e+000,3.4567726119e+000,2.8986268491e+000,3.5122343583e+000,
1.4343750000e+001,2.8514726061e+000,4.4384653764e+000,2.7066872091e+000,3.6778996232e+000,2.5508571945e+000,1.0966225985e+001,2.1827848219e+000,4.5994267406e+000,2.2407845880e+000,7.4452551497e+000,1.5423947526e+000,3.3314781381e+000,2.8360095442e+000,3.4674574271e+000,
1.4437500000e+001,2.9276779100e+000,4.4119103794e+000,2.7315310152e+000,3.6125220366e+000,2.6149329753e+000,1.0546365848e+001,2.1953438332e+000,4.1753940006e+000,2.2051823026e+000,7.0380893318e+000,1.7269079191e+000,3.1443138815e+000,2.7173332170e+000,3.3974836783e+000,
1.4531250000e+001,2.9013012123e+000,4.4889899854e+000,2.7720819325e+000,3.5537611239e+000,2.5662709697e+000,1.0566974278e+001,1.9969815256e+000,3.9074706487e+000,2.1864116907e+000,6.9683360419e+000,1.7669531920e+000,3.1129250025e+000,2.7205552131e+000,3.4248533139e+000,
1.4625000000e+001,2.9822754441e+000,4.5003928999e+000,2.7279262070e+000,3.5085806545e+000,2.6164189178e+000,1.0562151523e+001,1.8278577248e+000,3.9152064910e+000,2.1466787074e+000,6.9351336191e+000,1.7997985877e+000,3.1726939803e+000,2.7193570706e+000,3.5207071962e+000,
1.4718750000e+001,3.0058769772e+000,4.4307763369e+000,2.7870793778e+000,3.5416421141e+000,2.6342957757e+000,1.0809076043e+001,1.6330297709e+000,4.1019423272e+000,2.0644003459e+000,7.1513890069e+000,1.7832028415e+000,3.2449805875e+000,2.7524821839e+000,3.5683433713e+000,
1.4812500000e+001,3.0536161832e+000,4.5063550305e+000,2.8644104877e+000,3.4857156146e+000,2.6469622004e+000,1.0895355690e+001,1.6199261554e+000,4.0662218691e+000,2.1165146713e+000,7.2336613723e+000,1.7530522324e+000,3.1802135479e+000,2.7742527364e+000,3.5622529611e+000,
1.4906250000e+001,3.0630497716e+000,4.5349610738e+000,2.8151707306e+000,3.4501458834e+000,2.6327171712e+000,1.0971128455e+001,1.6144930128e+000,4.0828833929e+000,2.1137687925e+000,7.3169885925e+000,1.6792815589e+000,3.2639330460e+000,3.0535944729e+000,3.6704537868e+000,
1.5000000000e+001,3.0135326082e+000,4.4186906411e+000,2.8163517251e+000,3.5238388558e+000,2.4917119128e+000,1.1003939429e+001,1.6701072778e+000,4.1090240707e+000,2.0391047536e+000,7.3406450135e+000,1.6322799938e+000,3.3031737831e+000,3.1330633627e+000,3.6868808896e+000,
1.5093750000e+001,3.0141403269e+000,9.1137534389e+000,2.8260660868e+000,5.5017988011e+000,2.4220688169e+000,1.1448664626e+001,1.5053507523e+000,5.1491541853e+000,2.0582140965e+000,7.8364540280e+000,1.5357990747e+000,3.2757652358e+000,3.1104313665e+000,3.6006422638e+000,
1.5187500000e+001,3.0133552044e+000,9.6510273961e+000,2.8790300753e+000,6.1549663572e+000,2.4332025433e+000,1.2275883414e+001,1.6246287050e+000,6.0137136064e+000,2.0561460529e+000,8.8217883477e+000,1.4900291083e+000,3.6222659932e+000,3.1712379326e+000,3.6916892811e+000,
1.5281250000e+001,3.0524981726e+000,9.7463410142e+000,2.8763211036e+000,6.4045872674e+000,2.5836343503e+000,1.2342740401e+001,1.7920926486e+000,6.0809821930e+000,2.0487444182e+000,8.9874707687e+000,1.5180538911e+000,3.7239336202e+000,3.1564596270e+000,3.6732443903e+000,
1.5375000000e+001,3.3091810569e+000,9.7612496176e+000,3.1091359689e+000,6.4364879762e+000,2.8397629273e+000,1.2343502917e+001,1.9959683574e+000,6.0890452359e+000,2.1057631899e+000,8.9866858683e+000,1.4107171589e+000,3.7400169225e+000,3.2627620021e+000,3.6998755006e+000,
1.5468750000e+001,3.2803537486e+000,9.7645393570e+000,3.1151803772e+000,6.4367547131e+000,2.8258480616e+000,1.2322446796e+001,2.0166443273e+000,6.0910943914e+000,2.0824461473e+000,8.9741159502e+000,1.2063975575e+000,3.7521144310e+000,3.3058501885e+000,3.6829603549e+000,
1.5562500000e+001,3.2389785491e+000,9.7645397279e+000,3.0931205216e+000,6.4361779579e+000,2.8558387521e+000,1.2277020501e+001,2.2062613911e+000,6.0739939885e+000,2.1216342619e+000,8.9469025742e+000,1.4001853397e+000,3.7064869159e+000,3.3197253662e+000,3.6515663595e+000,
1.5656250000e+001,3.1259089083e+000,9.7644732827e+000,3.0499766406e+000,6.4347687101e+000,2.8299789256e+000,1.2254721982e+001,2.2359216465e+000,6.0429073562e+000,2.1681339819e+000,8.9280784143e+000,1.4180897436e+000,3.6632662673e+000,3.3332555373e+000,3.6773648295e+000,
1.5750000000e+001,3.2034391257e+000,9.7644775652e+000,3.0729284248e+000,6.4359774662e+000,2.8442364614e+000,1.2217967985e+001,2.2907259229e+000,6.0358028113e+000,2.1558585154e+000,8.9055552004e+000,1.3536640502e+000,3.6442140190e+000,3.4488587327e+000,3.7299397482e+000,
1.5843750000e+001,3.1814659006e+000,9.7638508687e+000,3.1104482830e+000,6.4313189496e+000,2.9257024944e+000,1.2174743693e+001,2.3735987653e+000,6.0158434645e+000,2.1856250335e+000,8.8721038848e+000,1.3999395704e+000,3.5749439735e+000,3.4687044452e+000,3.6910105808e+000,
1.5937500000e+001,3.1337585660e+000,9.7637265590e+000,3.1269453675e+000,6.4257577567e+000,2.8727295695e+000,1.2155727314e+001,2.4662678895e+000,6.0101833068e+000,2.1279609020e+000,8.8584810179e+000,1.4494487077e+000,3.4293592763e+000,3.3205487267e+000,3.5267158834e+000,
1.6031250000e+001,3.1135508365e+000,9.7523333402e+000,3.0660576503e+000,6.4235989188e+000,2.9150683395e+000,1.2157545158e+001,2.4382348973e+000,6.0114222641e+000,2.1568484445e+000,8.8640698743e+000,1.4430306546e+000,3.4561173610e+000,3.2825274360e+000,3.5436223711e+000,
1.6125000000e+001,3.1164402468e+000,8.7933251084e+000,3.0072505583e+000,5.9788778890e+000,2.8999478456e+000,1.1514456395e+001,2.3767435439e+000,5.2196263389e+000,2.0953080496e+000,8.3692932605e+000,1.4883264979e+000,3.4079575205e+000,3.2421267202e+000,3.5545850290e+000,
1.6218750000e+001,3.1554832830e+000,6.4820293041e+000,2.9533937752e+000,4.6113058989e+000,2.9263342683e+000,1.0540528634e+001,2.3518713759e+000,3.7884901912e+000,2.0324176802e+000,7.1724905279e+000,1.5292908329e+000,2.7901497736e+000,3.1668300116e+000,3.3461998820e+000,
1.6312500000e+001,2.9309904091e+000,5.7279028722e+000,2.7191661576e+000,3.3942304584e+000,2.7633431657e+000,1.0351033843e+001,2.1504295162e+000,3.4254297188e+000,2.0960167600e+000,6.8032740790e+000,1.5521919321e+000,2.7600082603e+000,3.0183511150e+000,3.2779429633e+000,
1.6406250000e+001,2.7486976500e+000,4.2441221436e+000,2.4998007686e+000,3.0680885227e+000,2.6219608033e+000,1.0313908483e+001,2.0236700545e+000,3.3363506424e+000,2.0686778517e+000,6.7716819915e+000,1.5576242088e+000,2.8425219176e+000,3.0223547795e+000,3.3112866024e+000,
1.6500000000e+001,2.7526363229e+000,3.4400258521e+000,2.5068251317e+000,3.0395806135e+000,2.6096560561e+000,1.0338158131e+001,2.0791336308e+000,3.3057241897e+000,2.1204037946e+000,6.7847677018e+000,1.5598149796e+000,2.8189198205e+000,2.9973924053e+000,3.3208349096e+000,
1.6593750000e+001,2.8335382281e+000,3.4395718279e+000,2.5831765721e+000,3.0355868787e+000,2.6334641655e+000,1.0374372980e+001,2.0665073254e+000,3.3430641071e+000,2.1866688511e+000,6.8175927313e+000,1.3191558626e+000,2.7831206612e+000,3.0296229097e+000,3.2571537213e+000,
1.6687500000e+001,2.9725647727e+000,3.5320096727e+000,2.6967007104e+000,3.0827593004e+000,2.7466391596e+000,1.0372227501e+001,2.1094270234e+000,3.4164783479e+000,2.2430311354e+000,6.8166217178e+000,1.2616161725e+000,2.6237241925e+000,2.9801554000e+000,3.1700696781e+000,
1.6781250000e+001,2.9564355271e+000,3.6184781022e+000,2.6592303449e+000,3.2053648772e+000,2.6688708586e+000,1.0377264803e+001,2.0848221217e+000,3.4525189367e+000,2.1925962632e+000,6.8412066780e+000,1.2530056478e+000,2.8850260119e+000,2.8320099972e+000,3.1786206462e+000,
1.6875000000e+001,2.9755407867e+000,3.7058405124e+000,2.5818476136e+000,3.4173726140e+000,2.6029098165e+000,1.0394638768e+001,1.9830634713e+000,3.5104663443e+000,2.1666711321e+000,6.8678002206e+000,1.3380932007e+000,2.9032738353e+000,2.7586414078e+000,3.1483940664e+000,
1.6968750000e+001,3.0104182549e+000,3.6305103924e+000,2.6150878690e+000,3.4279415859e+000,2.6793475809e+000,1.0376028984e+001,1.8304897336e+000,3.4709888620e+000,2.0945658625e+000,6.8337328277e+000,1.3640982504e+000,2.9352101636e+000,2.8661339998e+000,3.2855981981e+000,
1.7062500000e+001,2.9959951613e+000,3.6350369209e+000,2.6631614862e+000,3.4585404494e+000,2.6370961738e+000,1.0201402560e+001,1.7964973739e+000,3.2501713304e+000,2.0575863604e+000,6.6895973018e+000,1.4389287464e+000,2.9178247948e+000,2.9352223099e+000,3.3774648900e+000,
1.7156250000e+001,2.9893796154e+000,3.5396586676e+000,2.7199600822e+000,3.4112400750e+000,2.6237618083e+000,9.7031579620e+000,1.7512726829e+000,3.1121919262e+000,2.1204604804e+000,6.1521472133e+000,1.3991898833e+000,2.8899766612e+000,2.9381789009e+000,3.3208897077e+000,
1.7250000000e+001,2.9773021381e+000,3.6173113711e+000,2.8282571576e+000,3.5456273806e+000,2.6518437882e+000,9.8114717126e+000,1.9449975976e+000,3.1398287051e+000,2.1833711626e+000,6.2424203595e+000,1.5229663570e+000,2.9095931926e+000,3.0093767239e+000,3.2972129727e+000,
1.7343750000e+001,3.1300278496e+000,3.7384903596e+000,2.9853528131e+000,3.6650857572e+000,2.6773960416e+000,9.8676538195e+000,2.1451418818e+000,3.1618151128e+000,2.1828824354e+000,6.2858266092e+000,1.5144546009e+000,2.8862406924e+000,3.1587820516e+000,3.3061397197e+000,
1.7437500000e+001,3.2025731327e+000,3.7576371165e+000,3.0710417733e+000,3.7046297328e+000,2.6959676064e+000,9.9410621447e+000,2.2055573153e+000,3.2143572625e+000,2.2650646407e+000,6.3507508501e+000,1.5610935854e+000,2.8216639619e+000,3.1624041102e+000,3.2959582284e+000,
1.7531250000e+001,3.3165104688e+000,3.7150822457e+000,3.0644125425e+000,3.7160759314e+000,2.8356119785e+000,9.9352343274e+000,2.2011123567e+000,3.2160399944e+000,2.2982118898e+000,6.3422561590e+000,1.7138616230e+000,2.8720988455e+000,3.1312214973e+000,3.3306961285e+000,
1.7625000000e+001,3.5269683586e+000,3.8538316547e+000,3.3009039092e+000,3.9238173049e+000,3.0580390135e+000,1.0039469743e+001,2.2353955141e+000,3.6689401088e+000,2.7010143298e+000,6.5155550817e+000,1.8398452577e+000,3.1671434355e+000,3.3852642477e+000,3.4940101218e+000,
1.7718750000e+001,4.2306210034e+000,4.5207486988e+000,4.0560936242e+000,4.5950236384e+000,3.8434088960e+000,1.0095735907e+001,2.6446959324e+000,3.9375827549e+000,4.0027917830e+000,6.5497803995e+000,2.4125767521e+000,3.7003426721e+000,4.0860464225e+000,4.0572387709e+000,
1.7812500000e+001,4.5042774100e+000,4.7533370063e+000,4.3091524446e+000,4.8098228765e+000,4.0952061453e+000,1.0077949715e+001,2.7851077180e+000,3.9589390557e+000,4.2167615578e+000,6.5376470488e+000,2.6376348680e+000,3.7397252488e+000,4.2266869048e+000,4.0771168403e+000,
1.7906250000e+001,4.5168524351e+000,4.7319114761e+000,4.3127638027e+000,4.7763648783e+000,4.0927148628e+000,1.0061978611e+001,2.8323327359e+000,3.9586883397e+000,4.2280882097e+000,6.5185631588e+000,2.6071980979e+000,3.7193579773e+000,4.2227181069e+000,4.0644091322e+000,
1.8000000000e+001,4.5669403838e+000,4.7563847321e+000,4.3522478262e+000,4.7936964337e+000,4.1235391060e+000,1.0054543887e+001,2.9122228397e+000,3.9611562567e+000,4.2393189342e+000,6.5150154753e+000,2.6018783527e+000,3.7147899362e+000,4.1965035795e+000,4.0198224434e+000,
1.8093750000e+001,5.2250266366e+000,5.4058995819e+000,5.0285141383e+000,5.4346245780e+000,4.8131292474e+000,9.8385534629e+000,3.3279786054e+000,4.5682511487e+000,4.9942176921e+000,6.4779379444e+000,3.2532056929e+000,4.3239754026e+000,4.9495663608e+000,4.6382849097e+000,
1.8187500000e+001,6.1573273969e+000,6.3586295723e+000,6.0130043525e+000,6.3449754263e+000,5.7758788026e+000,9.7345100494e+000,4.1097092690e+000,5.5341293979e+000,6.0714264800e+000,6.8743185920e+000,4.0869641391e+000,5.2297052455e+000,6.0323654626e+000,5.6578611943e+000,
1.8281250000e+001,6.5758329961e+000,6.8162771240e+000,6.4346306659e+000,6.7980710773e+000,6.1968863501e+000,9.5741857802e+000,4.4511668955e+000,5.9575445729e+000,6.5160343546e+000,7.1602751849e+000,4.5770787562e+000,5.6960682216e+000,6.4862134039e+000,6.1229570864e+000,
1.8375000000e+001,6.6069674288e+000,6.8473387917e+000,6.4665460079e+000,6.8315451178e+000,6.2314147979e+000,9.5647157038e+000,4.4768385277e+000,5.9898904122e+000,6.5528261431e+000,7.1966109380e+000,4.6072860389e+000,5.7314452227e+000,6.5156067319e+000,6.1533391307e+000,
1.8468750000e+001,8.0565174689e+000,8.3042882770e+000,7.9726431151e+000,8.3108929927e+000,7.7862242416e+000,1.0423666127e+001,6.0181109841e+000,7.6625827720e+000,8.1039496526e+000,8.7523289390e+000,6.4335587600e+000,7.3574220949e+000,8.0381801895e+000,7.7559110409e+000,
1.8562500000e+001,8.2925047498e+000,8.5565221515e+000,8.2117265618e+000,8.5607133346e+000,8.0049726846e+000,1.0794744560e+001,6.2317377459e+000,7.9231027350e+000,8.3333448768e+000,9.0866055358e+000,6.6769980876e+000,7.6065758389e+000,8.2642837157e+000,7.9886752902e+000,
1.8656250000e+001,8.3428822865e+000,8.6127546927e+000,8.2649768562e+000,8.6162830838e+000,8.0573556532e+000,1.0892509814e+001,6.2770707770e+000,7.9823048885e+000,8.3912345696e+000,9.1629093394e+000,6.7513124746e+000,7.6613606551e+000,8.3208279341e+000,8.0405128629e+000,
1.8750000000e+001,8.3493607620e+000,8.6185124899e+000,8.2734568099e+000,8.6224717829e+000,8.0639141710e+000,1.0928834182e+001,6.2826157051e+000,7.9962693413e+000,8.3970087294e+000,9.1944780423e+000,6.7624777290e+000,7.6665599833e+000,8.3270687203e+000,8.0442092032e+000,
1.8843750000e+001,8.3635511435e+000,8.6289750708e+000,8.2932817322e+000,8.6429444174e+000,8.0815053893e+000,1.1030594082e+001,6.3306937884e+000,8.0128493138e+000,8.4095455305e+000,9.2166025315e+000,6.7901032447e+000,7.6867881983e+000,8.3468602032e+000,8.0515760813e+000,
1.8937500000e+001,9.6404766932e+000,9.6984929514e+000,9.7878618862e+000,9.9219760922e+000,9.4092362791e+000,1.1326724497e+001,8.4034375334e+000,9.3214795572e+000,9.5229019864e+000,1.0802575524e+001,8.4015078098e+000,9.3728415891e+000,1.1684598683e+001,8.9797600480e+000,
1.9031250000e+001,9.6619203368e+000,9.7207488619e+000,9.8103565637e+000,9.9454983834e+000,9.4280369418e+000,1.1371091570e+001,8.4245535531e+000,9.3404749455e+000,9.5423014161e+000,1.0858548041e+001,8.4119094452e+000,9.3983836215e+000,1.1825480822e+001,8.9980850235e+000,
1.9125000000e+001,9.6562442090e+000,9.7137995323e+000,9.8065743246e+000,9.9403918822e+000,9.4231205363e+000,1.1372905559e+001,8.4237195522e+000,9.3362809153e+000,9.5361558185e+000,1.0859721506e+001,8.4088840497e+000,9.3961654343e+000,1.1831290565e+001,8.9904501035e+000,
1.9218750000e+001,9.6320245143e+000,9.6842275795e+000,9.7882186209e+000,9.9177841929e+000,9.4025912465e+000,1.1373903733e+001,8.4153730437e+000,9.3193171730e+000,9.5092175219e+000,1.0851257245e+001,8.3972716119e+000,9.3837382127e+000,1.1829072895e+001,8.9608523001e+000,
1.9312500000e+001,9.6232195657e+000,9.6729285464e+000,9.7813005068e+000,9.9087978089e+000,9.3955517960e+000,1.1376156050e+001,8.4130272164e+000,9.3119418395e+000,9.4985624096e+000,1.0846803633e+001,8.3936335335e+000,9.3781134387e+000,1.1828120381e+001,8.9474002960e+000,
1.9406250000e+001,9.6217647139e+000,9.6711684984e+000,9.7801707641e+000,9.9074108406e+000,9.3947302836e+000,1.1229490196e+001,8.4124688233e+000,9.3106194126e+000,9.4969962421e+000,1.0839995563e+001,8.3928671255e+000,9.3769623278e+000,1.1828239297e+001,8.9451310802e+000,
1.9500000000e+001,9.4017739938e+000,9.3914360540e+000,9.6092044713e+000,9.6914679728e+000,9.1897435867e+000,1.1036588682e+001,8.3235949887e+000,9.1015834659e+000,9.2262049812e+000,1.0712360939e+001,8.2381608026e+000,9.2361366747e+000,1.1806868550e+001,8.5959585423e+000,
1.9593750000e+001,9.3766425098e+000,9.3532894497e+000,9.5890915834e+000,9.6629384696e+000,9.1995199440e+000,1.0721827935e+001,8.3156839503e+000,9.0636404711e+000,9.1913141733e+000,1.0681447361e+001,8.2186687147e+000,9.2205625857e+000,1.1804500373e+001,8.5533616462e+000,
1.9687500000e+001,9.3597425548e+000,9.3296021305e+000,9.5766130487e+000,9.6458661884e+000,9.1877542474e+000,1.0643087738e+001,8.3113034642e+000,9.0481722453e+000,9.1694897602e+000,1.0665410167e+001,8.2039994024e+000,9.2105879019e+000,1.1803245422e+001,8.5292284523e+000,
1.9781250000e+001,9.3592397327e+000,9.3286066493e+000,9.5759060887e+000,9.6453542005e+000,9.1986842155e+000,1.0602674034e+001,8.3107847953e+000,9.0473834294e+000,9.1659504170e+000,1.0664488650e+001,8.2018298345e+000,9.2106239367e+000,1.1803438455e+001,8.5303254129e+000,
1.9875000000e+001,9.1250295912e+000,9.1024390352e+000,9.3419383071e+000,9.4102319617e+000,8.9872374935e+000,1.0269173059e+001,8.0846003642e+000,8.8222654056e+000,8.9341694623e+000,1.0433608319e+001,8.0025975151e+000,8.9632908815e+000,1.1697545493e+001,8.3138345518e+000,
1.9968750000e+001,5.8215656004e+000,5.9697383117e+000,5.8935505635e+000,6.1478925243e+000,6.6950911695e+000,9.3438323979e+000,4.5452462507e+000,5.3417073778e+000,5.4602691324e+000,7.7349497339e+000,3.4589658323e+000,5.6034067600e+000,9.1280279337e+000,5.2877399571e+000,
2.0062500000e+001,4.8297041411e+000,4.9648642914e+000,4.6061492274e+000,4.9979501377e+000,6.5181778322e+000,9.0521993772e+000,3.6583551021e+000,4.3610342453e+000,4.0591455459e+000,6.1929642074e+000,2.4590141462e+000,4.2842792939e+000,5.9290822696e+000,4.7757085526e+000,
2.0156250000e+001,4.7649482842e+000,4.9183541907e+000,4.5298804015e+000,4.9432189027e+000,6.5238228351e+000,9.1898499678e+000,3.5777560398e+000,4.3207682216e+000,3.9812612330e+000,6.1171710810e+000,2.3737166056e+000,4.2692426579e+000,5.6374096985e+000,4.8050046657e+000,
2.0250000000e+001,4.6633261407e+000,4.8328725384e+000,4.4626984183e+000,4.8429852343e+000,6.4918444727e+000,9.2220706044e+000,3.3862603072e+000,4.2155491821e+000,3.8467222537e+000,6.0362673859e+000,2.3266479604e+000,4.2493101330e+000,5.5788406777e+000,4.7548686066e+000,
2.0343750000e+001,4.7791751057e+000,4.9437807737e+000,4.5481372573e+000,4.9241848735e+000,6.5021790693e+000,1.0534526348e+001,3.3923821397e+000,4.6318969245e+000,4.0113411800e+000,7.1600791245e+000,2.4140776370e+000,4.4086264621e+000,5.6535922814e+000,4.8560545597e+000,
2.0437500000e+001,4.8057802229e+000,4.9925006312e+000,4.5573646602e+000,5.1686980650e+000,6.4996077733e+000,1.1258060405e+001,3.4556397090e+000,4.8452054377e+000,4.0196165791e+000,7.8519013313e+000,5.1480501939e+000,4.5046808080e+000,5.6988766714e+000,4.9388302351e+000,
2.0531250000e+001,4.7943078495e+000,5.0114287549e+000,4.5470433322e+000,5.2625955870e+000,6.0159357428e+000,1.1649349811e+001,3.3311383682e+000,4.8846607788e+000,3.6259937268e+000,8.1280273905e+000,5.6857051042e+000,4.4937548738e+000,5.6654338587e+000,4.8860947942e+000,
2.0625000000e+001,4.6806116569e+000,4.9209093102e+000,4.3857302365e+000,5.1886254338e+000,5.5634750617e+000,1.1731788892e+001,3.1418628893e+000,4.8656411393e+000,3.5675797723e+000,8.1718301959e+000,5.8924042958e+000,4.3837917204e+000,5.6326582307e+000,4.7230993502e+000,
2.0718750000e+001,4.7363244453e+000,4.9896318063e+000,4.4767638851e+000,5.2463582832e+000,5.4790049948e+000,1.1747699309e+001,3.2413897247e+000,4.9089308067e+000,3.7649630393e+000,8.1990732842e+000,6.3368945144e+000,4.4106647529e+000,5.5938230616e+000,4.7277982718e+000,
2.0812500000e+001,4.9871422948e+000,5.1630285148e+000,4.6280953165e+000,5.4290910774e+000,5.1096306344e+000,1.1954995557e+001,4.0759136712e+000,4.8844470686e+000,4.3424049453e+000,8.3747448961e+000,6.7739779553e+000,4.4595709124e+000,5.6703389264e+000,5.1618510411e+000,
2.0906250000e+001,5.6035029676e+000,5.8081846877e+000,5.3907317125e+000,5.9670224820e+000,5.5040059899e+000,1.1998065922e+001,4.7435104527e+000,5.2269691622e+000,4.4723322077e+000,8.4839010783e+000,6.9865329060e+000,4.8772040942e+000,6.0169612428e+000,5.7816649494e+000,
2.1000000000e+001,5.7262408964e+000,5.9303791607e+000,5.5323958404e+000,6.0981639902e+000,5.6320432394e+000,1.2009003383e+001,4.8483178634e+000,5.4757899872e+000,4.4625528004e+000,8.5369889365e+000,7.0870967035e+000,5.0806883608e+000,6.1250276531e+000,5.8960332688e+000,
2.1093750000e+001,5.7689013707e+000,5.9826637777e+000,5.5897062705e+000,6.1360131132e+000,5.5842195062e+000,1.2035378030e+001,4.8843230758e+000,5.5196608141e+000,4.4730160593e+000,8.5732436421e+000,7.1101321453e+000,5.2129715791e+000,6.1467547215e+000,5.9365251871e+000,
2.1187500000e+001,5.8012821181e+000,6.0080277239e+000,5.6195985448e+000,6.1626166812e+000,5.5972007792e+000,1.2082434511e+001,4.8992699315e+000,5.7535034924e+000,4.4601052275e+000,8.6456305565e+000,7.1175532124e+000,5.2652687744e+000,6.1436664343e+000,5.9577829763e+000,
2.1281250000e+001,5.7794238649e+000,5.9917072212e+000,5.5992219611e+000,6.1588891643e+000,5.5744743117e+000,1.2093762740e+001,4.8901163859e+000,5.8229032105e+000,4.3683469710e+000,8.6700255348e+000,7.1250773213e+000,5.3154914247e+000,6.1152535254e+000,5.9558718165e+000,
2.1375000000e+001,5.7609829491e+000,5.9821596618e+000,5.6015579842e+000,6.1459091630e+000,5.5589920295e+000,1.2167536311e+001,4.8786605900e+000,5.9408749131e+000,4.3637226138e+000,8.6815730800e+000,7.1258089720e+000,5.3745900414e+000,6.0200022791e+000,5.9290321335e+000,
2.1468750000e+001,5.7931497520e+000,6.0062817782e+000,5.6491113682e+000,6.0907606955e+000,5.5864669111e+000,1.2362330172e+001,4.8970287867e+000,6.0434712860e+000,4.3744290383e+000,8.7715019297e+000,6.9744709471e+000,5.3696382137e+000,5.9645189494e+000,5.9248535778e+000,
2.1562500000e+001,5.7859492409e+000,5.9990203671e+000,5.6788381152e+000,6.0513059343e+000,5.5757177261e+000,1.2372631361e+001,4.8906837912e+000,6.1120311490e+000,4.4044229490e+000,8.8041882048e+000,6.9176555890e+000,5.3641733567e+000,5.9701341917e+000,5.9233504014e+000,
2.1656250000e+001,5.7939024413e+000,6.0041743169e+000,5.6648068261e+000,6.0511661362e+000,5.5850362557e+000,1.2361203196e+001,4.8889267384e+000,6.1397106577e+000,4.4386647202e+000,8.8021231980e+000,6.9422828295e+000,5.3687834966e+000,6.0990467610e+000,5.9238956986e+000,
2.1750000000e+001,5.6366683380e+000,5.8483334634e+000,5.5274438585e+000,5.8931304485e+000,5.3892593722e+000,1.2320458870e+001,4.8608595275e+000,6.1985206719e+000,3.8833416870e+000,8.8132781203e+000,7.3939087657e+000,5.3515953487e+000,6.5696955460e+000,5.7490030847e+000,
2.1843750000e+001,5.1469370760e+000,5.3797712104e+000,5.0883897719e+000,5.3849136752e+000,4.8813719720e+000,1.2262931931e+001,4.2815879689e+000,6.1129051275e+000,3.1768183816e+000,8.6961310832e+000,7.2071922361e+000,5.1043226993e+000,6.5586151624e+000,5.2254383313e+000,
2.1937500000e+001,4.5772299119e+000,4.7691874605e+000,4.5477131948e+000,4.7487370103e+000,4.3368386893e+000,1.2299779360e+001,3.6241475579e+000,5.9954708510e+000,3.2068517568e+000,8.6967452234e+000,7.0197127666e+000,4.7684751509e+000,6.9485432694e+000,4.5332270819e+000,
2.2031250000e+001,4.4325752156e+000,4.5909362969e+000,4.3984034991e+000,4.5277666930e+000,4.1834500243e+000,1.2334460130e+001,3.4291249088e+000,5.9784519280e+000,3.2514185849e+000,8.7157046813e+000,6.9856126336e+000,4.6952577486e+000,6.9442240237e+000,4.3344680272e+000,
2.2125000000e+001,4.2117479061e+000,4.3437922331e+000,4.1967117171e+000,4.2828489081e+000,3.9469580700e+000,1.2333906051e+001,3.3083358839e+000,5.8358938166e+000,3.2831718058e+000,8.6861836627e+000,6.9643326651e+000,4.3567028005e+000,6.9323887685e+000,4.0109587980e+000,
2.2218750000e+001,4.1440816294e+000,4.2599573583e+000,4.1144287744e+000,4.1627663993e+000,4.5178228900e+000,1.2346820319e+001,3.2603387091e+000,5.7200344169e+000,3.2972082401e+000,8.6716308435e+000,6.9578909523e+000,4.3445458180e+000,6.9282776218e+000,3.8315213056e+000,
2.2312500000e+001,6.3262472103e+000,6.5592715013e+000,6.3082082983e+000,6.6220807674e+000,6.1165358993e+000,1.2299171281e+001,4.7201104575e+000,6.5158254043e+000,6.3473203578e+000,8.8943740443e+000,8.5322999378e+000,5.8921928057e+000,1.0789097029e+001,6.2574900102e+000,
2.2406250000e+001,6.5658106355e+000,6.8070155773e+000,6.5182682642e+000,6.8714159079e+000,6.3625108717e+000,1.1975682419e+001,5.1224647048e+000,6.5361098971e+000,6.5817263973e+000,8.7594657031e+000,9.6455635931e+000,6.0918253357e+000,1.1006618001e+001,6.4660324374e+000,
2.2500000000e+001,6.6447185751e+000,6.8818024575e+000,6.5835529720e+000,6.9477095549e+000,6.4376418392e+000,1.1960781570e+001,5.3356638752e+000,6.6563132704e+000,6.6513551561e+000,8.8305661236e+000,9.7230172528e+000,6.1480768752e+000,1.1014718176e+001,6.5157351398e+000,
2.2593750000e+001,6.7158345229e+000,6.9368584131e+000,6.6197777204e+000,7.0020806125e+000,6.5205610330e+000,1.2075603122e+001,5.4036548798e+000,6.7081892214e+000,6.6776747430e+000,9.0219862667e+000,9.7683914383e+000,6.2120847191e+000,1.1015813446e+001,6.5706097697e+000,
2.2687500000e+001,6.7670615176e+000,6.9878910112e+000,6.6665440207e+000,7.0506959972e+000,6.5611113574e+000,1.2049530129e+001,5.4310063402e+000,6.6968541527e+000,6.6739708618e+000,9.0315885039e+000,1.0008906652e+001,6.2494879840e+000,1.1017387558e+001,6.6231434588e+000,
2.2781250000e+001,6.7745508577e+000,6.9947458880e+000,6.6702080445e+000,7.0588566313e+000,6.5898291737e+000,1.2017594994e+001,5.4328822749e+000,6.6813178026e+000,6.6833706252e+000,9.0423360293e+000,1.0614587016e+001,6.2490238677e+000,1.1021034129e+001,6.6323767620e+000,
2.2875000000e+001,6.7715245481e+000,6.9898129268e+000,6.6644686851e+000,7.0574158566e+000,6.5864641452e+000,1.2079536239e+001,5.4340039988e+000,6.7111187903e+000,6.6843687573e+000,9.1020690198e+000,1.0648661265e+001,6.2537589675e+000,1.1017512706e+001,6.6333293411e+000,
2.2968750000e+001,6.7625163956e+000,6.9865436178e+000,6.6592518982e+000,7.0538419095e+000,6.5814771076e+000,1.2197803725e+001,5.4440189257e+000,6.7609866568e+000,6.6817576937e+000,9.2844472312e+000,1.0650562298e+001,6.2708546654e+000,1.1019778445e+001,6.6335820302e+000,
2.3062500000e+001,6.7658542659e+000,6.9868917620e+000,6.6593296137e+000,7.0554519561e+000,6.5824159231e+000,1.2179611609e+001,5.4557473010e+000,6.7689155293e+000,6.6812064257e+000,9.3025323864e+000,1.0651837183e+001,6.2766609623e+000,1.1021247653e+001,6.6330062944e+000,
2.3156250000e+001,6.7646348172e+000,6.9854662662e+000,6.6580844599e+000,7.0543902994e+000,6.5802678085e+000,1.2088759809e+001,5.4589179177e+000,6.7681516826e+000,6.6787324995e+000,9.2709898753e+000,1.0666093154e+001,6.2753529155e+000,1.1022505154e+001,6.6382273177e+000,
2.3250000000e+001,6.7554050938e+000,6.9773345128e+000,6.6497188764e+000,7.0488385318e+000,6.7130475617e+000,1.2070113250e+001,5.4660728005e+000,6.7642724183e+000,6.6701738758e+000,9.3553883355e+000,1.1905013466e+001,6.2824326773e+000,1.1042297778e+001,6.6454350769e+000,
2.3343750000e+001,5.6281705353e+000,5.7694458555e+000,5.3646923512e+000,5.8221361898e+000,6.1918161365e+000,1.2010672148e+001,4.9352439615e+000,5.9280538350e+000,4.9903924804e+000,9.1569393379e+000,1.2199706731e+001,5.1968558742e+000,8.8539782318e+000,5.4111800144e+000,
2.3437500000e+001,5.3368520555e+000,5.4127681481e+000,5.0578450004e+000,5.4712135364e+000,6.0695402545e+000,1.1912344512e+001,4.4484124720e+000,5.8308889199e+000,4.6070365902e+000,9.1189370180e+000,1.2176719972e+001,4.8618329031e+000,8.3280120110e+000,5.1513941079e+000,
2.3531250000e+001,4.9399610959e+000,5.0555505205e+000,4.6264700075e+000,5.1247687874e+000,5.9401809833e+000,1.1414334590e+001,3.7116494314e+000,5.5747335855e+000,3.5016347245e+000,8.9540475559e+000,1.2172912412e+001,4.7128383048e+000,8.2328848963e+000,5.0185143499e+000,
2.3625000000e+001,4.3133690976e+000,4.4225599657e+000,4.0387217491e+000,4.5147330752e+000,5.7843014581e+000,1.1201381750e+001,3.3705815702e+000,5.2710485611e+000,3.5397866305e+000,8.6962003384e+000,1.2167591853e+001,4.1865411109e+000,8.2158228049e+000,4.4941111758e+000,
2.3718750000e+001,3.8179916952e+000,3.9390846095e+000,3.5763903519e+000,3.9909787335e+000,5.7087293533e+000,1.1244529274e+001,3.1243694888e+000,5.1876049913e+000,3.7091904821e+000,8.6880139527e+000,1.2090926341e+001,4.0820326408e+000,8.1491523011e+000,4.2618220566e+000,
2.3812500000e+001,3.7559458816e+000,3.9174721056e+000,3.6048146706e+000,3.9901824520e+000,5.6649478896e+000,1.1098999531e+001,3.1335159573e+000,5.0997198483e+000,3.5496745015e+000,8.5566492928e+000,1.2034050167e+001,4.0662135446e+000,7.9591021546e+000,4.2168895985e+000,
2.3906250000e+001,3.7285576350e+000,3.9193041494e+000,3.6096587580e+000,3.9890112690e+000,5.6562450375e+000,1.0532714291e+001,3.0477594999e+000,4.7048774293e+000,3.5177741428e+000,8.3350286692e+000,1.2027742191e+001,3.9249677269e+000,7.9092047265e+000,4.1924781336e+000,
2.4000000000e+001,3.8985954158e+000,4.1305491515e+000,3.7058603873e+000,4.2007736020e+000,5.6639466680e+000,9.9223065826e+000,2.9090596715e+000,4.4241773613e+000,3.6383246895e+000,7.8244659584e+000,1.2027615369e+001,3.7779024038e+000,7.8267247819e+000,4.1882610902e+000,
2.4093750000e+001,3.8255883890e+000,4.1054792082e+000,3.6492483230e+000,4.1750429043e+000,5.6591837134e+000,9.9108689749e+000,2.8031215224e+000,4.3331359091e+000,3.6383311986e+000,7.7702212839e+000,1.2026113481e+001,3.7195646506e+000,7.7956455954e+000,4.1667720785e+000,
2.4187500000e+001,3.8457608547e+000,4.1764005528e+000,3.6818906205e+000,4.2913304224e+000,5.3597532825e+000,9.9645850351e+000,2.6293400646e+000,4.3414923668e+000,3.6626436719e+000,7.6669082377e+000,1.1578131299e+001,3.7277495886e+000,7.7020337256e+000,4.0993735024e+000,
2.4281250000e+001,4.1667628451e+000,4.3488218358e+000,3.9294833043e+000,4.5317176455e+000,4.6842210996e+000,1.0081090259e+001,2.7246226890e+000,4.4277643815e+000,3.9776435673e+000,7.1004820495e+000,1.0625210529e+001,3.8276402576e+000,5.6928030832e+000,4.1449276707e+000,
2.4375000000e+001,4.4404803846e+000,4.6595144706e+000,4.2298051335e+000,4.7779366480e+000,3.8546653444e+000,1.0047579715e+001,2.8623397072e+000,4.5466123306e+000,4.3293306097e+000,6.7982798552e+000,7.2518767519e+000,3.9998618618e+000,4.5053500503e+000,4.3611080138e+000,
2.4468750000e+001,4.4714332956e+000,4.7124349569e+000,4.2387434642e+000,4.8025489306e+000,3.9331250257e+000,9.5891478737e+000,2.9381334148e+000,4.1878986529e+000,4.3156466015e+000,6.3094990482e+000,4.0392829835e+000,3.9555052302e+000,4.3493458072e+000,4.2294625584e+000,
2.4562500000e+001,4.4521490928e+000,4.6695693593e+000,4.2380756611e+000,4.7598959065e+000,3.9335998572e+000,9.5025124098e+000,3.0615735216e+000,4.1063916214e+000,4.2754351513e+000,6.2248165233e+000,2.5395407606e+000,3.9216103974e+000,4.2774060732e+000,4.1688864567e+000,
2.4656250000e+001,4.4398376224e+000,4.6735765157e+000,4.2282891191e+000,4.7753290733e+000,3.9165492177e+000,9.2187762916e+000,3.0746577373e+000,3.9887901087e+000,4.2435368952e+000,6.0353857358e+000,2.4276066003e+000,3.9110183696e+000,4.2429776319e+000,4.1658085150e+000,
2.4750000000e+001,4.3854987510e+000,4.5775976562e+000,4.1219686366e+000,4.7058212101e+000,3.8847759879e+000,9.0148634653e+000,3.0306999154e+000,4.0093736192e+000,4.1217403376e+000,5.9563974784e+000,2.3811138398e+000,3.8961709950e+000,4.1843357231e+000,4.1152800905e+000,
2.4843750000e+001,4.3926816083e+000,4.5744704904e+000,4.1294150575e+000,4.6996693795e+000,3.9093302509e+000,9.0053593718e+000,3.0883145151e+000,4.0270580467e+000,4.0943405202e+000,5.9671720103e+000,2.3975037404e+000,3.8965622103e+000,4.1825501531e+000,4.0914963710e+000,
2.4937500000e+001,4.3917660820e+000,4.5772146532e+000,4.1387578555e+000,4.6941805280e+000,3.9149285679e+000,8.9395079182e+000,3.0926857227e+000,4.0404290641e+000,4.0700649434e+000,5.9362277352e+000,2.4544229752e+000,3.8953267303e+000,4.1757669476e+000,4.0845529248e+000,
2.5031250000e+001,4.3572615127e+000,4.5288029146e+000,4.1738895650e+000,4.6457187892e+000,3.9263613835e+000,8.9338478354e+000,3.2084283507e+000,4.0176435728e+000,4.0886037420e+000,5.9775115896e+000,2.5033595378e+000,3.9017619329e+000,4.1892259575e+000,4.0899859315e+000,
2.5125000000e+001,4.3779016576e+000,4.5320751271e+000,4.2180776355e+000,4.6642575733e+000,3.9484378088e+000,8.8696357564e+000,3.2548728739e+000,4.0414541974e+000,4.1308796164e+000,6.0095010569e+000,2.4765096774e+000,3.9235567616e+000,4.2277359509e+000,4.1207303672e+000,
2.5218750000e+001,4.3169023775e+000,4.5716520110e+000,4.2082010585e+000,4.5999817851e+000,3.9364649838e+000,8.4697698255e+000,3.2539428793e+000,4.0545947941e+000,4.0975809270e+000,5.7532898567e+000,2.4610476629e+000,3.8111319558e+000,4.2421771270e+000,4.0901697454e+000,
2.5312500000e+001,3.9308906785e+000,4.3680272634e+000,3.8088612435e+000,4.3739571228e+000,3.6484901477e+000,8.2339693860e+000,3.0642497781e+000,3.7966510365e+000,3.6647385480e+000,5.3579626742e+000,2.1785581184e+000,3.4836369184e+000,3.8549919874e+000,3.7558293442e+000,
2.5406250000e+001,3.5736619543e+000,4.0118395412e+000,3.4612367451e+000,4.0112419123e+000,3.3376332661e+000,8.2453242029e+000,3.0644443437e+000,3.5206784444e+000,3.0865963806e+000,5.1048408749e+000,2.1081957459e+000,3.0618112787e+000,3.3992158425e+000,3.3487263762e+000,
2.5500000000e+001,3.5555174272e+000,3.9378677297e+000,3.3804090694e+000,3.9487724225e+000,3.3489211256e+000,8.0585222737e+000,2.9707896262e+000,3.5301026556e+000,3.0540154326e+000,5.0616752610e+000,2.0050247028e+000,3.0377411001e+000,3.4121264750e+000,3.3944022024e+000,
2.5593750000e+001,3.5393811789e+000,3.9090677396e+000,3.3921485499e+000,3.9208749690e+000,3.3206783746e+000,8.1639135973e+000,2.8402461958e+000,3.5223572814e+000,3.0686774428e+000,5.1490091992e+000,2.0894901127e+000,3.0429872840e+000,3.4195119293e+000,3.4104395529e+000,
2.5687500000e+001,3.5852365086e+000,3.9942780377e+000,3.4950877596e+000,4.0133056682e+000,3.3973847823e+000,8.4891152817e+000,2.8252905115e+000,3.5366972467e+000,3.3000282005e+000,5.4123256210e+000,2.1296519723e+000,3.1116100782e+000,3.5169016354e+000,3.5585958081e+000,
2.5781250000e+001,3.6334058989e+000,4.1428045649e+000,3.5794880519e+000,4.1016070818e+000,3.4015599850e+000,8.6258774746e+000,2.7023025847e+000,3.5601804498e+000,3.5060031754e+000,5.4527631753e+000,2.1550269391e+000,3.0052195917e+000,3.4862142892e+000,3.4718203763e+000,
2.5875000000e+001,3.5358416991e+000,4.1896078263e+000,3.4967177524e+000,4.1389363451e+000,3.3421759938e+000,8.7052123942e+000,2.5713886913e+000,3.5073472216e+000,3.5018076500e+000,5.4412180949e+000,2.1776680215e+000,2.9895510637e+000,3.4691482012e+000,3.4627253700e+000,
2.5968750000e+001,3.4731244186e+000,4.1587254292e+000,3.4522230256e+000,4.1036625403e+000,3.2668259519e+000,8.7076090600e+000,2.4119201267e+000,3.4074691007e+000,3.4941239583e+000,5.4297300537e+000,2.0430924357e+000,2.9834484271e+000,3.4361047719e+000,3.4502917525e+000,
2.6062500000e+001,3.3940833749e+000,4.0171971291e+000,3.2180421878e+000,4.0012717791e+000,3.1867902954e+000,8.6122161432e+000,2.2484186780e+000,3.2628806174e+000,3.2693191013e+000,5.2853156190e+000,1.8361909150e+000,2.8977994137e+000,3.2885288194e+000,3.4237192530e+000,
2.6156250000e+001,3.3519625697e+000,4.0139653814e+000,3.1486470751e+000,3.9775932997e+000,3.1124159904e+000,8.5764428093e+000,2.2139162678e+000,3.2601041914e+000,3.1516446527e+000,5.2430080687e+000,1.7946778737e+000,2.9111360742e+000,3.1580195224e+000,3.4413331101e+000,
2.6250000000e+001,3.2381076062e+000,3.7982607424e+000,2.9748338246e+000,3.7310159589e+000,3.0250111206e+000,8.5400966716e+000,2.2689847933e+000,3.0272301160e+000,3.0414068518e+000,5.1667112139e+000,1.8242405906e+000,2.7948788435e+000,2.9250648531e+000,3.3655221033e+000,
2.6343750000e+001,3.1244780820e+000,3.6226673727e+000,2.9394238901e+000,3.5582044057e+000,2.9909024228e+000,8.5344281131e+000,2.1907393544e+000,2.9078263489e+000,2.9980372853e+000,5.1359954325e+000,1.7864626048e+000,2.8499844669e+000,2.9397663194e+000,3.4329403817e+000,
2.6437500000e+001,3.0083002482e+000,3.6639877426e+000,2.9272726477e+000,3.5747433121e+000,2.9463055341e+000,8.5843245464e+000,1.9339867030e+000,2.9338772223e+000,2.9918346059e+000,5.1786912422e+000,1.7924580759e+000,2.9749252671e+000,2.9959299873e+000,3.5594630886e+000,
2.6531250000e+001,2.9513562677e+000,3.7329722095e+000,2.9384996412e+000,3.5905910572e+000,2.8986686675e+000,8.6180679269e+000,1.9678196300e+000,2.9473119573e+000,2.9618625797e+000,5.1448459785e+000,1.8196967668e+000,3.0228416475e+000,2.8696843007e+000,3.5091150345e+000,
2.6625000000e+001,2.9810866442e+000,3.7773275236e+000,2.9686311056e+000,3.6209394039e+000,2.9447245712e+000,8.3918371889e+000,2.1195125088e+000,2.9850581157e+000,2.9512134053e+000,4.8953130411e+000,1.6613896250e+000,3.0811388508e+000,2.8587055158e+000,3.4765037480e+000,
2.6718750000e+001,2.8801200624e+000,3.6249668429e+000,2.7684407620e+000,3.4252955177e+000,2.6081098759e+000,8.2912151740e+000,2.1139461973e+000,2.8135579779e+000,2.5476518992e+000,4.7957247283e+000,1.5835278625e+000,2.9759737549e+000,2.6274950959e+000,3.3558558671e+000,
2.6812500000e+001,2.8110858387e+000,3.3733024298e+000,2.6345140508e+000,3.2857492799e+000,2.4622302106e+000,8.6840349902e+000,2.1013860893e+000,2.6679616094e+000,1.9334703278e+000,5.2688438140e+000,1.3905366207e+000,3.0617430572e+000,2.5499456052e+000,3.3847566269e+000,
2.6906250000e+001,2.8977007292e+000,3.2622309852e+000,2.7467418463e+000,3.1271748048e+000,2.5073793084e+000,8.6604104307e+000,2.0978965913e+000,2.8257522257e+000,1.9792669738e+000,5.3203976042e+000,1.5330552432e+000,3.0958426356e+000,2.6451876250e+000,3.4631125695e+000,
2.7000000000e+001,2.9649589847e+000,3.2644400164e+000,2.7755245391e+000,3.1271617869e+000,2.5481542081e+000,8.6566530851e+000,2.1204210967e+000,2.8292707033e+000,2.0113935721e+000,5.3204339795e+000,1.6141853522e+000,3.1044174645e+000,2.6703811706e+000,3.5060031155e+000,
2.7093750000e+001,2.9182288222e+000,3.2148763170e+000,2.7615307581e+000,3.0591840061e+000,2.4871416192e+000,8.7084433056e+000,2.0653479283e+000,2.8680188294e+000,2.0269995499e+000,5.3782986397e+000,1.6142475412e+000,2.9980699152e+000,2.6634475998e+000,3.3589390194e+000,
2.7187500000e+001,2.9632211041e+000,3.3300196586e+000,2.7582093876e+000,3.2341701956e+000,2.4907874319e+000,8.9616470938e+000,2.1260131504e+000,3.0122793119e+000,1.9702512299e+000,5.6191356410e+000,1.5958155311e+000,2.9245029273e+000,2.6687651711e+000,3.2781874421e+000,
2.7281250000e+001,2.9337573204e+000,3.3738424121e+000,2.7230037385e+000,3.2738586902e+000,2.5158445185e+000,9.0085793889e+000,1.9452231659e+000,3.0373787367e+000,1.9850980748e+000,5.6502669877e+000,1.4646295671e+000,2.8600994747e+000,2.6762441053e+000,3.2138887366e+000,
2.7375000000e+001,3.0061423856e+000,3.4584044881e+000,2.8286849028e+000,3.4345583199e+000,2.5510780655e+000,9.0036960927e+000,1.9237000049e+000,3.0853553201e+000,2.2323942803e+000,5.6658005327e+000,1.5594910494e+000,2.9169107323e+000,2.7715374669e+000,3.1618475430e+000,
2.7468750000e+001,3.0940420016e+000,3.4408404038e+000,2.8218456628e+000,3.4380563869e+000,2.5617714390e+000,8.9425622292e+000,1.8720229674e+000,3.1299480265e+000,2.2371417665e+000,5.6062970653e+000,1.5397588600e+000,2.7574502602e+000,2.6733810355e+000,2.9897263926e+000,
2.7562500000e+001,3.0880246725e+000,3.3918762680e+000,2.8096019536e+000,3.4250831367e+000,2.5439523486e+000,8.9289617633e+000,1.7933967612e+000,3.0826445803e+000,2.3073810286e+000,5.5798690813e+000,1.5555116134e+000,2.7260286924e+000,2.7781938694e+000,2.9708279708e+000,
2.7656250000e+001,3.0653937513e+000,3.3732861075e+000,2.8058307685e+000,3.4711132929e+000,2.4679153609e+000,8.8882784711e+000,1.6266950808e+000,3.0580411162e+000,2.3701208131e+000,5.5355388522e+000,1.5779303281e+000,2.6409969327e+000,2.8324064026e+000,3.1068584247e+000,
2.7750000000e+001,3.0490148917e+000,3.5131464557e+000,2.7805597200e+000,3.5854112446e+000,2.4553116028e+000,8.7952170739e+000,1.5646924594e+000,3.0996917754e+000,2.3500775100e+000,5.4981147025e+000,1.5724840366e+000,2.6869963301e+000,2.7719606838e+000,3.1127174609e+000,
2.7843750000e+001,3.0173045789e+000,3.4867590672e+000,2.6877145963e+000,3.5371379263e+000,2.5056801204e+000,8.3951561862e+000,1.5796260812e+000,3.0228272549e+000,2.3164036638e+000,5.1599089930e+000,1.5567390223e+000,2.6123650762e+000,2.7009126312e+000,3.0614292785e+000,
2.7937500000e+001,3.0169737137e+000,3.6308008106e+000,2.5239838043e+000,3.6603714976e+000,2.5726756727e+000,8.3358704368e+000,1.5602705752e+000,3.0681385955e+000,2.2718615684e+000,5.1372666128e+000,1.5731351302e+000,2.6676982648e+000,2.7011451123e+000,3.1011571386e+000,
2.8031250000e+001,2.9537569118e+000,3.6111953239e+000,2.4466284821e+000,3.6603542617e+000,2.5068900914e+000,8.3117211665e+000,1.4396199726e+000,3.0518301594e+000,2.2100255558e+000,5.1519977464e+000,1.5733687618e+000,2.6757034708e+000,2.6530288589e+000,3.0745647539e+000,
2.8125000000e+001,2.9014527764e+000,3.6573435679e+000,2.4328129962e+000,3.6798341801e+000,2.5164760179e+000,8.2100242210e+000,1.1413736805e+000,2.9780573187e+000,2.1815092905e+000,5.0863177134e+000,1.5551062971e+000,2.6717133585e+000,2.6375169455e+000,3.1052927282e+000,
2.8218750000e+001,3.0555791738e+000,3.6995825798e+000,2.5615907737e+000,3.6585364257e+000,2.6072365042e+000,8.2549938199e+000,1.3420386715e+000,2.9342152587e+000,2.1711541244e+000,5.1203373188e+000,1.5928622131e+000,2.6831371097e+000,2.6319267046e+000,3.0708655718e+000,
2.8312500000e+001,3.1222765503e+000,3.7376891802e+000,2.5280778334e+000,3.6639612163e+000,2.6170173487e+000,8.1621906718e+000,1.3924804395e+000,2.9471406300e+000,2.1048203641e+000,5.0659995804e+000,1.5905605383e+000,2.7192210198e+000,2.4836116731e+000,3.0079171892e+000,
2.8406250000e+001,3.1205027183e+000,3.7150777860e+000,2.5738385056e+000,3.6399984635e+000,2.5660689646e+000,8.0920265084e+000,1.4070727405e+000,2.8940575388e+000,1.8010185465e+000,4.9984837231e+000,1.4784744012e+000,2.6756998942e+000,2.5864346678e+000,3.1498846338e+000,
2.8500000000e+001,3.0178255501e+000,3.6995510442e+000,2.4944376607e+000,3.6219969007e+000,2.5417560953e+000,8.0658975254e+000,1.4921410003e+000,2.9085151792e+000,1.8372919514e+000,5.0079725242e+000,1.5072975091e+000,2.7526386718e+000,2.6298491540e+000,3.2701087139e+000,
2.8593750000e+001,3.0267375716e+000,3.7354350553e+000,2.4686807099e+000,3.6690780878e+000,2.5368324528e+000,8.0425313934e+000,1.7770266385e+000,2.9670553480e+000,1.6601779888e+000,5.0473073524e+000,1.4912115535e+000,2.8182707165e+000,2.5386753054e+000,3.3367909846e+000,
2.8687500000e+001,3.0147478545e+000,3.6962366059e+000,2.4760622504e+000,3.6125081048e+000,2.5568320455e+000,8.0591099796e+000,1.9311268619e+000,2.9101769029e+000,1.4974664307e+000,5.0320345133e+000,1.4181844467e+000,2.8072379581e+000,2.5371743811e+000,3.2129587221e+000,
2.8781250000e+001,3.0654111638e+000,3.6087274820e+000,2.6054309433e+000,3.5381421551e+000,2.5505127225e+000,8.0779970374e+000,1.9627975095e+000,2.9412689162e+000,1.4767808071e+000,5.0280133782e+000,1.5396590287e+000,2.7616891247e+000,2.4387856994e+000,3.1301325426e+000,
2.8875000000e+001,3.0860290271e+000,3.6030367805e+000,2.6457783778e+000,3.5589094599e+000,2.4915804847e+000,8.0473846717e+000,1.9755222557e+000,2.9593332937e+000,1.4562426005e+000,5.0070620874e+000,1.4411065566e+000,2.7079387901e+000,2.4424084360e+000,3.1165845117e+000,
2.8968750000e+001,3.0557265214e+000,3.4270096254e+000,2.7675844094e+000,3.4075071897e+000,2.4078290998e+000,8.0611966945e+000,1.9547010213e+000,2.8096704885e+000,1.3489816288e+000,5.0144006648e+000,1.4527233553e+000,2.6383066292e+000,2.3633716984e+000,3.0515135863e+000,
2.9062500000e+001,3.2157130757e+000,3.4409376280e+000,2.7962087324e+000,3.4414911679e+000,2.5479099047e+000,8.0353687618e+000,2.2386477418e+000,2.8711170985e+000,1.5185661749e+000,5.0222847592e+000,1.4701892059e+000,2.7691271325e+000,2.4122704722e+000,3.1612514332e+000,
2.9156250000e+001,3.3087918277e+000,3.5930382681e+000,2.9677442658e+000,3.5680163114e+000,2.6338681585e+000,7.5157795739e+000,2.3309010275e+000,2.9859984509e+000,1.8057456792e+000,4.7912916620e+000,1.6110986321e+000,2.8989257351e+000,2.6754378054e+000,3.3754987413e+000,
2.9250000000e+001,3.1647439059e+000,3.5071279613e+000,2.9527206834e+000,3.5214015007e+000,2.6047711401e+000,7.4033122015e+000,2.2814779587e+000,2.9365352508e+000,1.8670618272e+000,4.7306814515e+000,1.7021154508e+000,2.8929392002e+000,2.6994994837e+000,3.4087823453e+000,
2.9343750000e+001,3.2666916888e+000,3.4898094621e+000,3.0109901873e+000,3.5463708331e+000,2.6665981871e+000,7.4912074891e+000,2.2887516065e+000,2.9832891386e+000,1.9296502919e+000,4.8031560701e+000,1.6876977049e+000,2.9443613711e+000,2.6958938376e+000,3.4558173553e+000,
2.9437500000e+001,3.2909515814e+000,3.5213118194e+000,2.9968212342e+000,3.5504583861e+000,2.7254240364e+000,7.5419867302e+000,2.3263557349e+000,3.0511865389e+000,1.9745356693e+000,4.7841477319e+000,1.7542441016e+000,2.9720003901e+000,2.7217798925e+000,3.4641096372e+000,
2.9531250000e+001,3.4455766141e+000,3.6354086949e+000,3.0393768963e+000,3.5947704601e+000,2.8404246124e+000,7.5603804542e+000,2.1779825804e+000,3.0587558795e+000,2.0854653131e+000,4.7858446857e+000,1.7387141064e+000,2.9684892186e+000,2.7119063479e+000,3.3875451659e+000,
2.9625000000e+001,3.4805546778e+000,3.6713530967e+000,3.0442003565e+000,3.6197666358e+000,2.8736521443e+000,7.6934867718e+000,2.1623384521e+000,3.0585792114e+000,2.2253018357e+000,4.8925278297e+000,1.8589998875e+000,3.0145593815e+000,2.7632495119e+000,3.4378223682e+000,
2.9718750000e+001,3.4754258245e+000,3.7235572806e+000,3.0670666235e+000,3.6566678310e+000,2.8732712596e+000,7.6328887335e+000,2.0326946994e+000,3.0423019072e+000,2.2573150941e+000,4.8955638499e+000,1.9469085072e+000,3.0453664888e+000,2.8397806679e+000,3.5038658357e+000,
2.9812500000e+001,3.4731590252e+000,3.7769026780e+000,3.0621081491e+000,3.7216341459e+000,2.9648319537e+000,7.6492444657e+000,2.1060231037e+000,3.1117972697e+000,2.7586826462e+000,4.9095625662e+000,1.9507327534e+000,3.1288757827e+000,2.9652346412e+000,3.5382381726e+000,
2.9906250000e+001,3.5628571758e+000,3.8965597308e+000,3.1125842180e+000,3.8768977019e+000,3.0875409728e+000,7.7785180976e+000,2.0964722516e+000,3.2009724467e+000,2.9597141216e+000,5.0091441583e+000,2.2432425269e+000,3.1505276823e+000,3.0952644065e+000,3.5642101729e+000,
3.0000000000e+001,3.6123687192e+000,4.0204308815e+000,3.2981842188e+000,4.0201220637e+000,3.1910189481e+000,7.9883149350e+000,2.0059703211e+000,3.2381473925e+000,3.1445547072e+000,5.1130488609e+000,2.3181174435e+000,3.2073936043e+000,3.2732381908e+000,3.6096512500e+000,
3.0093750000e+001,3.4995056048e+000,3.9571145724e+000,3.2052937225e+000,3.9535008587e+000,3.1163089958e+000,8.2548134676e+000,1.8249657059e+000,3.1962556461e+000,3.1330437791e+000,5.2083437816e+000,2.3522556446e+000,3.1811659383e+000,3.3496862784e+000,3.5835488426e+000,
3.0187500000e+001,3.4331186775e+000,3.8094963293e+000,3.1512290795e+000,3.8572372058e+000,3.0602114430e+000,8.5363236884e+000,1.7898680526e+000,3.0914179615e+000,3.0948457141e+000,5.3180986055e+000,2.3207424333e+000,3.0761972804e+000,3.2353370452e+000,3.4501506521e+000,
3.0281250000e+001,3.3731621527e+000,3.7751397980e+000,3.0465994210e+000,3.7945391793e+000,2.9881832436e+000,8.5855364382e+000,1.8851112315e+000,3.0393243358e+000,3.0804277368e+000,5.3280586628e+000,2.2904125398e+000,3.0889560398e+000,3.2292298191e+000,3.3998856959e+000,
3.0375000000e+001,3.3718188255e+000,3.8085153022e+000,3.0818492419e+000,3.7940083716e+000,3.0419422309e+000,8.6447637804e+000,1.8089441031e+000,3.0390274657e+000,3.1143279930e+000,5.3436605459e+000,2.4100069369e+000,2.9831012308e+000,3.2510654499e+000,3.2874808720e+000,
3.0468750000e+001,3.4118431897e+000,3.8546762346e+000,3.3485551547e+000,3.8689279880e+000,3.0953137330e+000,8.7029197477e+000,1.8540166579e+000,3.0931609797e+000,3.2165043838e+000,5.3337354218e+000,2.5506747304e+000,3.0256406845e+000,3.2493164426e+000,3.3175404099e+000,
3.0562500000e+001,3.5104746879e+000,3.8468963379e+000,3.4246930002e+000,3.9088256559e+000,3.1589663505e+000,8.7363403086e+000,1.9937372054e+000,3.1750357516e+000,3.2938713600e+000,5.4031293494e+000,2.6056411941e+000,3.1203079969e+000,3.4867072183e+000,3.4992714110e+000,
3.0656250000e+001,3.9316803784e+000,4.3188638497e+000,3.8529410744e+000,4.3874802227e+000,3.5159245092e+000,9.0756262884e+000,2.2846446298e+000,3.6169925666e+000,3.6409789110e+000,5.8083085098e+000,2.7071850130e+000,3.4038885311e+000,3.8041148193e+000,3.8841344695e+000,
3.0750000000e+001,3.9214687244e+000,4.2946826142e+000,3.8452838854e+000,4.3733108990e+000,3.4834681341e+000,9.1266024326e+000,2.3013044278e+000,3.6377442051e+000,3.5928685247e+000,5.8655563615e+000,2.6832380318e+000,3.4728564835e+000,3.7977578426e+000,3.9184840567e+000,
3.0843750000e+001,3.8994166554e+000,4.2493023541e+000,3.8167810111e+000,4.3322794696e+000,3.3926548879e+000,9.4015999238e+000,2.3330776780e+000,3.5871165313e+000,3.4344598820e+000,6.1023536994e+000,2.5955378910e+000,3.4668027140e+000,3.7963270657e+000,3.9357585078e+000,
3.0937500000e+001,3.7930718110e+000,4.1449622111e+000,3.7073728260e+000,4.2237883185e+000,3.2880951196e+000,9.4888098866e+000,2.4501323905e+000,3.5207027186e+000,3.2711186049e+000,6.1914752102e+000,2.3425482623e+000,3.4401831688e+000,3.7731772965e+000,3.9500315465e+000,
3.1031250000e+001,3.8123157441e+000,4.1441408494e+000,3.6975670909e+000,4.2102702869e+000,3.2922696400e+000,9.4916748608e+000,2.5103817602e+000,3.5176956927e+000,3.2429409958e+000,6.1693999784e+000,2.3276873263e+000,3.3850005328e+000,3.6854818386e+000,3.8860350958e+000,
3.1125000000e+001,3.8386946274e+000,4.1531517288e+000,3.7041368729e+000,4.2232707739e+000,3.3166588277e+000,9.3782236790e+000,2.4645816868e+000,3.5182390640e+000,3.2632041284e+000,6.0965092939e+000,2.2584561807e+000,3.4063008589e+000,3.7383101050e+000,3.8702924430e+000,
3.1218750000e+001,3.8883483570e+000,4.2676573716e+000,3.7032629384e+000,5.2797596370e+000,3.3786342598e+000,9.3326161827e+000,2.4277590116e+000,3.5299894958e+000,3.2982801938e+000,6.0623583500e+000,2.2373835850e+000,3.3752314578e+000,3.7647554112e+000,3.8793907551e+000,
3.1312500000e+001,3.9603478310e+000,4.4181073378e+000,3.7680909784e+000,5.5595362637e+000,3.4335948227e+000,9.3049841320e+000,2.4319524877e+000,3.6139212716e+000,3.4024782197e+000,6.0405974284e+000,2.3021694044e+000,3.5064460258e+000,3.8616501152e+000,3.9983304983e+000,
3.1406250000e+001,3.9518796561e+000,4.4101884280e+000,3.7416099241e+000,5.5993461848e+000,3.4093566806e+000,9.3149915911e+000,2.3922349998e+000,3.6165035394e+000,3.4119974350e+000,6.1000775265e+000,2.1018713825e+000,3.5708644641e+000,3.9154202300e+000,4.0352280910e+000,
3.1500000000e+001,3.8800483214e+000,4.3447305251e+000,3.5681897485e+000,5.5773871787e+000,3.2949326168e+000,9.2897234800e+000,2.3173491738e+000,3.5237953271e+000,3.3198308122e+000,6.1208060937e+000,1.7534020526e+000,3.5373483088e+000,3.8518800356e+000,4.0034991328e+000,
3.1593750000e+001,3.4670656036e+000,3.9819218315e+000,3.1610791442e+000,5.4941126331e+000,2.8290203052e+000,9.2815101773e+000,2.1416260248e+000,3.1164231013e+000,2.9142888414e+000,6.0445086357e+000,1.5822570887e+000,3.3255750797e+000,3.5141622763e+000,3.6306835682e+000,
3.1687500000e+001,3.2192825978e+000,3.7565981561e+000,2.8237075760e+000,5.4291047517e+000,2.7008350537e+000,9.2061201554e+000,1.9741912183e+000,2.8335627234e+000,2.6960881086e+000,5.8894708132e+000,1.2282051399e+000,3.1886619032e+000,3.4229607837e+000,3.4337872952e+000,
3.1781250000e+001,3.1912291590e+000,3.7747471999e+000,2.8203777037e+000,5.4316394995e+000,2.7041418618e+000,9.2203271547e+000,1.8462163459e+000,2.7787267724e+000,2.6697454162e+000,5.8484888903e+000,1.1914813517e+000,3.0805208030e+000,3.3438763502e+000,3.3416424978e+000,
3.1875000000e+001,3.1938752760e+000,3.7971509248e+000,2.8015767714e+000,5.4362645263e+000,2.7194329026e+000,9.0301621075e+000,1.7871846533e+000,2.8693164938e+000,2.7122575212e+000,5.6748204819e+000,1.2163973426e+000,3.0338691742e+000,3.4061178143e+000,3.3782438268e+000,
3.1968750000e+001,3.1876479971e+000,3.7663719506e+000,2.7661613479e+000,5.4290317005e+000,2.6678041540e+000,9.0002287054e+000,1.4972296450e+000,2.9169212619e+000,2.7174523900e+000,5.6755822600e+000,1.3519537233e+000,3.0605756488e+000,3.3492424485e+000,3.4649644306e+000,
3.2062500000e+001,3.1765937290e+000,3.8084915305e+000,2.6535344087e+000,5.4261801702e+000,2.6248057893e+000,9.5529416433e+000,1.2971193064e+000,2.9434760914e+000,2.6940851621e+000,6.2129795404e+000,1.6085845657e+000,3.0710340466e+000,3.3257443062e+000,3.4970165402e+000,
3.2156250000e+001,3.1867079285e+000,3.8602112715e+000,2.6383593742e+000,5.4266032651e+000,2.5596205910e+000,9.7196968086e+000,1.1904679740e+000,2.9944845317e+000,2.7629110403e+000,6.3729883479e+000,1.6037386730e+000,3.1279350198e+000,3.3040823447e+000,3.5278837302e+000,
3.2250000000e+001,3.1068983833e+000,3.6348517545e+000,2.5444035011e+000,4.3823686580e+000,2.5320074978e+000,9.7312097566e+000,1.1109256524e+000,2.9546895378e+000,2.7348968593e+000,6.3817436598e+000,1.6150251505e+000,3.1294832376e+000,3.3493652723e+000,3.5509827047e+000,
3.2343750000e+001,2.9350824437e+000,3.4452787200e+000,2.3621147511e+000,3.4314822883e+000,2.3622774740e+000,9.8471880312e+000,1.2727155426e+000,2.8835808805e+000,2.5295746094e+000,6.4511488572e+000,1.6955816014e+000,2.8557556906e+000,3.0582437267e+000,3.3188250932e+000,
3.2437500000e+001,2.8896989006e+000,3.4147595244e+000,2.2949330954e+000,3.3669637463e+000,2.3747447829e+000,1.0028685850e+001,1.3463443761e+000,3.1487143112e+000,2.5903914950e+000,6.6727823721e+000,1.7414649122e+000,2.9729918472e+000,3.2574685914e+000,3.4834674852e+000,
3.2531250000e+001,2.8132179061e+000,3.4287210335e+000,2.2799072745e+000,3.3719913012e+000,2.3433797126e+000,1.0073857615e+001,1.3514634513e+000,3.2439738413e+000,2.5650294573e+000,6.6898359113e+000,1.7598077587e+000,2.9168672699e+000,3.1488052079e+000,3.4032504892e+000,
3.2625000000e+001,2.7708139506e+000,3.4133565802e+000,2.1974385076e+000,3.3255734425e+000,2.2898824877e+000,1.0021930152e+001,1.4765353428e+000,3.2342665948e+000,2.5211185762e+000,6.6560923367e+000,1.7330320244e+000,2.8978031641e+000,3.1307022823e+000,3.4483385658e+000,
3.2718750000e+001,2.8004092315e+000,3.4508990048e+000,2.2178964763e+000,3.3287653602e+000,2.2641718269e+000,1.0047607054e+001,1.5592160966e+000,3.2648539760e+000,2.4374980406e+000,6.6831411541e+000,1.7390900915e+000,2.9155617977e+000,3.1479776783e+000,3.5022252966e+000,
3.2812500000e+001,2.9348520750e+000,3.4920176664e+000,2.4680559396e+000,3.3837138610e+000,2.4312162607e+000,1.0189065133e+001,1.8343470561e+000,3.3143219942e+000,2.4235668175e+000,6.7973548265e+000,1.7464366358e+000,2.9362910093e+000,3.1444102654e+000,3.5328118742e+000,
3.2906250000e+001,2.8382573084e+000,3.3825283249e+000,2.4116303589e+000,3.2166927231e+000,2.3195774110e+000,1.0210656429e+001,1.9161878758e+000,3.2071072036e+000,2.3520570577e+000,6.7939304538e+000,1.8915912974e+000,2.8825296423e+000,3.0417176610e+000,3.4518303261e+000,
3.3000000000e+001,2.7342472536e+000,3.2425451988e+000,2.4387510026e+000,3.1385458886e+000,2.3044852053e+000,1.0102530784e+001,1.9172395310e+000,3.1750410533e+000,2.2983093002e+000,6.6759764825e+000,1.9215710018e+000,2.8973362876e+000,3.0336443454e+000,3.3832917847e+000,
3.3093750000e+001,2.5956743139e+000,3.2291495508e+000,2.4584796936e+000,3.1491666442e+000,2.2854233848e+000,9.8492817528e+000,1.9432675024e+000,3.1513818543e+000,2.1911700400e+000,6.4153643252e+000,1.8531159579e+000,2.8749332210e+000,2.9760870853e+000,3.3407571626e+000,
3.3187500000e+001,2.4926950543e+000,3.1709190901e+000,2.5034800900e+000,3.1633003098e+000,2.1693352208e+000,9.7644488328e+000,2.0063184607e+000,3.1343728703e+000,2.0817789271e+000,6.3291466918e+000,1.7570764318e+000,2.8667700712e+000,2.9448902140e+000,3.3734467675e+000,
3.3281250000e+001,2.4710684960e+000,3.0616172209e+000,2.6410308989e+000,3.1084471714e+000,2.2144105777e+000,9.8848994676e+000,2.0798973058e+000,3.1181481757e+000,1.9805138389e+000,6.4230653935e+000,1.7852373573e+000,2.9226838447e+000,2.9508479458e+000,3.4180617994e+000,
3.3375000000e+001,2.3032618200e+000,2.8178529057e+000,2.6765137628e+000,2.8173438809e+000,2.0779306277e+000,9.6785340162e+000,1.9510077470e+000,2.9030048466e+000,1.8495641181e+000,6.1994557224e+000,1.6611538256e+000,2.9251162964e+000,2.9036179659e+000,3.5001805518e+000,
3.3468750000e+001,2.3388513492e+000,2.7753399430e+000,2.6905379809e+000,2.7725768209e+000,2.1385533479e+000,9.4861143753e+000,2.2692748801e+000,2.6060370282e+000,1.6903293648e+000,5.9407219633e+000,1.6287644772e+000,2.8695914438e+000,2.8395855834e+000,3.4554512288e+000,
3.3562500000e+001,2.5186323827e+000,2.7713591395e+000,2.7343086970e+000,2.8019484516e+000,2.2954141701e+000,9.5990953821e+000,2.2746305800e+000,2.6489096068e+000,1.7247274253e+000,6.0608679132e+000,1.6693900865e+000,2.8495896040e+000,2.8491864994e+000,3.4596475089e+000,
3.3656250000e+001,2.5931453581e+000,2.7813418824e+000,2.7859487613e+000,2.7986735189e+000,2.3349703662e+000,1.0160863223e+001,2.2364531528e+000,2.7837894826e+000,1.7631125704e+000,6.4882758205e+000,1.6851357961e+000,2.8302651275e+000,2.8391423412e+000,3.4559008862e+000,
3.3750000000e+001,2.5618733424e+000,2.9191494263e+000,2.7651751312e+000,2.8283337093e+000,2.2536523204e+000,1.0149748961e+001,2.1602050473e+000,2.8066797357e+000,1.7853021578e+000,6.4633157234e+000,1.6917807645e+000,2.7921261081e+000,2.8605917721e+000,3.4150497876e+000,
3.3843750000e+001,2.6438384372e+000,3.1071646759e+000,2.7976354672e+000,3.0194012577e+000,2.3648869561e+000,9.9915746415e+000,2.0341515111e+000,2.8678467690e+000,1.9149794226e+000,6.2679595942e+000,1.7295233580e+000,2.8033083617e+000,2.9602958151e+000,3.4575341428e+000,
3.3937500000e+001,2.6988225310e+000,3.1507474328e+000,2.7865944318e+000,3.0595774811e+000,2.4263535405e+000,9.9456662998e+000,1.9675592551e+000,2.8328208970e+000,1.9873933101e+000,6.2145549433e+000,1.5169634873e+000,2.7905877586e+000,2.9568489551e+000,3.4159221033e+000,
3.4031250000e+001,2.7620737709e+000,3.1483560607e+000,2.7744025833e+000,3.0262273880e+000,2.4729202530e+000,9.9483397322e+000,2.1615184743e+000,2.8110286741e+000,1.9356906431e+000,6.2160820726e+000,1.5510381493e+000,2.7422269663e+000,2.9283456856e+000,3.3683750894e+000,
3.4125000000e+001,2.8100714888e+000,3.1024230171e+000,2.7545217083e+000,3.0199109768e+000,2.4693811190e+000,9.9503368241e+000,2.3736691077e+000,2.7998884910e+000,1.8796039204e+000,6.2157997209e+000,1.4841728020e+000,2.7340999077e+000,2.9307885593e+000,3.4104513814e+000,
3.4218750000e+001,2.8550714481e+000,3.1613891534e+000,2.7670569091e+000,3.1240923857e+000,2.4518755518e+000,9.9379791681e+000,2.3819218850e+000,2.8519238643e+000,1.8900543254e+000,6.2046536236e+000,1.4922095193e+000,2.7793928857e+000,2.9001762896e+000,3.4007978904e+000,
3.4312500000e+001,2.8922960883e+000,3.2389658006e+000,2.6855651276e+000,3.2389698983e+000,2.4525219532e+000,9.8255875473e+000,2.3370141947e+000,2.9330032530e+000,1.8221231927e+000,6.1119202571e+000,1.2201807610e+000,2.7952042819e+000,2.8274589991e+000,3.3530011351e+000,
3.4406250000e+001,2.8995307670e+000,3.2827681900e+000,2.6192384453e+000,3.2462925006e+000,2.4806735634e+000,9.8047202500e+000,2.2777084694e+000,2.9570076712e+000,1.7670076610e+000,6.0966782482e+000,1.1905255174e+000,2.7678499550e+000,2.7164329656e+000,3.2105123849e+000,
3.4500000000e+001,2.8972854511e+000,3.3706154850e+000,2.7094354552e+000,3.3442700732e+000,2.4176223856e+000,1.0253130757e+001,2.1427602942e+000,3.0642097607e+000,1.8118364038e+000,6.5618819396e+000,1.3096055035e+000,2.8163706788e+000,2.7295512008e+000,3.1311935580e+000,
3.4593750000e+001,2.9038723247e+000,3.5592880211e+000,2.6763836107e+000,3.5555657969e+000,2.3509809305e+000,1.0264749252e+001,2.1306270430e+000,3.3950833835e+000,1.7565288561e+000,6.7001404794e+000,1.3885110861e+000,2.9433058420e+000,2.8410168166e+000,3.2685171197e+000,
3.4687500000e+001,2.9683368401e+000,3.5707145901e+000,2.6665989967e+000,3.5974202784e+000,2.4032867072e+000,9.9838516785e+000,2.1352011244e+000,3.4825766406e+000,1.7238724655e+000,6.5076707422e+000,1.3838617327e+000,2.9600771629e+000,2.8703044397e+000,3.2614011611e+000,
3.4781250000e+001,3.1229352492e+000,3.5813233271e+000,2.7075593628e+000,3.5820538369e+000,2.4887243345e+000,9.9849240026e+000,2.1937212079e+000,3.5227952539e+000,1.7172264042e+000,6.5144374361e+000,1.4582488719e+000,2.9859384066e+000,2.9511148882e+000,3.2458194992e+000,
3.4875000000e+001,3.1446576715e+000,3.5669889283e+000,2.6752560287e+000,3.5100953734e+000,2.4152086269e+000,1.0076652445e+001,2.2346309597e+000,3.6090764274e+000,1.5870844266e+000,6.6157984138e+000,1.4714126976e+000,2.9694792149e+000,2.8448909102e+000,3.2358620360e+000,
3.4968750000e+001,3.1172658980e+000,3.5506198495e+000,2.6768748074e+000,3.5444143086e+000,2.4453855133e+000,1.0308216433e+001,2.3230950067e+000,3.6565786866e+000,1.6084786203e+000,6.8207534398e+000,1.4079406234e+000,3.0997759540e+000,2.9521022356e+000,3.3551927720e+000,
3.5062500000e+001,3.1224861361e+000,3.5412677286e+000,2.7187632696e+000,3.5321295307e+000,2.3962768183e+000,1.0672544939e+001,1.9898634850e+000,3.7823060992e+000,1.6162464837e+000,7.1827581707e+000,1.3986784873e+000,3.1336319547e+000,2.9968117908e+000,3.3883744066e+000,
3.5156250000e+001,3.0832089254e+000,3.5600885118e+000,2.7031694489e+000,3.5173209540e+000,2.3928821525e+000,1.0699053361e+001,1.8730102520e+000,3.8067210269e+000,1.5758403284e+000,7.2046241756e+000,1.3659147270e+000,3.0970259512e+000,2.9588525368e+000,3.3562250558e+000,
3.5250000000e+001,3.0154454085e+000,3.5108777329e+000,2.6172205749e+000,3.3589579436e+000,2.3996131129e+000,1.0734567324e+001,1.8487857689e+000,3.8692661963e+000,1.7403498650e+000,7.2354527872e+000,1.4123322793e+000,3.0343202369e+000,2.9868018218e+000,3.3312064745e+000,
3.5343750000e+001,3.1280600389e+000,3.6066239267e+000,2.7454478948e+000,3.3845723954e+000,2.5986839155e+000,1.0738359406e+001,2.1609958740e+000,3.9362918453e+000,1.8123868207e+000,7.2423360869e+000,1.4728982008e+000,3.0671429419e+000,3.0072048743e+000,3.3454211551e+000,
3.5437500000e+001,3.1865820254e+000,3.6143262041e+000,2.7800373329e+000,3.4244361072e+000,2.6292958056e+000,1.0734986714e+001,2.1047010102e+000,3.9578412003e+000,1.8439286831e+000,7.2394885592e+000,1.5722042103e+000,3.0853466500e+000,2.9619545297e+000,3.3225103620e+000,
3.5531250000e+001,3.1202357015e+000,3.4366698423e+000,2.7280946152e+000,3.1826103753e+000,2.6348926006e+000,1.0407761792e+001,2.0529010567e+000,3.7114414128e+000,1.8357923519e+000,6.9189250444e+000,1.4930572109e+000,3.0345848251e+000,2.9530789289e+000,3.2869561635e+000,
3.5625000000e+001,3.0459161523e+000,3.3243059428e+000,2.6743284003e+000,3.0912001275e+000,2.6344937992e+000,1.0447149077e+001,2.0129977670e+000,3.5703879863e+000,2.0594148661e+000,6.8968821272e+000,1.4383315240e+000,3.0058997196e+000,3.0514898723e+000,3.3278966079e+000,
3.5718750000e+001,3.0772097289e+000,3.4599113816e+000,2.6868614079e+000,3.2843911924e+000,2.6274655575e+000,1.0471120318e+001,2.0492418658e+000,3.5687733655e+000,2.1972647127e+000,6.9063754744e+000,1.4403820011e+000,3.1057317337e+000,3.0686188598e+000,3.4135784171e+000,
3.5812500000e+001,2.8666282068e+000,3.3387540921e+000,2.4995981678e+000,3.1985786997e+000,2.5412988549e+000,1.0445727053e+001,2.0142836519e+000,3.5123424247e+000,2.3170029961e+000,6.8911416789e+000,1.3479538226e+000,3.1567714546e+000,3.0146796022e+000,3.4242295243e+000,
3.5906250000e+001,2.9880563494e+000,3.4276183114e+000,2.7098805567e+000,3.3165207823e+000,2.6970228055e+000,1.0370589680e+001,2.0693836497e+000,3.5069653338e+000,2.3795598206e+000,6.8368096936e+000,1.2152453131e+000,3.1143762969e+000,3.1558676387e+000,3.4534129244e+000,
3.6000000000e+001,3.0606844589e+000,3.5127503739e+000,2.7296653304e+000,3.3782089498e+000,2.8691850393e+000,9.7849261429e+000,2.0006975455e+000,3.4728110646e+000,2.4736194998e+000,6.2915841489e+000,1.2393948089e+000,3.1025168702e+000,3.1635072437e+000,3.4396048879e+000,
3.6093750000e+001,3.1330316650e+000,3.6008547307e+000,2.8763771503e+000,3.4364330794e+000,2.9802651974e+000,9.4003067351e+000,1.9960956378e+000,3.3608839918e+000,2.5167596160e+000,5.8830638159e+000,1.3429000403e+000,3.1065064111e+000,3.1429192561e+000,3.3925981621e+000,
3.6187500000e+001,3.2015615611e+000,3.5705406943e+000,2.8848022989e+000,3.4302669161e+000,2.9820332604e+000,9.3752342301e+000,2.0512334962e+000,3.2664473897e+000,2.4910571150e+000,5.8918957841e+000,1.3076072020e+000,3.1683996933e+000,3.2042913570e+000,3.3994658652e+000,
3.6281250000e+001,3.1665990165e+000,3.5459309208e+000,2.8926074156e+000,3.4519974078e+000,2.9794413407e+000,9.3211383295e+000,1.9496736598e+000,3.1859852308e+000,2.4142880503e+000,5.8310479625e+000,1.3442083594e+000,3.2118444606e+000,3.3201818839e+000,3.4576376079e+000,
3.6375000000e+001,3.0820830348e+000,3.4930983423e+000,2.8052274571e+000,3.4842409608e+000,2.8783088595e+000,9.3119184246e+000,1.6906000926e+000,3.1496211021e+000,2.3816363373e+000,5.8066722383e+000,1.3851521435e+000,3.1145396124e+000,3.2850047335e+000,3.4470159211e+000,
3.6468750000e+001,3.5277417468e+000,3.8255328007e+000,3.3885346994e+000,3.8063280484e+000,3.4548351459e+000,9.3116308716e+000,2.3952228634e+000,3.4018706280e+000,3.2402501527e+000,5.9186031056e+000,1.3392100500e+000,3.2310955769e+000,3.6728774557e+000,3.6664355717e+000,
3.6562500000e+001,3.6890421962e+000,4.0001043841e+000,3.5195121336e+000,3.9071644623e+000,3.6012719750e+000,9.0232278257e+000,2.5248291617e+000,3.5663204869e+000,3.3860985756e+000,5.8159189510e+000,1.3710913507e+000,3.2700502851e+000,3.6909455204e+000,3.7410696303e+000,
3.6656250000e+001,3.6479916810e+000,3.9883397164e+000,3.4919674972e+000,3.8556107832e+000,3.5901974468e+000,8.3101778391e+000,2.5268109001e+000,3.5589391885e+000,3.3249639531e+000,5.4974576725e+000,1.4917736801e+000,3.2719561383e+000,3.6296397219e+000,3.6762451028e+000,
3.6750000000e+001,3.6681543945e+000,3.9161857678e+000,3.5104070957e+000,3.7743080187e+000,3.5929777202e+000,8.4856467450e+000,2.5070547134e+000,3.4557098634e+000,3.2814395823e+000,5.5532197828e+000,1.4523981591e+000,3.2019332146e+000,3.5904174198e+000,3.5977941880e+000,
3.6843750000e+001,3.7078072101e+000,3.9461382307e+000,3.5092512096e+000,3.7817185391e+000,3.6086982869e+000,8.4508518361e+000,2.5866018370e+000,3.4261890385e+000,3.2704133525e+000,5.5609235600e+000,1.4858982490e+000,3.1794093322e+000,3.5643837454e+000,3.5667280799e+000,
3.6937500000e+001,3.5988307511e+000,3.8571176297e+000,3.3883491372e+000,3.6685901652e+000,3.4799144317e+000,8.3673706913e+000,2.5398126037e+000,3.3216560421e+000,3.1945725630e+000,5.4489415283e+000,1.5661588569e+000,3.1152455999e+000,3.4086711119e+000,3.4631987267e+000,
3.7031250000e+001,3.6166710447e+000,3.7880615824e+000,3.3475144662e+000,3.6303779675e+000,3.4090839116e+000,8.3671495991e+000,2.5859773938e+000,3.3105477500e+000,3.1773968540e+000,5.4364856012e+000,1.5371210960e+000,3.1931357846e+000,3.4589610542e+000,3.5384300767e+000,
3.7125000000e+001,3.5775176820e+000,3.7643664581e+000,3.3203282750e+000,3.6283190348e+000,3.3876556407e+000,8.3816305445e+000,2.6464117953e+000,3.3348724198e+000,3.1828429164e+000,5.4393994880e+000,1.5438138768e+000,3.1320923077e+000,3.4334574875e+000,3.5724409863e+000,
3.7218750000e+001,3.6083819611e+000,3.7849174960e+000,3.3381274451e+000,3.6335902201e+000,3.4236167110e+000,8.0691593858e+000,2.6636997390e+000,3.2946915971e+000,3.2067713980e+000,5.2073553388e+000,1.5633147239e+000,3.0984143668e+000,3.3649447064e+000,3.5482614351e+000,
3.7312500000e+001,3.6655557395e+000,3.8161335295e+000,3.3923543155e+000,3.6246121740e+000,3.4774062339e+000,7.9734961423e+000,2.7530483853e+000,3.2388985418e+000,3.2246503056e+000,5.1563041042e+000,1.5119901215e+000,3.0568725260e+000,3.2868990381e+000,3.4893493061e+000,
3.7406250000e+001,3.7271574594e+000,3.8572873733e+000,3.4191660593e+000,3.6269865782e+000,3.5283986393e+000,8.0139328456e+000,2.8347406433e+000,3.1869763724e+000,3.2258903824e+000,5.2068130242e+000,1.5216898926e+000,3.1327059320e+000,3.2929211853e+000,3.5462876271e+000,
3.7500000000e+001,3.4038992623e+000,3.5905712088e+000,2.8015245125e+000,3.2282383132e+000,2.9901125746e+000,8.7697317960e+000,2.5293408749e+000,2.7942089609e+000,2.2392273340e+000,5.4257990008e+000,1.4415911079e+000,2.9372628052e+000,2.6132268547e+000,3.2616871866e+000,
3.7593750000e+001,3.3854674150e+000,3.4483520010e+000,2.6840029911e+000,3.1769015617e+000,2.8952157554e+000,8.9550301889e+000,2.5326782736e+000,2.7070014368e+000,1.8908325238e+000,5.5866904104e+000,1.3319679682e+000,3.0051803511e+000,2.6177035225e+000,3.3684881390e+000,
3.7687500000e+001,3.4609465420e+000,3.5451558751e+000,2.7215506544e+000,3.3062581678e+000,2.9304773468e+000,9.2198764869e+000,2.5412060041e+000,2.8491418572e+000,1.9264007028e+000,5.8735079612e+000,1.3591262764e+000,3.0845053795e+000,2.7520976372e+000,3.5240545597e+000,
3.7781250000e+001,3.4285009051e+000,3.5740246190e+000,2.7015856731e+000,3.3134959496e+000,2.9456736626e+000,9.2227688499e+000,2.4245983981e+000,2.8711989904e+000,1.9461492615e+000,5.8909850310e+000,1.3754152971e+000,3.2046272025e+000,2.7681985176e+000,3.5978586114e+000,
3.7875000000e+001,3.4511439015e+000,3.5613555588e+000,2.7811936310e+000,3.3286951807e+000,3.0154676025e+000,9.2293601936e+000,2.3975024888e+000,2.8801223537e+000,2.0738158928e+000,5.8987219998e+000,1.2948119482e+000,3.3185090440e+000,2.8545937850e+000,3.7575472224e+000,
3.7968750000e+001,3.4669098178e+000,3.5766321449e+000,2.8393469151e+000,3.3988669209e+000,3.0733131216e+000,9.7443576188e+000,2.4443976606e+000,2.8221171335e+000,2.1940241917e+000,6.2419907599e+000,1.1583450933e+000,3.3376928679e+000,2.8857468195e+000,3.7487558724e+000,
3.8062500000e+001,3.4331480436e+000,3.5629590102e+000,2.7875889807e+000,3.3739846537e+000,3.1392168321e+000,9.8243434296e+000,2.5058939581e+000,2.8417269023e+000,2.2489079261e+000,6.2985757440e+000,1.0734503298e+000,3.2592857658e+000,2.8557749987e+000,3.6712618156e+000,
3.8156250000e+001,3.4299806009e+000,3.5747523352e+000,2.7910582225e+000,3.4189403146e+000,3.1294278616e+000,9.8241453737e+000,2.4485764616e+000,2.9173994744e+000,2.2525570500e+000,6.3261718089e+000,1.0217348816e+000,3.2874894509e+000,2.8373186690e+000,3.6466066319e+000,
3.8250000000e+001,3.3627201800e+000,3.5588481967e+000,2.7353316778e+000,3.4263360396e+000,3.0624348716e+000,9.8869282634e+000,2.3893425490e+000,2.9451037621e+000,2.2005040811e+000,6.3794760750e+000,1.0548160190e+000,3.3064172269e+000,2.8538593925e+000,3.6452167634e+000,
3.8343750000e+001,3.2823674261e+000,3.4495484215e+000,2.5850020552e+000,3.3528079730e+000,2.9814913882e+000,9.9118322632e+000,2.2394758948e+000,2.9322782039e+000,2.1352923643e+000,6.4002315045e+000,9.5913564961e-001,3.2493443037e+000,2.8339408929e+000,3.6128620446e+000,
3.8437500000e+001,3.1951582655e+000,3.4662671534e+000,2.6096303033e+000,3.4342929782e+000,2.9122761552e+000,9.9121581807e+000,2.1163103755e+000,2.9664323335e+000,2.1830713012e+000,6.3993068914e+000,1.0503838583e+000,3.2350898181e+000,2.9769494953e+000,3.6247809756e+000,
3.8531250000e+001,3.0754965731e+000,3.4504841833e+000,2.5036941474e+000,3.4622819848e+000,2.8710636535e+000,9.9366259897e+000,1.9375492858e+000,2.9278927849e+000,2.1340965239e+000,6.4872298465e+000,9.7299839999e-001,3.2042610942e+000,2.9901537525e+000,3.6033034199e+000,
3.8625000000e+001,3.0667472491e+000,3.3896056613e+000,2.6427894938e+000,3.4173202911e+000,2.8622441197e+000,1.0148311966e+001,2.0374751678e+000,2.8511318093e+000,2.1173651449e+000,6.6591037774e+000,9.9172788642e-001,3.1424391019e+000,2.9366811552e+000,3.4872711679e+000,
3.8718750000e+001,3.1057002613e+000,3.3735783486e+000,2.7857524798e+000,3.4218324764e+000,2.8592685963e+000,1.0138505854e+001,2.1251003280e+000,2.7691468980e+000,2.1672660454e+000,6.6447150178e+000,1.0920545393e+000,3.1061442507e+000,2.8612388336e+000,3.3679558115e+000,
3.8812500000e+001,3.3048841736e+000,3.4100124965e+000,2.9877678411e+000,3.4821049878e+000,3.0341158247e+000,1.0203893832e+001,2.2276065147e+000,2.8166957583e+000,2.1110025966e+000,6.6853215895e+000,1.1595915023e+000,3.0360737767e+000,2.8264608112e+000,3.1826408418e+000,
3.8906250000e+001,3.3636413069e+000,3.4656009179e+000,3.0887360690e+000,3.5481140197e+000,3.0360916356e+000,1.0177903626e+001,2.2154897874e+000,2.8513436546e+000,1.9434965852e+000,6.6687485671e+000,1.2549764023e+000,3.0207693022e+000,2.7051562675e+000,3.0210777331e+000,
3.9000000000e+001,3.3153983375e+000,3.4535938402e+000,3.0427526420e+000,3.5151676160e+000,2.9334835400e+000,9.9013750891e+000,2.0683829469e+000,2.8325472927e+000,1.8700065378e+000,6.4856937824e+000,1.2789302311e+000,3.0984514629e+000,2.6881179844e+000,3.0105128840e+000,
3.9093750000e+001,3.3567140415e+000,3.4950197217e+000,3.0493154846e+000,3.5117349284e+000,2.9038010132e+000,9.9487522185e+000,2.0196651391e+000,2.7794411658e+000,1.8206845982e+000,6.5317972600e+000,1.3697129332e+000,3.0807920323e+000,2.6329454395e+000,3.0450520342e+000,
3.9187500000e+001,3.3618479608e+000,3.4616515944e+000,3.0575974152e+000,3.4511638747e+000,2.8914274780e+000,1.0095367224e+001,2.0355121446e+000,2.6586579101e+000,1.9491505508e+000,6.6621557821e+000,1.4784822278e+000,3.0820394075e+000,2.6929260193e+000,2.9984184383e+000,
3.9281250000e+001,3.3806754532e+000,3.4714805826e+000,3.1587464378e+000,3.4579861830e+000,2.9296692579e+000,1.0055128115e+001,1.9664471307e+000,2.6342443632e+000,1.9936121287e+000,6.6348536801e+000,1.6819146850e+000,3.1294784117e+000,2.6842083333e+000,3.1690873569e+000,
3.9375000000e+001,3.4105903798e+000,3.4686521262e+000,3.1792187480e+000,3.4641146075e+000,2.9463298374e+000,1.0064288248e+001,1.9467416205e+000,2.7399831533e+000,2.0212158738e+000,6.6440083673e+000,1.6860960338e+000,3.1797468346e+000,2.6583185022e+000,3.2030663885e+000,
3.9468750000e+001,3.4142577670e+000,3.4212385894e+000,3.1613250186e+000,3.4025230500e+000,2.9718556361e+000,1.0051301069e+001,1.9158090668e+000,2.7746027646e+000,1.9794755396e+000,6.6420447517e+000,1.6773244461e+000,3.1260040344e+000,2.5049052298e+000,3.0804006520e+000,
3.9562500000e+001,3.4067712919e+000,3.2121995366e+000,3.1356180963e+000,3.1826872969e+000,2.9716903847e+000,9.8965897444e+000,1.7801080295e+000,2.6114047629e+000,2.0296149201e+000,6.4104395251e+000,1.7526535244e+000,3.0801693950e+000,2.4688815053e+000,2.9671267049e+000,
3.9656250000e+001,3.2401613541e+000,3.0883396479e+000,2.9865078982e+000,2.9908068253e+000,2.8167009661e+000,9.4831725756e+000,1.5708930168e+000,2.5917476550e+000,1.9624248282e+000,5.9916160015e+000,1.7330394979e+000,3.0691184884e+000,2.5695333140e+000,3.0514667822e+000,
3.9750000000e+001,3.2087353632e+000,3.1791331138e+000,2.9134753378e+000,3.0150437806e+000,2.8067256823e+000,9.5025117940e+000,1.4966735146e+000,2.5777359608e+000,2.0440807512e+000,6.0404656058e+000,1.7240909292e+000,2.9917246465e+000,2.5207409303e+000,3.0066305790e+000,
3.9843750000e+001,2.9738164530e+000,3.1575951406e+000,2.6831027159e+000,2.9841513136e+000,2.5247244594e+000,9.6736139631e+000,1.2549481912e+000,2.5763996457e+000,2.0203609186e+000,6.1874609137e+000,1.7218050475e+000,2.8781923641e+000,2.6400073054e+000,3.0329016673e+000,
3.9937500000e+001,2.9575315548e+000,3.2113530225e+000,2.5329332799e+000,2.9910582783e+000,2.4513566558e+000,9.6680352372e+000,1.0999248053e+000,2.5673084588e+000,2.0299475463e+000,6.1836538819e+000,1.6809456866e+000,2.8802334385e+000,2.6701635451e+000,3.1285647361e+000,
4.0031250000e+001,2.9432585985e+000,3.2551106435e+000,2.5982916533e+000,3.0703329875e+000,2.3894172073e+000,9.6779746631e+000,9.7375489176e-001,2.6568234824e+000,2.0219296876e+000,6.1503239180e+000,1.8126899290e+000,2.7964987785e+000,2.6471219126e+000,3.1251561862e+000,
4.0125000000e+001,2.9405950953e+000,3.2179463898e+000,2.5861741956e+000,3.0918275418e+000,2.4038858806e+000,9.8241671250e+000,9.3060407502e-001,2.7275374436e+000,1.9731058520e+000,6.2838286937e+000,1.8081212680e+000,2.7684431988e+000,2.6410901799e+000,3.1490219413e+000,
4.0218750000e+001,2.9947592601e+000,3.3913352350e+000,2.5649829454e+000,3.2747303458e+000,2.4317860172e+000,9.8011205528e+000,1.0911324932e+000,2.9305656672e+000,1.8972184343e+000,6.3134858442e+000,1.5949521207e+000,2.8421059187e+000,2.7081331885e+000,3.2572590702e+000,
4.0312500000e+001,2.8825723283e+000,3.4207011663e+000,2.3886044633e+000,3.2789162637e+000,2.3206002413e+000,9.8324834780e+000,1.2359679468e+000,2.8961619044e+000,1.9390671808e+000,6.3298439853e+000,1.6271616804e+000,2.7866382581e+000,2.7741568343e+000,3.2198751716e+000,
4.0406250000e+001,2.9771584939e+000,3.5335724651e+000,2.4890234823e+000,3.3888562270e+000,2.3522070275e+000,9.9381007199e+000,1.3531877876e+000,2.9586079653e+000,2.0644699687e+000,6.4353383975e+000,1.6383133354e+000,2.8634350991e+000,2.9104695586e+000,3.4089303621e+000,
4.0500000000e+001,3.0407360519e+000,3.6100633037e+000,2.5524675987e+000,3.5298902945e+000,2.3148781314e+000,1.0001031620e+001,1.5586189091e+000,2.9765056705e+000,2.1082638402e+000,6.4810959886e+000,1.6157893989e+000,2.8830665738e+000,3.0156329738e+000,3.4767621941e+000,
4.0593750000e+001,3.0041665580e+000,3.6196589033e+000,2.6068455834e+000,3.5353012510e+000,2.2780661771e+000,1.0081663533e+001,1.5541468123e+000,2.9751270893e+000,2.1022007778e+000,6.5605384157e+000,1.6023622570e+000,2.8839497104e+000,3.0232591610e+000,3.4641595709e+000,
4.0687500000e+001,3.0650095015e+000,3.5534613216e+000,2.5657525444e+000,3.5065584339e+000,2.2905488693e+000,1.0223681960e+001,1.5930178173e+000,2.9659840135e+000,2.0793076677e+000,6.6827042733e+000,1.6118983144e+000,2.8352968881e+000,2.9517505083e+000,3.4074392744e+000,
4.0781250000e+001,3.1469953461e+000,3.5667231875e+000,2.6000885917e+000,3.5612523071e+000,2.3916716739e+000,1.0155626058e+001,1.5920037247e+000,3.0668467366e+000,2.0593655331e+000,6.6078071946e+000,1.5339073997e+000,2.9957696250e+000,2.9560549511e+000,3.4877458094e+000,
4.0875000000e+001,3.1470631479e+000,3.4914985190e+000,2.5956888898e+000,3.4893462880e+000,2.4063669935e+000,1.0254815666e+001,1.6838667009e+000,3.0174077922e+000,2.0867174112e+000,6.7463769179e+000,1.5637964962e+000,3.0227968916e+000,2.9584529636e+000,3.4710577541e+000,
4.0968750000e+001,3.3289287192e+000,3.6572825844e+000,2.8300896896e+000,3.6657115867e+000,2.5366163217e+000,1.0317578549e+001,1.8118568954e+000,3.1487788924e+000,2.1743615492e+000,6.8010400824e+000,1.5238604839e+000,3.0730770630e+000,2.9362703202e+000,3.4455644018e+000,
4.1062500000e+001,3.2663730348e+000,3.5804694221e+000,2.7560043249e+000,3.5965758968e+000,2.5525471564e+000,1.0203202070e+001,1.8216264743e+000,3.1259558631e+000,2.2041413499e+000,6.7406197208e+000,1.3136613799e+000,3.1719913255e+000,3.0575337834e+000,3.5287820827e+000,
4.1156250000e+001,3.2664813446e+000,3.5524478001e+000,2.8506415738e+000,3.5922677085e+000,2.5268339399e+000,1.0167572989e+001,1.7902628664e+000,3.0526051290e+000,2.1525390592e+000,6.7087827216e+000,1.2577915338e+000,3.1683286018e+000,3.0569033410e+000,3.5924785718e+000,
