Time (s),AF3,AF4,F3,F4,F7,F8,FC5,FC6,T7,T8,P7,P8,O1,O2,Sampling Rate
0.0000000000e+000,3.8449402091e+000,3.7591098711e+000,2.8564318857e+000,3.2118314215e+000,3.9408845321e+000,3.1022237871e+000,2.3339102862e+000,2.9841354407e+000,2.7326137936e+000,3.4509254256e+000,2.4237021720e+000,3.3034981753e+000,3.6367390336e+000,3.9184834501e+000,1
9.3750000000e-002,3.5026267996e+000,3.6439458833e+000,2.7764692124e+000,3.1054023341e+000,3.7265480692e+000,3.0988333605e+000,2.2504176989e+000,2.9044578564e+000,2.5847474786e+000,3.3519866692e+000,2.3541680547e+000,3.1766397070e+000,3.5861637878e+000,3.9143919721e+000,
1.8750000000e-001,3.1446818052e+000,3.5098525525e+000,2.6176278136e+000,3.1029935554e+000,3.5034475996e+000,3.0104972002e+000,2.3299009332e+000,2.9146585101e+000,2.5267891455e+000,3.3703099802e+000,2.3438780114e+000,3.2371364873e+000,3.5684687522e+000,4.0001605124e+000,
2.8125000000e-001,3.2625789526e+000,3.5241260627e+000,2.7227005249e+000,3.1435834433e+000,3.5042026193e+000,3.0116935082e+000,2.4509648061e+000,2.9404831794e+000,2.5532192492e+000,3.3845497804e+000,2.5117095739e+000,3.2098394134e+000,3.6247517457e+000,3.9853777713e+000,
3.7500000000e-001,3.3441991249e+000,3.5546296187e+000,2.7819372912e+000,3.1332288381e+000,3.5236608646e+000,3.0174924027e+000,2.5297570244e+000,2.9262165358e+000,2.6042928708e+000,3.3834294415e+000,2.5175734430e+000,3.1732468468e+000,3.5806411320e+000,3.9961250393e+000,
4.6875000000e-001,3.3429405555e+000,3.4667698984e+000,2.7664759114e+000,3.0525130831e+000,3.6086999493e+000,2.8936644678e+000,2.6001682266e+000,2.8832739404e+000,2.5475514504e+000,3.3632721131e+000,2.5777718472e+000,3.2131966879e+000,3.7008898055e+000,4.1614013821e+000,
5.6250000000e-001,3.3450990605e+000,3.4580294771e+000,2.7255676441e+000,2.9553644180e+000,3.5705240263e+000,2.8309238860e+000,2.6471590839e+000,2.8362223576e+000,2.5597976607e+000,3.3883663207e+000,2.6542511433e+000,3.3550106011e+000,3.8073939852e+000,4.2713192702e+000,
6.5625000000e-001,3.2750812478e+000,3.4218874165e+000,2.6319423370e+000,2.9598779420e+000,3.4831992349e+000,2.8075149492e+000,2.6371651685e+000,2.8037068445e+000,2.5613317350e+000,3.3513913928e+000,2.6061242910e+000,3.3391495079e+000,3.7891186533e+000,4.2745229878e+000,
7.5000000000e-001,3.3423779095e+000,3.4898497496e+000,2.7583855880e+000,3.1400050410e+000,3.5771329408e+000,3.0167910283e+000,2.6539295727e+000,2.8940887960e+000,2.5315163487e+000,3.4408543832e+000,2.5727586376e+000,3.3763453265e+000,3.6974956104e+000,4.2885750811e+000,
8.4375000000e-001,3.4228452381e+000,3.5290155198e+000,2.7789401795e+000,3.1863348441e+000,3.6322954378e+000,2.9671515537e+000,2.7309185786e+000,2.9420784537e+000,2.6542010155e+000,3.4126834140e+000,2.5737493772e+000,3.4260713048e+000,3.5981511275e+000,4.2398828476e+000,
9.3750000000e-001,3.4092167797e+000,3.4388885757e+000,2.8198003958e+000,3.2159259470e+000,3.5267656704e+000,2.9266561034e+000,2.7633536803e+000,2.8994391081e+000,2.5499171585e+000,3.3478854654e+000,2.5797497948e+000,3.2957397513e+000,3.5106266177e+000,4.1611421578e+000,
1.0312500000e+000,3.3487707797e+000,3.4153405622e+000,2.8036632993e+000,3.1618149692e+000,3.3693253860e+000,2.9368630463e+000,2.8365618215e+000,2.8324529250e+000,2.4895012556e+000,3.2240571443e+000,2.5812396186e+000,3.2370742898e+000,3.3849244125e+000,4.2727718249e+000,
1.1250000000e+000,3.5124195730e+000,3.5255352844e+000,2.8817023954e+000,3.1305505462e+000,3.4635297140e+000,3.1228846944e+000,2.8381593922e+000,2.8809002233e+000,2.5297839323e+000,3.2533531097e+000,2.5674987926e+000,3.2514103729e+000,3.3680941350e+000,4.2097244031e+000,
1.2187500000e+000,3.7952854007e+000,3.7171617306e+000,3.0796749178e+000,3.2357811054e+000,3.5512438565e+000,3.3639762152e+000,2.7579665465e+000,3.0266005723e+000,2.6169564475e+000,3.4545080045e+000,2.6297139696e+000,3.3165408019e+000,3.4018906424e+000,4.2117090503e+000,
1.3125000000e+000,3.7145666178e+000,3.6596356071e+000,3.0260447802e+000,3.2562203333e+000,3.5244796155e+000,3.3594324135e+000,2.7142238736e+000,2.9955876965e+000,2.6560239712e+000,3.4731702154e+000,2.5750774631e+000,3.4315904981e+000,3.3110966707e+000,4.2297011164e+000,
1.4062500000e+000,3.7495047178e+000,3.6903857771e+000,3.0678710316e+000,3.2697880143e+000,3.5595929612e+000,3.3313739267e+000,2.6479563584e+000,2.9645261692e+000,2.7156943898e+000,3.5047136341e+000,2.6607474675e+000,3.5103233738e+000,3.3147045138e+000,4.1969019685e+000,
1.5000000000e+000,3.8569569522e+000,3.7473156159e+000,3.1130701569e+000,3.2691224114e+000,3.5904717217e+000,3.3588903472e+000,2.6162524684e+000,2.9989148713e+000,2.7471161728e+000,3.5354630020e+000,2.7626611498e+000,3.4560380322e+000,3.1432170880e+000,4.0570567727e+000,
1.5937500000e+000,3.8355960695e+000,3.7720250150e+000,3.1114567057e+000,3.3061688082e+000,3.6018894719e+000,3.3542536786e+000,2.5990765737e+000,3.0148071723e+000,2.7471467292e+000,3.4865017586e+000,2.7595240524e+000,3.4759151226e+000,3.0595555204e+000,4.0857914741e+000,
1.6875000000e+000,3.8462036560e+000,3.7838587004e+000,3.1304858341e+000,3.3023580053e+000,3.5490546127e+000,3.3359724800e+000,2.6010608367e+000,3.0052099311e+000,2.7212107021e+000,3.5144956967e+000,2.7073272300e+000,3.4860735135e+000,3.0853416002e+000,4.1612537373e+000,
1.7812500000e+000,3.8003430159e+000,3.7200267053e+000,3.0345152203e+000,3.1375822635e+000,3.3639742835e+000,3.1139343945e+000,2.6026873813e+000,2.8641869809e+000,2.6253283677e+000,3.3525369496e+000,2.6945246079e+000,3.3903917703e+000,3.0433065141e+000,4.1456623014e+000,
1.8750000000e+000,3.9155869196e+000,3.7196345739e+000,3.1294235204e+000,3.1546659783e+000,3.3579404455e+000,3.1350643989e+000,2.6993555485e+000,2.8369261056e+000,2.5224774979e+000,3.3987428041e+000,2.5947426323e+000,3.3626506976e+000,3.1521968362e+000,4.2130701041e+000,
1.9687500000e+000,3.8801865853e+000,3.7171791746e+000,3.1022998436e+000,3.1074129545e+000,3.4211657912e+000,3.0839063755e+000,2.7062007631e+000,2.8129269603e+000,2.4670742868e+000,3.4042749687e+000,2.5919112746e+000,3.3903258802e+000,3.2454760526e+000,4.1961441779e+000,
2.0625000000e+000,3.8822252148e+000,3.6919811716e+000,3.0983444318e+000,3.1511882770e+000,3.4652283292e+000,3.1004273629e+000,2.6763778931e+000,2.8221256192e+000,2.4365952236e+000,3.5218255376e+000,2.6536684784e+000,3.5003618166e+000,3.3282758258e+000,4.1602272755e+000,
2.1562500000e+000,3.7187075943e+000,3.5121568710e+000,3.0871003535e+000,3.0931260071e+000,3.3348645224e+000,2.7102374828e+000,2.7192009383e+000,2.7250645268e+000,2.2639613339e+000,3.3580446445e+000,2.6656532578e+000,3.4336006873e+000,3.3385601756e+000,4.1574225670e+000,
2.2500000000e+000,3.6843243747e+000,3.5335344264e+000,3.1013183576e+000,3.1334530507e+000,3.2932767804e+000,2.6086843967e+000,2.8134468124e+000,2.7078324482e+000,2.2461476040e+000,3.3270893925e+000,2.5739457673e+000,3.3724136893e+000,3.3457615569e+000,4.1421293394e+000,
2.3437500000e+000,3.6376300219e+000,3.5566019584e+000,3.0541150659e+000,3.1592915635e+000,3.2994313675e+000,2.5751699460e+000,2.7560814350e+000,2.7744655471e+000,2.2970003686e+000,3.4085969079e+000,2.4718404962e+000,3.3670301461e+000,3.3541935449e+000,4.1596959828e+000,
2.4375000000e+000,3.7116309464e+000,3.7205423611e+000,3.1990961212e+000,3.3618053627e+000,3.3174700148e+000,2.6294793860e+000,2.8373471901e+000,2.9062459043e+000,2.2781495640e+000,3.4951303438e+000,2.5352289113e+000,3.3944359083e+000,3.4269692223e+000,4.2193437907e+000,
2.5312500000e+000,3.7079100368e+000,3.7321170488e+000,3.2122069091e+000,3.3742960538e+000,3.1942224305e+000,2.6925714917e+000,2.7891889052e+000,2.8851383905e+000,2.3074702770e+000,3.4746710482e+000,2.2957112895e+000,3.3484616850e+000,3.4235133528e+000,4.2278047942e+000,
2.6250000000e+000,3.7690295875e+000,3.7069292351e+000,3.2304842214e+000,3.4086783598e+000,3.2567069015e+000,2.7390518560e+000,2.8086978379e+000,2.9489212582e+000,2.4138875861e+000,3.6325304487e+000,2.4209675299e+000,3.4284846136e+000,3.3358006730e+000,4.1115407346e+000,
2.7187500000e+000,3.7904976137e+000,3.6904882612e+000,3.2324611367e+000,3.3921338308e+000,3.3796503112e+000,2.7677806115e+000,2.8860015466e+000,2.9592328865e+000,2.5273981727e+000,3.6440467200e+000,2.5607627037e+000,3.4481272088e+000,3.2700939296e+000,4.1360767618e+000,
2.8125000000e+000,3.7605193869e+000,3.7010586300e+000,3.2483639952e+000,3.4029941226e+000,3.4143333988e+000,2.7518693376e+000,2.8917417881e+000,2.9443499681e+000,2.5930194998e+000,3.6444796139e+000,2.6309366525e+000,3.4909652787e+000,3.3273369850e+000,4.2446227122e+000,
2.9062500000e+000,3.6322826721e+000,3.6128450263e+000,3.1529386358e+000,3.3787494833e+000,3.3325740874e+000,2.7636621789e+000,2.8709937647e+000,2.9103191250e+000,2.5777344597e+000,3.6625855065e+000,2.6702933648e+000,3.5284120516e+000,3.2568648033e+000,4.2800988301e+000,
3.0000000000e+000,3.7285439073e+000,3.7529183790e+000,3.3229037835e+000,3.5387273002e+000,3.4433870803e+000,2.8795665296e+000,2.9127659005e+000,3.0467548694e+000,2.6440599278e+000,3.7894968767e+000,2.6546246659e+000,3.5219237412e+000,3.2954666126e+000,4.2919218127e+000,
3.0937500000e+000,3.8114383840e+000,3.8541672595e+000,3.3608107041e+000,3.5882468191e+000,3.5151561416e+000,3.0857131260e+000,2.9309227411e+000,3.1640947501e+000,2.6781843200e+000,3.8832082021e+000,2.6113865033e+000,3.6228609060e+000,3.2145191130e+000,4.3322386808e+000,
3.1875000000e+000,3.8303545798e+000,3.8608928965e+000,3.3976571601e+000,3.6200254602e+000,3.5675844390e+000,3.0693789132e+000,2.8855842175e+000,3.1875024134e+000,2.6558277520e+000,3.9334280477e+000,2.5950120169e+000,3.7320112887e+000,3.2641299422e+000,4.3967128127e+000,
3.2812500000e+000,3.8298633188e+000,3.8028913655e+000,3.3813599585e+000,3.5860790419e+000,3.5833256117e+000,3.1020130130e+000,2.8893461333e+000,3.1326195587e+000,2.5969941127e+000,3.9574833712e+000,2.5917290711e+000,3.7447565243e+000,3.2435441325e+000,4.3633264539e+000,
3.3750000000e+000,3.7897304009e+000,3.7418438423e+000,3.3338312012e+000,3.5466588883e+000,3.6005619713e+000,3.0951682655e+000,2.8504241583e+000,3.0890768949e+000,2.5611417645e+000,3.9339152994e+000,2.5580493690e+000,3.7175699474e+000,3.2268966130e+000,4.3505110674e+000,
3.4687500000e+000,3.6308323977e+000,3.5392218344e+000,3.1644182725e+000,3.3136915991e+000,3.5454245707e+000,2.9981696286e+000,2.7767233024e+000,2.9543613286e+000,2.4828337865e+000,3.8164784244e+000,2.5592239088e+000,3.6465319993e+000,3.1534223305e+000,4.3164724530e+000,
3.5625000000e+000,3.5692080805e+000,3.4725690157e+000,3.1283997598e+000,3.2843155946e+000,3.5964918181e+000,2.9813819747e+000,2.8413305388e+000,2.9159621361e+000,2.4658408554e+000,3.7860323535e+000,2.6157542744e+000,3.6245033343e+000,3.3132624262e+000,4.3163043184e+000,
3.6562500000e+000,3.5909892629e+000,3.5274546399e+000,3.1227749742e+000,3.3279045832e+000,3.6061225388e+000,3.0159285542e+000,2.7997344336e+000,2.9200522476e+000,2.5477441791e+000,3.8114768791e+000,2.5242309762e+000,3.5422156412e+000,3.3309440055e+000,4.2606045508e+000,
3.7500000000e+000,3.5431229148e+000,3.5096723268e+000,3.1421014145e+000,3.3413200174e+000,3.4940629486e+000,3.0882596952e+000,2.7812405864e+000,2.9431670015e+000,2.4950546164e+000,3.7846335587e+000,2.3835683838e+000,3.5335459595e+000,3.3303893914e+000,4.2248277910e+000,
3.8437500000e+000,3.4673229190e+000,3.5229854435e+000,3.1435402760e+000,3.3563195216e+000,3.4562146230e+000,3.1063601007e+000,2.7153686185e+000,2.9398177636e+000,2.4536861884e+000,3.8055080956e+000,2.3333990641e+000,3.5209001112e+000,3.3268163238e+000,4.1351695060e+000,
3.9375000000e+000,3.5388313101e+000,3.5354367481e+000,3.1660948753e+000,3.3533923908e+000,3.4650744912e+000,3.1085912917e+000,2.6897140540e+000,2.9622448444e+000,2.4991077400e+000,3.7556242040e+000,2.3744268580e+000,3.4695274658e+000,3.3750623039e+000,4.0817327901e+000,
4.0312500000e+000,3.3695806908e+000,3.3445411642e+000,2.9588239037e+000,3.1687551083e+000,3.3394650408e+000,2.8804512133e+000,2.6001626563e+000,2.7613324724e+000,2.5092824426e+000,3.5879389147e+000,2.3611285066e+000,3.3608747924e+000,3.4481809846e+000,4.0158991507e+000,
4.1250000000e+000,3.3860323147e+000,3.2515579539e+000,2.9765237129e+000,3.1020561434e+000,3.3113095947e+000,2.7593237427e+000,2.5788484387e+000,2.7251056677e+000,2.4940069180e+000,3.5447776722e+000,2.5306078302e+000,3.2677942702e+000,3.4700964697e+000,3.8868087060e+000,
4.2187500000e+000,3.2066057859e+000,3.1012364919e+000,2.8036390301e+000,2.9749351455e+000,3.1518377103e+000,2.5699219564e+000,2.6109052630e+000,2.5573691682e+000,2.5456322959e+000,3.4094524902e+000,2.7080922292e+000,3.0995343241e+000,3.4350542646e+000,3.8048809599e+000,
4.3125000000e+000,3.4419488396e+000,3.2857775084e+000,3.1273087768e+000,3.1673517865e+000,3.4836728119e+000,2.7197433832e+000,2.7643369641e+000,2.8195325275e+000,2.5350626754e+000,3.5663806816e+000,2.8040808810e+000,3.2851151891e+000,3.6907309880e+000,3.9377796445e+000,
4.4062500000e+000,3.5484398214e+000,3.3724735939e+000,3.2962625790e+000,3.3081421831e+000,3.4680788873e+000,2.8488421923e+000,2.7494091181e+000,2.9942982835e+000,2.4830220580e+000,3.7560658462e+000,2.9233037707e+000,3.6129543766e+000,3.8787095811e+000,4.1316042039e+000,
4.5000000000e+000,3.5510981503e+000,3.3538572534e+000,3.3077789213e+000,3.3228127995e+000,3.4291386786e+000,2.8816103660e+000,2.7216212242e+000,3.0119510541e+000,2.5333423948e+000,3.8451098215e+000,2.8991248571e+000,3.7304672987e+000,3.9237289948e+000,4.1880004753e+000,
4.5937500000e+000,3.5419704959e+000,3.2912773139e+000,3.3500553845e+000,3.2915458886e+000,3.4171676443e+000,2.8061040910e+000,2.6409935916e+000,2.9550563991e+000,2.3560677690e+000,3.8123815773e+000,2.9251939337e+000,3.7109755538e+000,3.8442716151e+000,4.1651172103e+000,
4.6875000000e+000,3.5452009446e+000,3.2361781059e+000,3.3435570402e+000,3.1875160887e+000,3.5309870603e+000,2.7110389593e+000,2.7024132200e+000,2.8854901793e+000,2.3786674462e+000,3.7425093608e+000,2.9980042376e+000,3.7777436354e+000,3.8862576727e+000,4.2409717645e+000,
4.7812500000e+000,3.6958259844e+000,3.3909171751e+000,3.3540884006e+000,3.2814896329e+000,3.6646853558e+000,2.7657196503e+000,2.6693397981e+000,2.9335102259e+000,2.4445811810e+000,3.8022869082e+000,3.0240936203e+000,3.8634620004e+000,3.9687648295e+000,4.2798350596e+000,
4.8750000000e+000,3.9013070309e+000,3.5204595736e+000,3.3808542343e+000,3.2807554339e+000,3.8621372910e+000,2.8256881360e+000,2.7113944565e+000,3.0058043075e+000,2.3703214302e+000,3.8353817176e+000,2.9463281074e+000,3.8334349737e+000,3.9254549372e+000,4.2587078412e+000,
4.9687500000e+000,4.0561394836e+000,3.6592212066e+000,3.4512703255e+000,3.3842037090e+000,3.9398096514e+000,2.9740056998e+000,2.7105760724e+000,3.1264208017e+000,2.3807569463e+000,3.8870710258e+000,2.9534254087e+000,3.8619066205e+000,3.8862664011e+000,4.2480124000e+000,
5.0625000000e+000,4.0355127958e+000,3.6488615535e+000,3.4472086747e+000,3.3679656043e+000,3.9361321831e+000,2.9668644433e+000,2.7556355763e+000,3.0898080139e+000,2.2720740146e+000,3.9017815920e+000,2.8932301258e+000,3.8337112935e+000,3.7686850447e+000,4.2257118740e+000,
5.1562500000e+000,4.0585867219e+000,3.6871313049e+000,3.4791620338e+000,3.3516201787e+000,3.9931649862e+000,3.0204554125e+000,2.8392036745e+000,3.0812087583e+000,2.2278393385e+000,3.8845317265e+000,2.8105159725e+000,3.8283081972e+000,3.7620937850e+000,4.2945362554e+000,
5.2500000000e+000,4.0650944447e+000,3.7155358511e+000,3.3975446254e+000,3.3498723177e+000,3.9477543485e+000,3.0539478322e+000,2.7450469260e+000,3.0357031717e+000,2.2040184912e+000,3.8169409376e+000,2.7863953616e+000,3.7970081805e+000,3.7638257240e+000,4.2695910598e+000,
5.3437500000e+000,3.9716827373e+000,3.6654278608e+000,3.3009717836e+000,3.2522312325e+000,3.8397330962e+000,2.9279729355e+000,2.6910852064e+000,2.8680817772e+000,2.3103313574e+000,3.6399388897e+000,2.7714866663e+000,3.6144977564e+000,3.4460530574e+000,4.0868154262e+000,
5.4375000000e+000,3.9172559558e+000,3.6282283177e+000,3.1412760077e+000,3.1728820296e+000,3.8530158655e+000,2.8581568994e+000,2.7077110967e+000,2.7646750832e+000,2.3443300224e+000,3.4689800655e+000,2.6836779736e+000,3.3734036439e+000,3.1999612267e+000,3.8545906448e+000,
5.5312500000e+000,3.9034516539e+000,3.6597313792e+000,3.1644115455e+000,3.2092493198e+000,3.8388744186e+000,2.9124013274e+000,2.6837078660e+000,2.7799590513e+000,2.5087302449e+000,3.3836770794e+000,2.8365582261e+000,3.3016389382e+000,3.1626852052e+000,3.8319871210e+000,
5.6250000000e+000,3.9106030850e+000,3.7119467179e+000,3.1744365480e+000,3.2365305418e+000,3.8068169117e+000,2.9157659799e+000,2.7783939574e+000,2.8123152307e+000,2.4491935704e+000,3.3586980863e+000,2.7313157826e+000,3.2155614942e+000,3.1694351720e+000,3.7726203298e+000,
5.7187500000e+000,3.8409930350e+000,3.6448132710e+000,3.1690401795e+000,3.2021142871e+000,3.6289770637e+000,2.8772269474e+000,2.7337683812e+000,2.7538902998e+000,2.3091620438e+000,3.2641390296e+000,2.6790848460e+000,3.0720695389e+000,2.9247350055e+000,3.6784308151e+000,
5.8125000000e+000,3.7504750122e+000,3.6125968167e+000,3.1774908617e+000,3.2130956811e+000,3.5057934612e+000,2.8390048705e+000,2.7307585963e+000,2.6830720376e+000,2.3399957149e+000,3.3242835543e+000,2.7088621239e+000,3.0694828663e+000,2.9078356769e+000,3.8061505141e+000,
5.9062500000e+000,3.3910788912e+000,3.4043617973e+000,3.0910544272e+000,3.1493510602e+000,3.1418684616e+000,2.6909586907e+000,2.5985218593e+000,2.6594694381e+000,2.5140719179e+000,3.2600805623e+000,2.7073411759e+000,3.1987679806e+000,3.0285542512e+000,3.8659419601e+000,
6.0000000000e+000,3.2743071384e+000,3.3684290605e+000,2.9883468139e+000,3.0492793975e+000,3.1224852282e+000,2.6012116061e+000,2.4728542976e+000,2.5013822199e+000,2.5060754491e+000,3.1139328300e+000,2.7073376056e+000,3.1478764144e+000,2.9623587228e+000,3.8960025392e+000,
6.0937500000e+000,3.2651158708e+000,3.3424300232e+000,2.9298230213e+000,3.0180805784e+000,3.0855729933e+000,2.6229278711e+000,2.3985648591e+000,2.5271641586e+000,2.6786880706e+000,2.9632894455e+000,2.8067562755e+000,3.1959999689e+000,3.0532524007e+000,3.9255200472e+000,
6.1875000000e+000,3.1782400457e+000,3.3605303846e+000,2.9186778176e+000,3.0200306207e+000,3.0586956506e+000,2.6880162110e+000,2.4321281384e+000,2.5014495549e+000,2.7635490545e+000,3.1176562835e+000,2.7702616731e+000,3.3363366920e+000,3.0963107411e+000,3.9273692131e+000,
6.2812500000e+000,3.0861465133e+000,3.2785219552e+000,2.9081205398e+000,2.9790268127e+000,3.0175050048e+000,2.6613587971e+000,2.5116060547e+000,2.5230007253e+000,2.7148363537e+000,3.1447005439e+000,2.6412698666e+000,3.3402163394e+000,3.0827466966e+000,3.9125382737e+000,
6.3750000000e+000,3.1660105606e+000,3.2433240750e+000,2.8318726919e+000,2.9904829071e+000,3.0418324444e+000,2.7292955189e+000,2.4711963084e+000,2.5665626006e+000,2.7322364380e+000,3.2076575049e+000,2.5095392547e+000,3.3523129082e+000,3.0082320877e+000,4.0199030113e+000,
6.4687500000e+000,3.2928826379e+000,3.4118712267e+000,2.8076437717e+000,3.0214835208e+000,3.0503563127e+000,2.7718607327e+000,2.4358406938e+000,2.5648016225e+000,2.6386610298e+000,3.3004331918e+000,2.4262172932e+000,3.3948630523e+000,3.0301532939e+000,4.0393707752e+000,
6.5625000000e+000,3.3760640843e+000,3.4651307530e+000,2.7876242009e+000,2.9644331480e+000,3.0833808354e+000,2.7576501000e+000,2.4058381323e+000,2.5368670051e+000,2.5559504808e+000,3.3511286004e+000,2.3088434790e+000,3.4342537130e+000,3.0109803576e+000,4.1438979370e+000,
6.6562500000e+000,3.4344098887e+000,3.5003196664e+000,2.8120575669e+000,3.0592601142e+000,3.1189555391e+000,2.8317781588e+000,2.4177967861e+000,2.5673535792e+000,2.5998453072e+000,3.3545277210e+000,2.3991499555e+000,3.4627059948e+000,3.0637120100e+000,4.1525427227e+000,
6.7500000000e+000,3.4476725080e+000,3.4603695139e+000,2.7684540854e+000,2.9979856510e+000,3.1510225309e+000,2.8829186767e+000,2.4642168900e+000,2.6224807793e+000,2.6241396736e+000,3.3563286711e+000,2.5039792276e+000,3.4319471839e+000,3.1329961581e+000,4.1144495073e+000,
6.8437500000e+000,3.4684883177e+000,3.4805265687e+000,2.7695469551e+000,2.9235538125e+000,3.1546954762e+000,2.8915963947e+000,2.5058159479e+000,2.5393553909e+000,2.6192984134e+000,3.1918512773e+000,2.3638457239e+000,3.4129361465e+000,3.0939718812e+000,4.1673405015e+000,
6.9375000000e+000,3.5043284376e+000,3.4590968894e+000,2.7989334273e+000,2.9161915024e+000,3.1468622276e+000,2.8242162086e+000,2.4767089117e+000,2.4515658153e+000,2.5413577874e+000,3.1226157856e+000,2.4111827516e+000,3.3445558200e+000,2.9668868656e+000,4.1966876931e+000,
7.0312500000e+000,3.4717252534e+000,3.4341674698e+000,2.8321337239e+000,2.9011954969e+000,3.0912602564e+000,2.7805676333e+000,2.4553164994e+000,2.4643332921e+000,2.5357515563e+000,3.1286879347e+000,2.3247316957e+000,3.3302390510e+000,2.9865744963e+000,4.1955579904e+000,
7.1250000000e+000,3.4469466739e+000,3.4323172734e+000,2.8539801770e+000,3.0007862602e+000,2.9806621752e+000,2.7148675417e+000,2.3638108222e+000,2.3956159478e+000,2.4158401805e+000,3.1469289706e+000,2.3522259104e+000,3.1695635873e+000,2.9114534011e+000,4.1191439554e+000,
7.2187500000e+000,3.5406719724e+000,3.4453556136e+000,2.8771862769e+000,3.0440487330e+000,3.2529930882e+000,2.7793855236e+000,2.5248081239e+000,2.6026279609e+000,2.3685933591e+000,3.1321462874e+000,2.3471409251e+000,3.1203235906e+000,2.8817849766e+000,4.0800436432e+000,
7.3125000000e+000,3.5341254251e+000,3.4290216855e+000,2.8774568991e+000,3.0146125144e+000,3.2537435816e+000,2.7402784362e+000,2.4370263331e+000,2.5848776923e+000,2.3436897300e+000,3.1294850409e+000,2.3643405467e+000,3.1207120278e+000,2.8790205526e+000,4.0590639765e+000,
7.4062500000e+000,3.4769076640e+000,3.4083381679e+000,2.9896341211e+000,2.9977989993e+000,3.2424537941e+000,2.6763260116e+000,2.4396075328e+000,2.5895999872e+000,2.3002308903e+000,3.1120946662e+000,2.3859135211e+000,3.0807375819e+000,2.9890391907e+000,4.0810400885e+000,
7.5000000000e+000,3.3747275587e+000,3.2075623533e+000,2.9586873640e+000,3.0709629875e+000,3.1834510852e+000,2.6590502608e+000,2.4137655616e+000,2.6352465765e+000,2.3120940718e+000,3.0698162924e+000,2.3343678669e+000,3.0469628061e+000,3.0617265650e+000,4.0834351552e+000,
7.5937500000e+000,3.2893640759e+000,3.1451774416e+000,2.8735389844e+000,3.0813712311e+000,3.1665629329e+000,2.6188204566e+000,2.4223987911e+000,2.6612539554e+000,2.3452879327e+000,3.1247352240e+000,2.3065057883e+000,3.1883142445e+000,3.1023371762e+000,4.0263998796e+000,
7.6875000000e+000,3.2462882746e+000,3.1159198549e+000,2.8384278915e+000,3.0670442037e+000,3.1824055697e+000,2.5383710211e+000,2.4008972047e+000,2.6183564193e+000,2.3888915238e+000,3.1835831415e+000,2.2411800719e+000,3.3080813129e+000,3.1493738889e+000,4.1614051905e+000,
7.7812500000e+000,3.2333813166e+000,3.0503209494e+000,2.7880638724e+000,3.0156193538e+000,3.2100942658e+000,2.5466323289e+000,2.3855358796e+000,2.6191512664e+000,2.3653050815e+000,3.2088267174e+000,2.1253377364e+000,3.2840529118e+000,3.1162459300e+000,4.1726419065e+000,
7.8750000000e+000,3.1587875727e+000,2.9939272651e+000,2.6236536011e+000,2.9554961958e+000,3.1871839064e+000,2.5328397588e+000,2.2939338967e+000,2.6338324382e+000,2.2428528728e+000,3.2262880692e+000,2.1249547868e+000,3.2577816911e+000,3.1156141068e+000,4.1759583723e+000,
7.9687500000e+000,3.1648923430e+000,3.0138468430e+000,2.6168009883e+000,3.0325476088e+000,3.2210497489e+000,2.6918780228e+000,2.3408085409e+000,2.6072857220e+000,2.2206169916e+000,3.3204805781e+000,2.1472104073e+000,3.2919498106e+000,3.1780171111e+000,4.0938905971e+000,
8.0625000000e+000,3.1596907100e+000,3.0153630277e+000,2.5474025997e+000,3.0504825017e+000,3.2227717720e+000,2.7126896474e+000,2.3406036108e+000,2.5639838344e+000,2.1929248025e+000,3.3560020159e+000,2.1387912542e+000,3.4087068709e+000,3.1568289094e+000,4.1205209607e+000,
8.1562500000e+000,3.1836112102e+000,2.9613368222e+000,2.6637691504e+000,2.9126430137e+000,3.2106433029e+000,2.6935390670e+000,2.2771557543e+000,2.5774390710e+000,2.2296863719e+000,3.2490749828e+000,2.1840630225e+000,3.3563795587e+000,3.1217618457e+000,4.0900139474e+000,
8.2500000000e+000,3.1153062879e+000,2.8772727999e+000,2.5986282997e+000,2.8515841293e+000,3.0569406374e+000,2.5370401159e+000,2.1251913379e+000,2.3468219123e+000,2.2673701592e+000,3.1977980175e+000,2.2074412281e+000,3.3392800249e+000,3.1236321574e+000,4.1894921828e+000,
8.3437500000e+000,3.4696673388e+000,3.1142804959e+000,2.9626638605e+000,3.0302883905e+000,3.3357232957e+000,2.5903717369e+000,2.3302523889e+000,2.4223641966e+000,2.2857642583e+000,3.2046292808e+000,2.2575020453e+000,3.3607765790e+000,3.1929624198e+000,4.2050911851e+000,
8.4375000000e+000,3.4764661771e+000,3.1523265346e+000,2.9254956204e+000,3.0057054476e+000,3.3237658648e+000,2.5230086112e+000,2.4143106950e+000,2.4674088822e+000,2.3134815102e+000,3.1682455721e+000,2.2720011773e+000,3.3783597204e+000,3.2501995387e+000,4.1446999821e+000,
8.5312500000e+000,3.7817769322e+000,3.2635612445e+000,2.9416173675e+000,2.9119056192e+000,3.3707035546e+000,2.5660056814e+000,2.4255755568e+000,2.4216623815e+000,2.2573671492e+000,3.1551603309e+000,2.3220906618e+000,3.3305612015e+000,3.2015445185e+000,4.0914062417e+000,
8.6250000000e+000,1.0511144596e+001,3.4855329030e+000,2.9710626491e+000,2.9759830026e+000,3.4860774152e+000,2.7473135504e+000,4.5154514724e+000,2.5005750823e+000,3.1033348638e+000,3.2293270447e+000,2.6743413353e+000,3.3059340628e+000,3.5544542440e+000,3.9857391854e+000,
8.7187500000e+000,1.0829809737e+001,3.5828860613e+000,3.0597212712e+000,3.0398295021e+000,3.6270256650e+000,2.7337466785e+000,4.7820960734e+000,2.6667351134e+000,3.4093346538e+000,3.2681969002e+000,2.7907217245e+000,3.3391679840e+000,3.6477365353e+000,4.1233491211e+000,
8.8125000000e+000,1.0887342553e+001,3.5955444921e+000,3.0754435924e+000,3.0339538218e+000,3.6282645927e+000,2.7606888614e+000,4.8877977545e+000,2.6685189876e+000,3.4457544286e+000,3.3383461238e+000,2.8351044352e+000,3.4388348128e+000,3.7048127651e+000,4.2526296438e+000,
8.9062500000e+000,1.0890748627e+001,3.5945449142e+000,3.0948118826e+000,3.0341692072e+000,3.6866937129e+000,2.7968701266e+000,4.9040108778e+000,2.6921418329e+000,3.4473035287e+000,3.3397372260e+000,2.8760468590e+000,3.4316296217e+000,3.7300672241e+000,4.2560114987e+000,
9.0000000000e+000,1.0890835542e+001,3.5925376665e+000,3.0902086848e+000,3.0056094077e+000,3.6461098712e+000,2.7463598245e+000,4.9090846712e+000,2.7036478424e+000,3.4610556006e+000,3.2681547088e+000,2.8571324039e+000,3.4300428203e+000,3.6852952031e+000,4.2941199153e+000,
9.0937500000e+000,1.0890856869e+001,3.5956920449e+000,3.0491645779e+000,3.0147094489e+000,3.6555308462e+000,2.7283238562e+000,4.9174072945e+000,2.7100764112e+000,3.4625167446e+000,3.3267291675e+000,2.8451366026e+000,3.3505903528e+000,3.6932251269e+000,4.3355894615e+000,
9.1875000000e+000,1.0890841727e+001,3.6051399663e+000,3.0013880649e+000,3.0380577425e+000,3.6266191534e+000,2.6913699687e+000,4.9220160746e+000,2.6625121771e+000,3.4570581814e+000,3.3137873733e+000,2.7811706581e+000,3.4118723032e+000,3.7009293216e+000,4.3891139010e+000,
9.2812500000e+000,1.0890715913e+001,3.4899766421e+000,2.7412474834e+000,2.8668822610e+000,3.5055437488e+000,2.6215969791e+000,4.9080777345e+000,2.5729071687e+000,3.4479257387e+000,3.3581411498e+000,2.7875787907e+000,3.4436681540e+000,3.6704522855e+000,4.4095236704e+000,
9.3750000000e+000,1.0890569702e+001,3.4506785227e+000,2.3818351819e+000,2.8263980304e+000,3.2735456860e+000,2.6262926182e+000,4.9034211532e+000,2.5128020555e+000,3.4497726340e+000,3.3623689267e+000,2.7550279362e+000,3.4264519797e+000,3.6252638991e+000,4.4201458524e+000,
9.4687500000e+000,1.0890531072e+001,3.3642688668e+000,2.4564418448e+000,2.7549472108e+000,3.3005516869e+000,2.5976418026e+000,4.9062892300e+000,2.4831066733e+000,3.4553785157e+000,3.3871348779e+000,2.7562433629e+000,3.4712130120e+000,3.5836967018e+000,4.4340149091e+000,
9.5625000000e+000,1.0888085047e+001,3.3346921962e+000,2.4781526728e+000,2.7774785476e+000,3.2671692346e+000,2.6083721149e+000,4.9068046353e+000,2.5585041673e+000,3.4198348434e+000,3.4545490174e+000,2.7110823051e+000,3.5009967011e+000,3.5633400155e+000,4.4728603381e+000,
9.6562500000e+000,9.2784437849e+000,3.1579905368e+000,2.4449823216e+000,2.7700373554e+000,3.0206095936e+000,2.6024701662e+000,3.7943323989e+000,2.5661880107e+000,2.7434694717e+000,3.3255806126e+000,2.4948479497e+000,3.2976817768e+000,3.3900647325e+000,4.4399347604e+000,
9.7500000000e+000,7.0588084746e+000,3.1482541973e+000,2.3904989486e+000,2.7873239740e+000,2.9216105149e+000,2.5528873798e+000,3.0289041768e+000,2.4436695220e+000,2.1587596835e+000,3.3307140745e+000,2.4116424911e+000,3.2753887195e+000,3.2525817762e+000,4.2903707489e+000,
9.8437500000e+000,4.0919969150e+000,3.2880821868e+000,2.4770549758e+000,2.9252718338e+000,2.9039467634e+000,2.5825777403e+000,2.7411141026e+000,2.4320437392e+000,2.2273265363e+000,3.3892138419e+000,2.3224952220e+000,3.2845464102e+000,3.2841054508e+000,4.2778938089e+000,
9.9375000000e+000,3.3220915663e+000,3.2790374583e+000,2.5017855913e+000,2.9500349293e+000,2.8300272918e+000,2.5812118112e+000,2.6681707285e+000,2.3832051778e+000,2.2274544647e+000,3.3315354936e+000,2.2683094825e+000,3.2946312102e+000,3.3250015554e+000,4.2768728768e+000,
1.0031250000e+001,3.0595715318e+000,3.2755103081e+000,2.4987480036e+000,2.8499237499e+000,2.8531580246e+000,2.6176718819e+000,2.5769293929e+000,2.3957109674e+000,2.2274315987e+000,3.3564570959e+000,2.3336934761e+000,3.3100248851e+000,3.3801001404e+000,4.2067723103e+000,
1.0125000000e+001,3.0622084812e+000,3.3032396339e+000,2.5085368745e+000,2.8963488200e+000,2.7774901400e+000,2.6293567424e+000,2.4852355255e+000,2.4197499157e+000,2.2590042356e+000,3.2912055509e+000,2.3841045056e+000,3.2965686162e+000,3.3978410758e+000,4.2291865205e+000,
1.0218750000e+001,3.0059609298e+000,3.3128490398e+000,2.4953113381e+000,2.9053414260e+000,2.7971898232e+000,2.6828611906e+000,2.4989712232e+000,2.4183010330e+000,2.2435342807e+000,3.2631812012e+000,2.3704705018e+000,3.2332509300e+000,3.4586848197e+000,4.1316549207e+000,
1.0312500000e+001,2.9811226446e+000,3.3145562862e+000,2.5258918249e+000,2.9181542927e+000,2.8274762198e+000,2.7495675998e+000,2.4372374861e+000,2.4486155304e+000,2.2476230767e+000,3.2197990550e+000,2.3912684780e+000,3.2757061481e+000,3.5657993247e+000,4.0999793391e+000,
1.0406250000e+001,3.0762658282e+000,3.3432103798e+000,2.5629159037e+000,2.9693174663e+000,2.8627158839e+000,2.8162569416e+000,2.3696663416e+000,2.5444507288e+000,2.2689815172e+000,3.2570023119e+000,2.3435347223e+000,3.2200014411e+000,3.5465319583e+000,4.1331982400e+000,
1.0500000000e+001,3.0816381097e+000,3.3097987734e+000,2.4866169317e+000,2.8852003837e+000,2.7650768180e+000,2.8336434195e+000,2.2976152871e+000,2.5309906248e+000,2.2596766630e+000,3.1563732090e+000,2.3880493648e+000,3.1348035871e+000,3.5484982212e+000,4.0572591251e+000,
1.0593750000e+001,3.0299334779e+000,3.2108710841e+000,2.4430623968e+000,2.8718649835e+000,2.7139600135e+000,2.7058771908e+000,2.2208488787e+000,2.4574775346e+000,2.2532886496e+000,3.1154115610e+000,2.3545936736e+000,3.2208314893e+000,3.4893084892e+000,4.0843633479e+000,
1.0687500000e+001,2.9239753655e+000,3.1362481079e+000,2.5126230883e+000,2.8115924002e+000,2.7162630584e+000,2.6500369111e+000,2.1113376580e+000,2.3868067539e+000,2.2606766380e+000,3.1588118866e+000,2.2197381017e+000,3.2318973561e+000,3.4099458087e+000,4.0572907103e+000,
1.0781250000e+001,2.7450607155e+000,3.0628795736e+000,2.5164527594e+000,2.7569325894e+000,2.6756462234e+000,2.6691463783e+000,1.9983214515e+000,2.4636255021e+000,2.2392960432e+000,2.9714233686e+000,2.3265544128e+000,3.0045485282e+000,3.4417090567e+000,3.9031103432e+000,
1.0875000000e+001,3.1401116593e+000,3.1427778320e+000,2.4779017424e+000,2.6974644501e+000,2.8993595102e+000,2.7357591800e+000,1.8870741879e+000,2.5271715371e+000,2.1789407844e+000,3.0392526236e+000,2.4643993518e+000,2.9656507049e+000,3.4164076210e+000,3.8184730724e+000,
1.0968750000e+001,3.1803918947e+000,3.1604979547e+000,2.4737452571e+000,2.7606130565e+000,2.8846974356e+000,2.7719789531e+000,1.9518819860e+000,2.4979145284e+000,2.0988258731e+000,3.1051401835e+000,2.4556623920e+000,3.0451896285e+000,3.3682373569e+000,3.8026069363e+000,
1.1062500000e+001,3.2846451141e+000,3.2049622510e+000,2.5388079193e+000,2.7884413914e+000,2.9269221371e+000,2.6855603326e+000,2.1859366161e+000,2.4776205906e+000,2.1882634041e+000,3.1002220324e+000,2.5894666013e+000,3.0072047596e+000,3.3684680113e+000,3.8049126138e+000,
1.1156250000e+001,3.3910180694e+000,3.1888922592e+000,2.5668523405e+000,2.7411486979e+000,2.9801449612e+000,2.7143721915e+000,2.1544873762e+000,2.4951079530e+000,2.1976257524e+000,3.0726210818e+000,2.5568661964e+000,2.9710015788e+000,3.3867188238e+000,3.8117261623e+000,
1.1250000000e+001,3.4625816711e+000,3.1980445906e+000,2.6454866388e+000,2.8150838071e+000,3.0059720355e+000,2.6528436437e+000,2.2051888779e+000,2.5113324927e+000,2.2500606396e+000,3.0799012797e+000,2.5155322796e+000,2.9261023031e+000,3.3201527309e+000,3.8086513519e+000,
1.1343750000e+001,3.5316111404e+000,3.1931782547e+000,2.6215181652e+000,2.7911005198e+000,3.0819177835e+000,2.6835812334e+000,2.2141489999e+000,2.5545019916e+000,2.2550835579e+000,3.1913830904e+000,2.4808408440e+000,2.8790870371e+000,3.2451946051e+000,3.7966000433e+000,
1.1437500000e+001,3.4450353486e+000,3.1319513959e+000,2.5765203666e+000,2.8329853699e+000,3.0766659307e+000,2.5922133354e+000,2.2275376898e+000,2.4241301426e+000,2.2424507976e+000,3.1228176363e+000,2.5029653619e+000,2.9121620288e+000,3.2108650691e+000,3.8290631235e+000,
1.1531250000e+001,3.4459706700e+000,3.1460736789e+000,2.5713103645e+000,2.8030986210e+000,3.0724629384e+000,2.5565066423e+000,2.2150987108e+000,2.4113133338e+000,2.2804553458e+000,3.1715791928e+000,2.5149550482e+000,2.9508773891e+000,3.2803558430e+000,3.9138331405e+000,
1.1625000000e+001,3.4205877014e+000,3.1774322075e+000,2.5828709543e+000,2.7948421630e+000,3.0684129850e+000,2.6105723822e+000,2.1252630988e+000,2.3656330848e+000,2.3032033795e+000,3.1617679189e+000,2.5343622082e+000,2.8491514470e+000,3.2878160166e+000,3.8619753263e+000,
1.1718750000e+001,3.4587624897e+000,3.2076757627e+000,2.5855225110e+000,2.8104639918e+000,3.0972904214e+000,2.6342999304e+000,2.1370756363e+000,2.4432363330e+000,2.3363928546e+000,3.1039564703e+000,2.5310346534e+000,2.8920723322e+000,3.2022120620e+000,3.8760281090e+000,
1.1812500000e+001,3.3963134952e+000,3.2243648935e+000,2.6337093356e+000,2.7953164883e+000,3.0425023874e+000,2.6122953442e+000,2.0772101402e+000,2.3224114684e+000,2.3193172794e+000,3.1008166006e+000,2.4724998571e+000,2.9465621771e+000,3.1124642828e+000,3.8152434759e+000,
1.1906250000e+001,3.1667282450e+000,3.0644954916e+000,2.6722391290e+000,2.7555809742e+000,2.8860612284e+000,2.4671375364e+000,2.0365241878e+000,2.3062825661e+000,2.3859843883e+000,2.9949933700e+000,2.4497452205e+000,2.8128373590e+000,3.1917446497e+000,3.8251373503e+000,
1.2000000000e+001,3.1735087456e+000,3.0753135405e+000,2.7753595430e+000,2.8084893955e+000,2.9005819758e+000,2.3761709528e+000,2.1030434588e+000,2.3185456897e+000,2.4140663563e+000,3.0001581707e+000,2.2784975646e+000,2.7180619000e+000,3.1604176621e+000,3.7973276744e+000,
1.2093750000e+001,3.1725607818e+000,3.1066144673e+000,2.8249376067e+000,2.8728873930e+000,2.9261968999e+000,2.4432356779e+000,2.0854014912e+000,2.3622671589e+000,2.4461412661e+000,2.9984906838e+000,2.2367765835e+000,2.7042272509e+000,3.1293039636e+000,3.8436020930e+000,
1.2187500000e+001,3.1581616280e+000,3.0739650961e+000,2.7519056835e+000,2.8636435781e+000,2.9217727185e+000,2.5079389052e+000,2.2929786500e+000,2.3892373988e+000,2.4636549178e+000,3.0488903731e+000,2.2827148793e+000,2.8025477712e+000,3.1129284309e+000,3.9561606039e+000,
1.2281250000e+001,3.1198376585e+000,3.0764492844e+000,2.8229607068e+000,2.8838587612e+000,2.8868562906e+000,2.4152613599e+000,2.3464001574e+000,2.3303125303e+000,2.4250673936e+000,2.9482356463e+000,2.3520452323e+000,2.8072921400e+000,3.0457411611e+000,3.8866927304e+000,
1.2375000000e+001,3.2193000872e+000,3.3369726720e+000,2.9820261086e+000,3.0472605572e+000,2.9970231967e+000,2.6170473498e+000,2.4958974964e+000,2.5539757867e+000,2.4490672352e+000,3.1066168897e+000,2.3374401693e+000,2.8818976077e+000,2.9501304262e+000,3.8418470824e+000,
1.2468750000e+001,3.2279377427e+000,3.3374305378e+000,2.9879520451e+000,3.0295463368e+000,2.9754441578e+000,2.6772976025e+000,2.5276931861e+000,2.5707063805e+000,2.5100546290e+000,3.1752464654e+000,2.3691648140e+000,2.9217819766e+000,2.9736043541e+000,3.7735899550e+000,
1.2562500000e+001,3.2731671451e+000,3.3680550562e+000,3.0524541310e+000,3.0413096484e+000,3.0707294255e+000,2.6519490321e+000,2.6826052172e+000,2.5732099515e+000,2.5073309509e+000,3.1831708075e+000,2.3885541110e+000,2.9893106620e+000,2.9468169825e+000,3.7443260475e+000,
1.2656250000e+001,3.5075897565e+000,3.4249858907e+000,3.1265177381e+000,3.1606393490e+000,3.2723245733e+000,2.6709941198e+000,2.7789783849e+000,2.6025114565e+000,2.5671985842e+000,3.1829108933e+000,2.3358051004e+000,3.0041560354e+000,2.9056587274e+000,3.7281132281e+000,
1.2750000000e+001,3.5187618886e+000,3.5010789506e+000,3.0738113322e+000,3.2043302198e+000,3.3109358414e+000,2.7312109847e+000,2.8490507089e+000,2.5793013754e+000,2.6002642477e+000,3.1898042480e+000,2.2975883919e+000,2.9878082659e+000,2.9400620213e+000,3.7387519910e+000,
1.2843750000e+001,3.5769443018e+000,3.5303870506e+000,3.0513135800e+000,3.2523933348e+000,3.4445494064e+000,2.8824670502e+000,2.9645637222e+000,2.8231737701e+000,2.6091152184e+000,3.3563559174e+000,2.2731693217e+000,3.1490012984e+000,2.9489632833e+000,3.8505316381e+000,
1.2937500000e+001,3.6037067933e+000,3.5692372687e+000,3.0406133190e+000,3.3051533406e+000,3.4703867708e+000,3.0269017215e+000,2.9913519653e+000,2.8654071000e+000,2.6699427148e+000,3.4460419544e+000,2.2194804540e+000,3.1945515426e+000,2.8507692075e+000,3.8773768822e+000,
1.3031250000e+001,6.1773207490e+000,3.6574822089e+000,3.0098877893e+000,3.3757790216e+000,3.4544758077e+000,3.1288478153e+000,2.9229414088e+000,3.0009045493e+000,2.6341837835e+000,3.5720473956e+000,2.2988148226e+000,3.3560093873e+000,2.9749220549e+000,3.9439395558e+000,
1.3125000000e+001,1.1638016521e+001,4.9145304503e+000,3.2178628584e+000,4.5864386416e+000,4.6527281518e+000,4.1787049757e+000,5.5700630380e+000,4.4036378066e+000,4.8502359468e+000,5.0375383601e+000,4.4694823903e+000,4.8929246334e+000,4.7818624507e+000,4.8706575163e+000,
1.3218750000e+001,1.2387019631e+001,5.0225259126e+000,3.3675845164e+000,4.7537595331e+000,4.6959726854e+000,4.2900023179e+000,6.0598357219e+000,4.4891715193e+000,5.1145071242e+000,5.2132535461e+000,4.6303470682e+000,4.9953201638e+000,4.9140274306e+000,4.8856424799e+000,
1.3312500000e+001,1.2409238178e+001,5.0074793357e+000,3.3491051996e+000,4.7474535569e+000,4.6985469462e+000,4.2905556530e+000,6.0812713908e+000,4.4912537880e+000,5.1272980188e+000,5.2124820081e+000,4.6324267140e+000,5.0086033439e+000,4.9449326553e+000,4.9600865592e+000,
1.3406250000e+001,1.2410683042e+001,5.0395112019e+000,3.4260494626e+000,4.7337043044e+000,4.8325246428e+000,4.3050054603e+000,6.0861613842e+000,4.5073278138e+000,5.1473766912e+000,5.2320981444e+000,4.6589555021e+000,5.0512649796e+000,4.9577700202e+000,5.0067021375e+000,
1.3500000000e+001,1.2410785005e+001,5.0636324017e+000,3.4350986430e+000,4.7441472500e+000,4.8814839922e+000,4.3109236738e+000,6.0863379056e+000,4.5194044584e+000,5.1487422254e+000,5.2292203999e+000,4.6567785554e+000,5.0468087638e+000,4.9732793957e+000,5.0165076588e+000,
1.3593750000e+001,1.2410776725e+001,5.0587687322e+000,3.4189418064e+000,4.7533886846e+000,4.8492196514e+000,4.3083015497e+000,6.0832302936e+000,4.5229880222e+000,5.1461115734e+000,5.2484492371e+000,4.6857676119e+000,5.0534754422e+000,5.0237453036e+000,5.0401656830e+000,
1.3687500000e+001,1.2410758628e+001,5.0454803313e+000,3.3687246217e+000,4.7317946042e+000,4.8354711643e+000,4.3000655646e+000,6.0806116558e+000,4.5101954332e+000,5.1488043250e+000,5.2424716769e+000,4.6945259696e+000,5.0442555299e+000,5.0297974773e+000,5.0446912508e+000,
1.3781250000e+001,1.2410754799e+001,5.0369109082e+000,3.3434175147e+000,4.7063826522e+000,4.8233853044e+000,4.2774490000e+000,6.0750053590e+000,4.5003856355e+000,5.1456559305e+000,5.2307442589e+000,4.6916161242e+000,5.0398262386e+000,5.0296496305e+000,5.0623831278e+000,
1.3875000000e+001,1.2410757227e+001,5.0284407304e+000,3.3393780613e+000,4.7095157496e+000,4.8141279416e+000,4.2340659663e+000,6.0755539523e+000,4.4758635331e+000,5.1428604548e+000,5.2307402864e+000,4.6925142794e+000,5.0488892014e+000,5.0349810187e+000,5.0912261677e+000,
1.3968750000e+001,1.2410750844e+001,5.0281259392e+000,3.3135557741e+000,4.7068127349e+000,4.8058564216e+000,4.2236592498e+000,6.0752803886e+000,4.4931292864e+000,5.1397850049e+000,5.2229935571e+000,4.6894698299e+000,5.0536883860e+000,5.0386052113e+000,5.0909286455e+000,
1.4062500000e+001,1.2253038336e+001,4.9355330558e+000,3.4816569309e+000,4.6129459716e+000,4.7217590493e+000,4.0607377435e+000,5.9382491058e+000,4.4059460084e+000,4.9146135245e+000,5.1138240024e+000,4.5213689431e+000,4.8792047625e+000,4.8799694363e+000,4.8953995175e+000,
1.4156250000e+001,1.0648649141e+001,4.4337803470e+000,3.9765770192e+000,3.9624443326e+000,4.6355391718e+000,3.6159035124e+000,4.4231525276e+000,3.9060767082e+000,4.1575780423e+000,4.6201645003e+000,4.1277430483e+000,4.6318608041e+000,4.3848392621e+000,4.7260077104e+000,
1.4250000000e+001,8.3169497756e+000,4.9509105409e+000,4.4677555804e+000,4.4103951273e+000,5.2408646102e+000,3.9900028359e+000,3.5164078558e+000,4.3395867823e+000,4.6341155111e+000,5.1169297831e+000,4.7938331551e+000,5.1634362655e+000,4.9665092914e+000,5.0136424478e+000,
1.4343750000e+001,5.8307665799e+000,5.0892891238e+000,4.5849110140e+000,4.5529550251e+000,5.3691346234e+000,4.1054376723e+000,3.4456307412e+000,4.4468514240e+000,4.7267126469e+000,5.1886458997e+000,4.8588719735e+000,5.2060675239e+000,5.0399011488e+000,5.0375162801e+000,
1.4437500000e+001,5.3188180248e+000,5.0187134223e+000,4.5381856529e+000,4.5218047402e+000,5.2805731442e+000,4.0492877340e+000,3.3659980489e+000,4.3914606552e+000,4.6842120310e+000,5.1507297308e+000,4.8387822490e+000,5.1580604476e+000,5.0268523035e+000,4.9801130236e+000,
1.4531250000e+001,5.2799691660e+000,5.0137002859e+000,4.5363938753e+000,4.5182514238e+000,5.2805271619e+000,4.0419995347e+000,3.3522718148e+000,4.3919234139e+000,4.6831403857e+000,5.1321490145e+000,4.8237282183e+000,5.1604521194e+000,4.9899575664e+000,4.9759537634e+000,
1.4625000000e+001,5.2788628399e+000,5.0165004918e+000,4.5287383626e+000,4.5026833457e+000,5.2875739199e+000,4.0544596389e+000,3.3562265257e+000,4.3995357121e+000,4.6828506418e+000,5.1214927398e+000,4.8151122446e+000,5.1709290345e+000,4.9656530420e+000,5.0105728600e+000,
1.4718750000e+001,5.4073117519e+000,5.1174557651e+000,4.5662593173e+000,4.5817043327e+000,5.4162074872e+000,4.1026802242e+000,3.4137548251e+000,4.4454082834e+000,4.7436499983e+000,5.1654787422e+000,4.8506122617e+000,5.2016647054e+000,4.9968919345e+000,5.0060950884e+000,
1.4812500000e+001,5.4367794664e+000,5.1267451262e+000,4.6016412357e+000,4.6047220931e+000,5.4535310509e+000,4.1097159981e+000,3.4263420269e+000,4.4675449548e+000,4.7912146915e+000,5.1941713596e+000,4.9054858629e+000,5.2336366054e+000,5.0596386508e+000,5.0305853700e+000,
1.4906250000e+001,5.4402276902e+000,5.1239493030e+000,4.6051242157e+000,4.5991677705e+000,5.4571504271e+000,4.0935621916e+000,3.4162883222e+000,4.4486504826e+000,4.8155107736e+000,5.1692922352e+000,4.9397853949e+000,5.2271383733e+000,5.0840363044e+000,5.0223438091e+000,
1.5000000000e+001,5.4479467874e+000,5.1175563449e+000,4.6069702571e+000,4.6101989072e+000,5.4668624744e+000,4.0670751106e+000,3.4371435647e+000,4.4236741827e+000,4.8341110610e+000,5.1733844276e+000,4.9655286193e+000,5.2246302295e+000,5.1057473808e+000,5.0343832030e+000,
1.5093750000e+001,5.3772442537e+000,5.0243028884e+000,4.5092906025e+000,4.5494545159e+000,5.3978638666e+000,3.9772523429e+000,3.3967908243e+000,4.3180879371e+000,4.7853081691e+000,5.1028897351e+000,4.8974698041e+000,5.1775937904e+000,5.0786934219e+000,5.0511191843e+000,
1.5187500000e+001,5.1635590596e+000,4.8064131032e+000,4.0810301585e+000,4.2973986563e+000,5.2082191426e+000,3.6683398337e+000,3.1921718418e+000,4.0216353579e+000,4.3987572110e+000,4.6196535091e+000,4.4755434335e+000,4.6611711695e+000,4.7480004233e+000,4.7080334936e+000,
1.5281250000e+001,4.8913099955e+000,4.6916078779e+000,3.4965456452e+000,4.2482773320e+000,5.0341457039e+000,3.7303607777e+000,3.0744323719e+000,3.9397666332e+000,4.3869898594e+000,4.6529407023e+000,4.3592983688e+000,4.5353841371e+000,4.6862008247e+000,4.5972761562e+000,
1.5375000000e+001,4.8318144265e+000,4.7325644441e+000,3.4730128603e+000,4.3315451087e+000,5.0169894097e+000,3.7337532475e+000,3.0413998943e+000,4.0112239130e+000,4.4517409835e+000,4.7632063187e+000,4.4673154531e+000,4.6904403033e+000,4.7575835651e+000,4.7220015786e+000,
1.5468750000e+001,4.8375677209e+000,4.7524854559e+000,3.4775364147e+000,4.3688035112e+000,5.0236337079e+000,3.7586464348e+000,3.0281010627e+000,4.0448933350e+000,4.4728905635e+000,4.7941620195e+000,4.4862073152e+000,4.7290267403e+000,4.7946386618e+000,4.7723013460e+000,
1.5562500000e+001,4.8848941430e+000,4.7948040578e+000,3.5305276946e+000,4.3876162912e+000,5.0683016724e+000,3.7777945450e+000,3.0535219062e+000,4.0492894310e+000,4.4982798802e+000,4.8277372548e+000,4.5059870321e+000,4.7609598203e+000,4.8224502452e+000,4.8853214849e+000,
1.5656250000e+001,4.8144758693e+000,4.7742718232e+000,3.5221551326e+000,4.3927652300e+000,4.9981073034e+000,3.7606678227e+000,3.1173419187e+000,4.0412105610e+000,4.4838642690e+000,4.8142710692e+000,4.4979356448e+000,4.7581005882e+000,4.8241527429e+000,4.9266935688e+000,
1.5750000000e+001,4.5895770734e+000,4.6515241302e+000,3.4245748264e+000,4.3177453624e+000,4.8305159510e+000,3.7322009669e+000,2.9976235314e+000,3.9818835588e+000,4.4053806729e+000,4.7750608910e+000,4.4430094483e+000,4.7099165636e+000,4.7512656653e+000,4.8594084757e+000,
1.5843750000e+001,4.5370252837e+000,4.6438045596e+000,3.3539223148e+000,4.3053382098e+000,4.7748843174e+000,3.7509929040e+000,2.9680151676e+000,3.9779275285e+000,4.3454622777e+000,4.8159265847e+000,4.3506023751e+000,4.6849791038e+000,4.6958700319e+000,4.8550220313e+000,
1.5937500000e+001,4.5285208967e+000,4.6533515611e+000,3.3422278384e+000,4.2921022625e+000,4.7476206901e+000,3.7571115089e+000,3.0039647527e+000,3.9621630980e+000,4.3332699172e+000,4.8294010770e+000,4.3267861773e+000,4.6811375721e+000,4.6864069134e+000,4.9390593273e+000,
1.6031250000e+001,4.7903281430e+000,4.8153901490e+000,3.4488152203e+000,4.3297622363e+000,4.9020059472e+000,3.9254879605e+000,3.0245036866e+000,4.0120964288e+000,4.3216701546e+000,4.8335538193e+000,4.3334991404e+000,4.6909695634e+000,4.6792090385e+000,4.9474424591e+000,
1.6125000000e+001,5.0789917800e+000,5.1103643530e+000,3.8669574201e+000,4.6101395046e+000,5.2260190528e+000,4.1965185386e+000,3.1373354894e+000,4.3047191369e+000,4.5892104961e+000,5.0792923310e+000,4.6232447661e+000,4.9413324129e+000,4.9250326163e+000,5.0614635260e+000,
1.6218750000e+001,5.1378715138e+000,5.1057307197e+000,4.1385601299e+000,4.6809181897e+000,5.2472529029e+000,4.2146517150e+000,3.2013992506e+000,4.3316655463e+000,4.6492085523e+000,5.1538462544e+000,4.6972541587e+000,5.0890426400e+000,4.9560937409e+000,5.1651334759e+000,
1.6312500000e+001,5.0245997356e+000,5.0109635029e+000,4.1332318222e+000,4.5734909478e+000,5.1269177142e+000,4.1137600245e+000,3.1177670805e+000,4.2057236992e+000,4.5047925726e+000,5.0311427958e+000,4.5601745038e+000,4.9804514757e+000,4.8527787868e+000,5.1041452732e+000,
1.6406250000e+001,4.9892541157e+000,4.9604430546e+000,4.1100829275e+000,4.5128012158e+000,5.0932157843e+000,4.0863857342e+000,3.1437651258e+000,4.1474928668e+000,4.4322693661e+000,4.9677661576e+000,4.4897424062e+000,4.8807760698e+000,4.7728954169e+000,5.0244949064e+000,
1.6500000000e+001,4.9830231057e+000,4.9435337367e+000,4.1103542690e+000,4.4842059088e+000,5.0402565290e+000,4.0938386863e+000,4.3148049309e+000,4.1245218436e+000,4.3940578760e+000,4.9454829459e+000,4.4641365879e+000,4.8659026316e+000,4.7605102792e+000,5.0008809776e+000,
1.6593750000e+001,4.9657519617e+000,4.9219704334e+000,4.1016346682e+000,4.4728873096e+000,5.0211629020e+000,4.0608689916e+000,4.6546113889e+000,4.1140324494e+000,4.3845885890e+000,4.9208348390e+000,4.4594320147e+000,4.8269572275e+000,4.7240670173e+000,4.8766711295e+000,
1.6687500000e+001,4.9721446973e+000,4.9285551196e+000,4.0766332671e+000,4.4639042957e+000,5.0137521190e+000,4.0599147231e+000,4.6732599296e+000,4.1068870128e+000,4.3712615620e+000,4.9189028726e+000,4.4412188072e+000,4.8206446153e+000,4.7208285905e+000,4.8709092349e+000,
1.6781250000e+001,4.9888435948e+000,4.9333712266e+000,4.0929733289e+000,4.4763045272e+000,5.0222836886e+000,4.0524820233e+000,4.6936951399e+000,4.1059604009e+000,4.3726735696e+000,4.9130487155e+000,4.4330038732e+000,4.8065610737e+000,4.7004672310e+000,4.8650944422e+000,
1.6875000000e+001,5.0264230062e+000,4.9570089056e+000,4.1260277599e+000,4.5248572232e+000,5.0452414567e+000,4.0873562177e+000,4.7008080627e+000,4.1312395035e+000,4.3716465353e+000,4.8871223966e+000,4.4351451873e+000,4.8051878865e+000,4.6775136387e+000,4.7916735671e+000,
1.6968750000e+001,5.2111913460e+000,5.1390455590e+000,4.3082602744e+000,4.6875111941e+000,5.2116084038e+000,4.2563476494e+000,4.7425982455e+000,4.3888572513e+000,4.6343001941e+000,5.0795135015e+000,4.7118513130e+000,5.0242840301e+000,4.9025148253e+000,4.9482737604e+000,
1.7062500000e+001,5.0584094506e+000,5.0377196346e+000,4.2832867287e+000,4.6764380671e+000,5.1077638083e+000,4.1630074625e+000,4.7316667848e+000,4.3760349813e+000,4.6516189591e+000,5.0744218835e+000,4.6971753180e+000,5.0221446452e+000,4.9097150991e+000,4.9418739402e+000,
1.7156250000e+001,4.5878856158e+000,4.5350088674e+000,3.8522752370e+000,4.1550471490e+000,4.4947157393e+000,3.6822731110e+000,4.6860139906e+000,3.8734946845e+000,4.1429382169e+000,4.6213990522e+000,4.2463642837e+000,4.5782654921e+000,4.3865300917e+000,4.6363098643e+000,
1.7250000000e+001,4.3742234278e+000,4.2908402769e+000,3.5046982678e+000,3.8240223661e+000,4.0520954444e+000,3.4465929297e+000,4.6599985421e+000,3.5769215379e+000,3.6780330410e+000,4.2193328219e+000,3.8552495827e+000,4.1505476104e+000,4.1940895844e+000,4.4680718840e+000,
1.7343750000e+001,4.3452313042e+000,4.2498315627e+000,3.4577018040e+000,3.7744895403e+000,4.0286075578e+000,3.4124785568e+000,4.6554169672e+000,3.5424638107e+000,3.6806774728e+000,4.2107978542e+000,3.8923840137e+000,4.0815701744e+000,4.2080032477e+000,4.3852351779e+000,
1.7437500000e+001,4.3426832331e+000,4.2801030859e+000,3.4522661783e+000,3.8216335050e+000,4.0177635614e+000,3.3733824299e+000,4.6533885982e+000,3.5814824815e+000,3.6936855927e+000,4.2653077943e+000,3.8745090047e+000,4.1313449880e+000,4.1985226424e+000,4.4468428429e+000,
1.7531250000e+001,4.3248576755e+000,4.3133030293e+000,3.4817713027e+000,3.8567993373e+000,4.0153758813e+000,3.3697130001e+000,3.5840093745e+000,3.6216718704e+000,3.6812871198e+000,4.3290917249e+000,3.8992951427e+000,4.1637441372e+000,4.2170940652e+000,4.4988127165e+000,
1.7625000000e+001,4.3069563997e+000,4.3102614455e+000,3.5045976276e+000,3.8666046697e+000,4.0399571397e+000,3.3984053380e+000,2.9535914788e+000,3.6431148459e+000,3.6913131081e+000,4.3376382001e+000,3.8962717378e+000,4.1585951538e+000,4.2506058694e+000,4.4878029784e+000,
1.7718750000e+001,4.2867079613e+000,4.2784458325e+000,3.4799194804e+000,3.8161866501e+000,4.0572424623e+000,3.3959773272e+000,2.8677229644e+000,3.6678238342e+000,3.7204289378e+000,4.3600552561e+000,3.9257247698e+000,4.1961718150e+000,4.2418850742e+000,4.4726698511e+000,
1.7812500000e+001,4.3192812716e+000,4.2610927373e+000,3.4776865960e+000,3.7624074621e+000,4.1013654763e+000,3.3948935163e+000,2.8616793666e+000,3.6992510381e+000,3.7170553007e+000,4.3890541790e+000,3.9345446181e+000,4.2546983825e+000,4.2610224189e+000,4.4716229440e+000,
1.7906250000e+001,4.1833659849e+000,4.1465669198e+000,3.3442618206e+000,3.6156251098e+000,3.9274937963e+000,3.2545431208e+000,2.6976124383e+000,3.5409687643e+000,3.4647285225e+000,4.2349742065e+000,3.6780640244e+000,4.0523716891e+000,4.0559561798e+000,4.2777993637e+000,
1.8000000000e+001,3.6277630050e+000,3.5609009556e+000,2.7991506784e+000,3.0465372179e+000,3.3567850990e+000,2.8129451231e+000,4.8758229911e+000,2.9810128267e+000,2.6322493679e+000,3.8173091878e+000,2.9250813058e+000,3.5037212790e+000,3.5805484959e+000,3.9907176809e+000,
1.8093750000e+001,3.4717382971e+000,3.5095867636e+000,2.7506146715e+000,3.0015249896e+000,3.3742079288e+000,2.9266904799e+000,5.2614195309e+000,3.0090270701e+000,2.6070133734e+000,3.9058027473e+000,2.9270110684e+000,3.5798906343e+000,3.5816665817e+000,4.0034478244e+000,
1.8187500000e+001,3.3885594888e+000,3.5398438749e+000,2.7555094561e+000,3.0708654423e+000,3.3708599744e+000,2.9436753267e+000,5.4214615671e+000,3.0625253419e+000,2.6443327302e+000,3.9464751164e+000,2.9742316424e+000,3.6715240902e+000,3.5886043732e+000,4.2565419200e+000,
1.8281250000e+001,3.4203731137e+000,3.5976232827e+000,2.8701339423e+000,2.9919957328e+000,3.4190396476e+000,2.9218262304e+000,5.4853071796e+000,3.0421918432e+000,2.6833812472e+000,3.9047662866e+000,2.9437586010e+000,3.6896321937e+000,3.2918346893e+000,4.2258393228e+000,
1.8375000000e+001,3.5899844002e+000,3.6822416722e+000,3.0447588811e+000,3.1053369263e+000,3.4447889146e+000,2.9754909076e+000,5.4900526728e+000,3.0663833372e+000,2.5698102624e+000,3.8815560467e+000,2.7474988038e+000,3.7164970786e+000,3.3153255201e+000,4.2566995507e+000,
1.8468750000e+001,3.7357214877e+000,3.7025369549e+000,3.0940217239e+000,3.1432549653e+000,3.6089358821e+000,3.0511077337e+000,5.4939972146e+000,3.1127095625e+000,2.7162443825e+000,3.8493600213e+000,2.8564034606e+000,3.6499165439e+000,3.3379929740e+000,4.1464674902e+000,
1.8562500000e+001,3.7172604770e+000,3.5667068681e+000,2.9167456375e+000,3.0334315177e+000,3.5758007234e+000,2.9809090429e+000,5.4941167714e+000,2.9504393128e+000,2.7330937796e+000,3.7666643926e+000,2.9076987488e+000,3.6327248414e+000,3.3563597967e+000,4.0880196154e+000,
1.8656250000e+001,3.7180411055e+000,3.5269919330e+000,2.8878083443e+000,3.0046822859e+000,3.5133814261e+000,2.9435203233e+000,5.4905454216e+000,2.9235451170e+000,2.5709414444e+000,3.7519595322e+000,2.9152137837e+000,3.6190967391e+000,3.3270318898e+000,4.1480178829e+000,
1.8750000000e+001,3.7427146775e+000,3.6466294726e+000,2.9124750372e+000,3.1479999219e+000,3.4997124369e+000,2.9588560308e+000,5.4929729368e+000,2.8054114906e+000,2.5900783820e+000,3.6825208406e+000,2.9077163180e+000,3.5270327489e+000,3.3111276260e+000,4.1146193289e+000,
1.8843750000e+001,3.7009518294e+000,3.6642093577e+000,2.9627451725e+000,3.1948723108e+000,3.4997250432e+000,2.9554425658e+000,5.4940027766e+000,2.8365755921e+000,2.6115387675e+000,3.6461289520e+000,2.8937583723e+000,3.4617313689e+000,3.3113021764e+000,4.1487107674e+000,
1.8937500000e+001,3.7145434025e+000,3.6673295612e+000,3.0299902857e+000,3.2170374777e+000,3.5145519848e+000,2.9984797335e+000,5.4938234284e+000,2.8912628104e+000,2.5815450876e+000,3.8596547789e+000,2.8369001321e+000,3.4593321561e+000,3.3210771547e+000,4.2177594464e+000,
1.9031250000e+001,3.7603254018e+000,3.7814590620e+000,3.0537042309e+000,3.4276372322e+000,3.5663170853e+000,3.0230261760e+000,4.7278456426e+000,3.1100805407e+000,2.4720222657e+000,4.1873541465e+000,2.8271884858e+000,3.5578391420e+000,3.3403931306e+000,4.2300765644e+000,
1.9125000000e+001,3.8621321358e+000,3.8581671368e+000,3.1198949149e+000,3.4879175226e+000,3.6318427867e+000,3.0432652695e+000,3.9998270460e+000,3.6955132882e+000,2.5458133320e+000,4.9701914157e+000,2.8173971554e+000,3.6300093156e+000,3.4215220490e+000,4.1693075281e+000,
1.9218750000e+001,3.8533134283e+000,3.8132842471e+000,3.1799813850e+000,3.5050792714e+000,3.6133466021e+000,3.0507450257e+000,2.8873350810e+000,3.6838185157e+000,2.5762388354e+000,5.1303076333e+000,2.8018197804e+000,3.4852976371e+000,3.2950876590e+000,3.9624416461e+000,
1.9312500000e+001,3.6492643236e+000,3.6814995919e+000,3.0134231281e+000,3.5154913110e+000,3.5133843284e+000,3.0873811558e+000,2.5993805232e+000,3.7571934711e+000,2.6401453350e+000,5.2253451191e+000,2.7646441299e+000,3.5390309340e+000,3.2921194174e+000,3.9631533058e+000,
1.9406250000e+001,3.5621244805e+000,3.6580743976e+000,2.9116436184e+000,3.4601509220e+000,3.4136527923e+000,3.0647358741e+000,2.4405315727e+000,3.7567349182e+000,2.5038754862e+000,5.2302159779e+000,2.7106500111e+000,3.5232682066e+000,3.1678176152e+000,3.9280195016e+000,
1.9500000000e+001,3.6053605792e+000,3.7029944377e+000,2.9437156866e+000,3.4365283629e+000,3.5129500511e+000,3.0334162911e+000,2.4846655781e+000,3.7512139395e+000,2.5839679401e+000,5.2083618041e+000,2.7358401427e+000,3.5138055172e+000,3.1863712849e+000,3.9332061319e+000,
1.9593750000e+001,3.5887025434e+000,3.6655139452e+000,2.9455411498e+000,3.4143146973e+000,3.5425666668e+000,3.0696878623e+000,2.5619837699e+000,3.7887538273e+000,2.5705704161e+000,5.2232652142e+000,2.6307079283e+000,3.5713815748e+000,3.1942007382e+000,3.9857157150e+000,
1.9687500000e+001,3.5914686353e+000,3.7169661532e+000,2.9959434490e+000,3.4694043554e+000,3.5124826030e+000,3.0694282327e+000,2.5605310051e+000,3.7953610039e+000,2.5899500178e+000,5.2588732209e+000,2.6367147859e+000,3.6299031407e+000,3.2420596112e+000,4.0460743533e+000,
1.9781250000e+001,3.6754342818e+000,3.6746724173e+000,2.9270243372e+000,3.3773762385e+000,3.5779882999e+000,3.0728593244e+000,2.4929432867e+000,3.7926530377e+000,2.5276581524e+000,5.2550307762e+000,2.6152964138e+000,3.5883785660e+000,3.2071129291e+000,4.0325924733e+000,
1.9875000000e+001,3.7793775345e+000,3.7729504362e+000,2.9060346419e+000,3.4090584162e+000,3.6233149932e+000,3.1361844151e+000,2.5335900792e+000,3.7954764347e+000,2.5928946604e+000,5.2893269055e+000,2.6507388471e+000,3.5928104522e+000,3.2610124039e+000,4.0155077733e+000,
1.9968750000e+001,3.7554016682e+000,3.7885812570e+000,2.8707050651e+000,3.2554595642e+000,3.5500197110e+000,3.1292955897e+000,2.5537673477e+000,3.7312341624e+000,2.6797421498e+000,5.2054426876e+000,2.6434459116e+000,3.5512157385e+000,3.2570271033e+000,4.1124635748e+000,
2.0062500000e+001,3.7930146845e+000,3.7066845669e+000,2.9348099937e+000,3.2131410484e+000,3.5945421899e+000,3.0498751261e+000,2.6000030671e+000,3.7073172047e+000,2.7088379246e+000,5.0165881649e+000,2.6542861887e+000,3.4013895897e+000,3.2350744692e+000,4.1117354936e+000,
2.0156250000e+001,3.6884757434e+000,3.5373030668e+000,2.8580991839e+000,3.2165759514e+000,3.5400136931e+000,2.9738177629e+000,2.6056928132e+000,3.2020079300e+000,2.6891910134e+000,4.4244007648e+000,2.6109475922e+000,3.3766831931e+000,3.2033898909e+000,4.0011286460e+000,
2.0250000000e+001,3.7124440473e+000,3.4659766294e+000,2.7490282930e+000,3.1973441871e+000,3.5816399943e+000,2.9470296475e+000,2.6031613977e+000,3.1184941565e+000,2.6946448066e+000,4.0555649123e+000,2.6688491610e+000,3.4199166405e+000,3.2202288245e+000,4.0285111561e+000,
2.0343750000e+001,3.6661292684e+000,3.4627623769e+000,2.8093855238e+000,3.2009283425e+000,3.5086011498e+000,2.8477718212e+000,2.5672718406e+000,3.0900866964e+000,2.6288619592e+000,3.9120958317e+000,2.6329016848e+000,3.3234268938e+000,3.1189667991e+000,4.0113969220e+000,
2.0437500000e+001,3.7173029928e+000,3.4885901469e+000,2.7587701902e+000,3.1783328970e+000,3.5906743129e+000,2.8246795193e+000,2.5539676248e+000,3.0381055698e+000,2.5697415926e+000,3.9301802965e+000,2.4833961178e+000,3.2648175860e+000,3.0819548812e+000,4.0030392794e+000,
2.0531250000e+001,3.7968015261e+000,3.5758446437e+000,2.8770029288e+000,3.2448054993e+000,3.5860747555e+000,2.9172259850e+000,2.5173213277e+000,3.1011200366e+000,2.4984472675e+000,4.0168160240e+000,2.4532811178e+000,3.3057655829e+000,2.9305729187e+000,3.9700632268e+000,
2.0625000000e+001,3.7944524881e+000,3.6637934452e+000,2.8852301679e+000,3.3244705888e+000,3.6259828873e+000,2.9554796600e+000,2.5313454216e+000,3.2037168528e+000,2.6520249027e+000,4.1282227434e+000,2.5557532493e+000,3.3752711112e+000,3.1947655352e+000,4.0819636885e+000,
2.0718750000e+001,3.9671362350e+000,3.9090747944e+000,3.1635189045e+000,3.5682159892e+000,3.8840299647e+000,3.1994979974e+000,2.7396105977e+000,3.4860473939e+000,3.1780868617e+000,4.2901811080e+000,2.8754792496e+000,3.6695801331e+000,3.4259522136e+000,4.1175454512e+000,
2.0812500000e+001,3.8759364237e+000,3.7969103888e+000,3.1404448787e+000,3.5067052437e+000,3.8296007245e+000,3.0766860029e+000,2.6767202441e+000,3.4611529764e+000,3.1701172748e+000,4.2469167434e+000,2.9742243911e+000,3.7750384884e+000,3.4579149962e+000,4.1336003266e+000,
2.0906250000e+001,3.8260193205e+000,3.7627625342e+000,3.1548587318e+000,3.5538930953e+000,3.8116642335e+000,3.0887449517e+000,2.6492348896e+000,3.5710294361e+000,3.1687103374e+000,4.3384768369e+000,2.9775121896e+000,3.8416442422e+000,3.4466317725e+000,4.1834849400e+000,
2.1000000000e+001,3.7874193011e+000,3.7331610887e+000,3.1343833486e+000,3.5531491551e+000,3.7592170271e+000,3.0311913601e+000,2.6008516883e+000,3.5912021410e+000,3.1205142293e+000,4.3685289753e+000,2.9537137310e+000,3.8981182870e+000,3.4002918373e+000,4.0595809803e+000,
2.1093750000e+001,3.7564609628e+000,3.7262979995e+000,3.0825473190e+000,3.5137175448e+000,3.7405657019e+000,3.0284587096e+000,2.6012749626e+000,3.5231257901e+000,3.1009167472e+000,4.3925971693e+000,2.9267507967e+000,3.8594566529e+000,3.3622217476e+000,4.0307906092e+000,
2.1187500000e+001,3.8266340692e+000,3.8643960599e+000,3.0970160592e+000,3.5217670771e+000,3.7148920469e+000,3.0463789706e+000,2.6200802104e+000,3.5385205500e+000,3.0468195353e+000,4.4142147608e+000,2.9123064093e+000,3.8969730851e+000,3.2845297967e+000,4.0783646461e+000,
2.1281250000e+001,3.8300635974e+000,3.8580692455e+000,3.1175173990e+000,3.4518762631e+000,3.7043525579e+000,3.0181080024e+000,2.6733675536e+000,3.5649305506e+000,3.0225469353e+000,4.4427418728e+000,2.8582963686e+000,3.9651827419e+000,3.3126173871e+000,4.0816931016e+000,
2.1375000000e+001,3.8469577634e+000,3.8689860927e+000,3.1188349247e+000,3.4715859350e+000,3.7225992855e+000,3.0480744890e+000,2.7599070149e+000,3.5625067578e+000,3.0118671851e+000,4.5144918489e+000,2.9133423138e+000,4.0085168423e+000,3.3797587810e+000,4.1483803741e+000,
2.1468750000e+001,3.6331770621e+000,3.7683578676e+000,3.1005477995e+000,3.4389755972e+000,3.5446309545e+000,2.9883197415e+000,2.6967728715e+000,3.5437407678e+000,3.0543277297e+000,4.4898051181e+000,2.9291786541e+000,4.0143076574e+000,3.5343815490e+000,4.2582530554e+000,
2.1562500000e+001,3.6556775913e+000,3.7363625245e+000,3.0975605111e+000,3.3877069446e+000,3.5389126515e+000,3.0112753558e+000,2.7564052876e+000,3.4827379149e+000,3.0064614072e+000,4.4353069937e+000,2.9253210762e+000,3.9760590330e+000,3.6046497161e+000,4.2216918156e+000,
2.1656250000e+001,3.5052495869e+000,3.4628934973e+000,2.9835596428e+000,3.1728179586e+000,3.3372480386e+000,2.7533625685e+000,2.5746736987e+000,3.2443806840e+000,2.4949901111e+000,4.2335659458e+000,2.7036294393e+000,3.8188372696e+000,3.3838271049e+000,4.0562146291e+000,
2.1750000000e+001,3.2947304792e+000,3.1738096123e+000,2.8012059402e+000,2.9395023798e+000,2.9440857603e+000,2.5957155372e+000,2.4951372062e+000,3.1890135198e+000,2.0900773229e+000,4.0942616868e+000,2.3168606860e+000,3.5960319356e+000,3.1274050706e+000,3.9515619822e+000,
2.1843750000e+001,3.1711038589e+000,3.1239107207e+000,2.8098711672e+000,2.9655119636e+000,2.8759666017e+000,2.4952373898e+000,2.5177535027e+000,3.1101392663e+000,2.0289805858e+000,3.9825757871e+000,2.3773728259e+000,3.5398036841e+000,3.1904736048e+000,3.8974407669e+000,
2.1937500000e+001,3.2946060766e+000,3.1930840272e+000,2.8381549419e+000,3.0075593091e+000,2.9904738919e+000,2.5290897788e+000,2.6360153753e+000,3.0027292932e+000,2.0352262361e+000,4.0376594804e+000,2.4908601237e+000,3.6787945085e+000,3.3177110536e+000,4.0613136461e+000,
2.2031250000e+001,3.4731522401e+000,3.3000294463e+000,2.8606481857e+000,3.0944674344e+000,3.0410911094e+000,2.6376855280e+000,2.7219060300e+000,3.0723113865e+000,2.1386352323e+000,3.9987447272e+000,2.4455065428e+000,3.6384324272e+000,3.3252897550e+000,4.0859478047e+000,
2.2125000000e+001,3.4693657825e+000,3.2966070687e+000,2.8502045390e+000,3.1297247176e+000,3.0222386663e+000,2.6133486948e+000,2.7301589263e+000,3.1645352634e+000,2.1488569754e+000,3.9468965487e+000,2.5195831912e+000,3.6651711225e+000,3.4636713217e+000,4.1122342262e+000,
2.2218750000e+001,3.3205680069e+000,3.1095949062e+000,2.7725559874e+000,3.0708681701e+000,2.9793850234e+000,2.5514054676e+000,2.6123128612e+000,3.0355038449e+000,2.1566994371e+000,3.7700532231e+000,2.5410264265e+000,3.6009009371e+000,3.4952892668e+000,4.0721384776e+000,
2.2312500000e+001,3.3072165905e+000,3.0928659881e+000,2.7842284578e+000,3.0315022079e+000,2.8993444590e+000,2.5315249215e+000,2.5521272201e+000,2.9969321199e+000,2.1567918827e+000,3.5543078515e+000,2.4595157581e+000,3.4354040470e+000,3.4900967938e+000,4.0394626368e+000,
2.2406250000e+001,3.2657062290e+000,3.0732127828e+000,2.7014497979e+000,3.0202248844e+000,2.8673694822e+000,2.5368915009e+000,2.4508689848e+000,2.9973107648e+000,2.1436789231e+000,3.5088654702e+000,2.5227054704e+000,3.3921701684e+000,3.4281677061e+000,3.9948939361e+000,
2.2500000000e+001,3.3019318782e+000,3.0143820316e+000,2.7191719501e+000,3.0154074915e+000,2.8435428020e+000,2.4629535895e+000,2.5289017114e+000,3.0526831890e+000,2.1015582786e+000,3.5892124044e+000,2.6351656558e+000,3.4499563625e+000,3.3236859866e+000,3.9679914376e+000,
2.2593750000e+001,3.2308892670e+000,2.9927433321e+000,2.6443567043e+000,3.0034847267e+000,2.7914129242e+000,2.4458303411e+000,2.4167142243e+000,3.0976937986e+000,2.1559819542e+000,3.6095511327e+000,2.6497736877e+000,3.4505247550e+000,3.3067994782e+000,3.9156807033e+000,
2.2687500000e+001,3.3499907327e+000,3.1023822732e+000,2.6742204973e+000,3.0517156528e+000,2.9547464464e+000,2.5472037224e+000,2.5351945385e+000,3.1215464223e+000,2.1455648551e+000,3.5868212607e+000,2.6669133789e+000,3.4551603792e+000,3.3199530223e+000,3.9379314837e+000,
2.2781250000e+001,3.3781661736e+000,3.1997451270e+000,2.6869599620e+000,3.0578937271e+000,2.9941223039e+000,2.6420230781e+000,2.5292699581e+000,3.1489146385e+000,2.1118713525e+000,3.6313827070e+000,2.6591348516e+000,3.5088332491e+000,3.3096088427e+000,3.9498133279e+000,
2.2875000000e+001,3.3935285171e+000,3.2613515031e+000,2.6844513246e+000,3.0859249742e+000,2.9231253609e+000,2.7136749076e+000,2.4870488356e+000,3.1636069680e+000,2.0942087131e+000,3.5880232400e+000,2.5705402649e+000,3.6020042861e+000,3.2072493099e+000,3.9752573919e+000,
2.2968750000e+001,3.3254977949e+000,3.2694355431e+000,2.7190065656e+000,3.1300535473e+000,2.8502094578e+000,2.6498812956e+000,2.3814867051e+000,3.1862142766e+000,1.9676007529e+000,3.4196081678e+000,2.6103135623e+000,3.5866935092e+000,3.1953388273e+000,3.8122401434e+000,
2.3062500000e+001,3.1792339330e+000,3.2072633487e+000,2.6925187481e+000,3.0390746051e+000,2.7973522962e+000,2.6821400449e+000,2.3168655821e+000,3.1353006739e+000,1.8671089642e+000,3.4659449020e+000,2.5961674666e+000,3.6834673235e+000,3.2710269647e+000,3.8687803229e+000,
2.3156250000e+001,3.2453731458e+000,3.2647798549e+000,2.6975407004e+000,2.9322594498e+000,2.9855980000e+000,2.7803151381e+000,2.4236128011e+000,3.1193245248e+000,2.0354481560e+000,3.5654408716e+000,2.5675579625e+000,3.7187930726e+000,3.2286407329e+000,3.7599055739e+000,
2.3250000000e+001,3.6568300879e+000,3.5638308110e+000,2.7248525753e+000,3.0124183929e+000,3.3884117420e+000,2.9910806762e+000,2.5973510946e+000,3.1931552393e+000,2.1459963579e+000,3.6377824419e+000,2.6375002937e+000,3.7506818532e+000,3.3404324608e+000,3.8146015904e+000,
2.3343750000e+001,3.8429725976e+000,3.7013849193e+000,2.7408088252e+000,3.0989576504e+000,3.7195347557e+000,3.1763660598e+000,2.7609500669e+000,3.2867379563e+000,2.2400547035e+000,3.6936595105e+000,2.7157569762e+000,3.8129297615e+000,3.3537641669e+000,3.8359761494e+000,
2.3437500000e+001,3.8568757302e+000,3.7389693707e+000,2.8026725479e+000,3.1198880444e+000,3.7361826261e+000,3.1950147406e+000,2.7523055397e+000,3.3012788925e+000,2.3371318687e+000,3.7164650154e+000,2.6325368585e+000,3.7943731576e+000,3.3750871242e+000,3.7708571235e+000,
2.3531250000e+001,3.8158511349e+000,3.7225055639e+000,2.7374614712e+000,3.0844994577e+000,3.7575184921e+000,3.1480186068e+000,2.7447570741e+000,3.1855041352e+000,2.3172654157e+000,3.6493778084e+000,2.5208029008e+000,3.7965839741e+000,3.3646276699e+000,3.8484602958e+000,
2.3625000000e+001,3.8388456514e+000,3.8033131737e+000,2.7866749395e+000,3.1542744443e+000,3.7710472485e+000,3.1333655202e+000,2.7204708780e+000,3.2608960932e+000,2.2904549003e+000,3.6895090166e+000,2.5478933545e+000,3.8159033455e+000,3.5023050440e+000,3.8752249858e+000,
2.3718750000e+001,3.8386223229e+000,3.7910192678e+000,2.7249438994e+000,3.1339718437e+000,3.7534694284e+000,3.1179457016e+000,2.7062642977e+000,3.2531187818e+000,2.3079441899e+000,3.6244944447e+000,2.5118076343e+000,3.8011395533e+000,3.4672870187e+000,4.0000628848e+000,
2.3812500000e+001,3.8354147019e+000,3.8084472774e+000,2.7140844309e+000,3.1230669558e+000,3.7518964009e+000,3.0607527794e+000,2.6684041888e+000,3.2872064992e+000,2.2976913313e+000,3.5969826461e+000,2.4672692967e+000,3.7944092102e+000,3.4338223001e+000,4.0498399470e+000,
2.3906250000e+001,3.8187237735e+000,3.7711239402e+000,2.6469087705e+000,3.0368550820e+000,3.7841442637e+000,3.0858971777e+000,2.6787315373e+000,3.2844708096e+000,2.3547133058e+000,3.5716754035e+000,2.3665337516e+000,3.6297867939e+000,3.4188575370e+000,3.9652305590e+000,
2.4000000000e+001,3.8066700792e+000,3.7237329959e+000,2.6357950899e+000,2.9692333604e+000,3.8055305263e+000,3.0474291958e+000,2.6157219975e+000,3.3017111687e+000,2.4346767151e+000,3.5801262579e+000,2.5025419186e+000,3.5102201277e+000,3.3636687282e+000,3.9311193106e+000,
2.4093750000e+001,3.9330641619e+000,3.8089719889e+000,2.7176981348e+000,3.0974870518e+000,3.9020571947e+000,3.0374421594e+000,2.7663177118e+000,3.3037497596e+000,2.6224961496e+000,3.4874474861e+000,2.6826990191e+000,3.5314031890e+000,3.4347649788e+000,3.9759025215e+000,
2.4187500000e+001,4.1609322446e+000,4.0101987926e+000,2.8070386816e+000,3.2448600695e+000,4.0192929133e+000,3.2215947982e+000,2.8131761058e+000,3.4497545982e+000,2.6370899997e+000,3.5781817394e+000,2.7180529316e+000,3.5161231435e+000,3.3972740881e+000,4.0212691888e+000,
2.4281250000e+001,3.8922666774e+000,3.8034483892e+000,2.7474485937e+000,3.1435672920e+000,3.7362828792e+000,2.9642199164e+000,2.6824518966e+000,3.3511544661e+000,2.5704963478e+000,3.4157299606e+000,2.6401100610e+000,3.3773907502e+000,3.3584673448e+000,3.9880561712e+000,
2.4375000000e+001,3.8659252096e+000,3.7357644452e+000,2.7487296619e+000,3.0669937999e+000,3.6156037123e+000,2.8603247065e+000,2.6143213972e+000,3.3024695639e+000,2.5628543072e+000,3.3907509048e+000,2.5856099035e+000,3.3011749575e+000,3.4072153484e+000,3.9593261605e+000,
2.4468750000e+001,3.9267109954e+000,3.7515727515e+000,2.8943768258e+000,3.0939667897e+000,3.6903103554e+000,2.9584967276e+000,2.7110131131e+000,3.3788932049e+000,2.6518122712e+000,3.4801291173e+000,2.6398783116e+000,3.3945102881e+000,3.4326849987e+000,3.9945231618e+000,
2.4562500000e+001,3.9264128993e+000,3.7467197145e+000,2.8823130678e+000,3.0880200956e+000,3.7470678160e+000,2.9798179266e+000,2.7574811883e+000,3.3354456099e+000,2.6747811694e+000,3.4644519013e+000,2.7410933739e+000,3.3659319317e+000,3.3670387164e+000,3.9918650878e+000,
2.4656250000e+001,3.8876535761e+000,3.6604626318e+000,2.8298708384e+000,3.0397025399e+000,3.7228345405e+000,3.0219493210e+000,2.7352945523e+000,3.2250184210e+000,2.7070275401e+000,3.5801566685e+000,2.7360551270e+000,3.4793604013e+000,3.2533576249e+000,3.9942539016e+000,
2.4750000000e+001,3.8485520309e+000,3.6718557930e+000,2.8227751575e+000,3.0322909029e+000,3.6876402729e+000,3.0043409940e+000,2.7273983605e+000,3.2121291628e+000,2.6938238353e+000,3.5772960541e+000,2.8036388749e+000,3.4292488577e+000,3.4012245219e+000,3.7470891359e+000,
2.4843750000e+001,3.8723024396e+000,3.6134242416e+000,2.9051925435e+000,3.0988717777e+000,3.7025464197e+000,3.0084397966e+000,2.7433383952e+000,3.1774932882e+000,2.7496483708e+000,3.6214329183e+000,2.8573133473e+000,3.4253729940e+000,3.4339043327e+000,3.8107480928e+000,
2.4937500000e+001,3.8387325713e+000,3.6046397509e+000,2.9309852054e+000,3.1100370975e+000,3.7191000949e+000,2.9821938604e+000,2.7165941746e+000,3.1253903771e+000,2.8094698783e+000,3.5566385907e+000,2.8815790758e+000,3.3939682706e+000,3.3851043614e+000,3.7577833530e+000,
2.5031250000e+001,3.8258074310e+000,3.6175315177e+000,2.9754813205e+000,3.1165428035e+000,3.7433961451e+000,2.9859250767e+000,2.6515688535e+000,3.0707830176e+000,2.7219154323e+000,3.5491134532e+000,2.7101350415e+000,3.3806169203e+000,3.3395546782e+000,3.8166963584e+000,
2.5125000000e+001,3.3377622659e+000,3.3048309189e+000,2.7956730271e+000,2.9835153105e+000,3.5058936822e+000,2.8592478546e+000,2.4883207630e+000,3.0070225048e+000,2.6446639207e+000,3.5130828026e+000,2.7438760080e+000,3.4980318003e+000,3.3752184195e+000,3.9919999601e+000,
2.5218750000e+001,3.0628547159e+000,2.8921848847e+000,2.7327975831e+000,2.7910250166e+000,3.3800242263e+000,2.6080134423e+000,2.4619527469e+000,2.7602594789e+000,2.6699203749e+000,3.4152187529e+000,2.6912779287e+000,3.5120426803e+000,3.3231022033e+000,4.0305663418e+000,
2.5312500000e+001,2.9679951566e+000,2.8739771927e+000,2.6366447471e+000,2.8133942353e+000,3.3636345307e+000,2.6455398636e+000,2.5381740827e+000,2.7635856640e+000,2.6332023106e+000,3.4550984129e+000,2.7102194222e+000,3.5985607351e+000,3.3381696773e+000,4.1350820641e+000,
2.5406250000e+001,3.0460275540e+000,2.9895740501e+000,2.7090928900e+000,2.9023711105e+000,3.3982401144e+000,2.6912770150e+000,2.5606602807e+000,2.6606566506e+000,2.5184891097e+000,3.5002763057e+000,2.7834313792e+000,3.5812032602e+000,3.3698793407e+000,4.2144205299e+000,
2.5500000000e+001,3.2969776227e+000,3.1685737301e+000,2.6857462059e+000,2.9249963567e+000,3.5391025570e+000,2.7928728032e+000,2.5406001240e+000,2.7996227765e+000,2.5786482030e+000,3.5307714587e+000,2.7271538019e+000,3.6567658411e+000,3.3826767306e+000,4.2896967008e+000,
2.5593750000e+001,3.4078584471e+000,3.2721698840e+000,2.7772358936e+000,2.9724221891e+000,3.5577025092e+000,2.8376501153e+000,2.5665789552e+000,2.9095484827e+000,2.6163189141e+000,3.6265379152e+000,2.7401720016e+000,3.8232716146e+000,3.5668444307e+000,4.5159683016e+000,
2.5687500000e+001,3.5552451186e+000,3.3940895073e+000,2.8491571506e+000,3.0770650640e+000,3.6530985704e+000,2.8423841488e+000,2.6381981216e+000,2.9314483050e+000,2.6905884827e+000,3.6063174426e+000,2.7837022890e+000,3.7712162017e+000,3.7359196364e+000,4.5827944568e+000,
2.5781250000e+001,3.5947325310e+000,3.4594610580e+000,2.9122034202e+000,3.1690209446e+000,3.7103265887e+000,2.9138335037e+000,2.6496908080e+000,2.9702054945e+000,2.7127895238e+000,3.6817355920e+000,2.7368398314e+000,3.8707301793e+000,3.6540020823e+000,4.6281087985e+000,
2.5875000000e+001,3.6096702832e+000,3.4810335893e+000,2.9056670745e+000,3.1334416905e+000,3.7137743466e+000,2.8927744996e+000,2.6754531780e+000,2.8983645960e+000,2.7067211649e+000,3.6494137143e+000,2.7929748754e+000,3.9316907456e+000,3.6596728967e+000,4.6506557816e+000,
2.5968750000e+001,3.6062558499e+000,3.4482158360e+000,2.8192675806e+000,3.0547264304e+000,3.6211175541e+000,2.8506567568e+000,2.6831554495e+000,2.8541073390e+000,2.6046708572e+000,3.5846827728e+000,2.7112277912e+000,3.9409117448e+000,3.6781249574e+000,4.6664078626e+000,
2.6062500000e+001,3.6891305190e+000,3.5637092826e+000,2.8550768826e+000,3.0794084272e+000,3.6472980051e+000,2.9204424042e+000,2.6741901694e+000,2.8951418137e+000,2.6740580501e+000,3.6048199603e+000,2.7705012641e+000,3.9090553380e+000,3.6893918113e+000,4.6827180138e+000,
2.6156250000e+001,3.7248474158e+000,3.5930269327e+000,2.8873337331e+000,3.0826895854e+000,3.6730290957e+000,2.9232481216e+000,2.7231190740e+000,2.9444679788e+000,2.6488363113e+000,3.6180192907e+000,2.7309886581e+000,3.8112558418e+000,3.6881386601e+000,4.6003952758e+000,
2.6250000000e+001,3.7538382850e+000,3.6780167751e+000,2.9742378480e+000,3.1277550187e+000,3.7280351243e+000,2.9686040901e+000,2.6998778220e+000,3.0028279624e+000,2.7701892452e+000,3.6458366292e+000,2.8573822346e+000,3.8368035411e+000,3.7475099019e+000,4.6111088563e+000,
2.6343750000e+001,4.1989372011e+000,3.9995628968e+000,3.3701431881e+000,3.3835212776e+000,4.2005635847e+000,3.2307331246e+000,2.8905569086e+000,3.3380345094e+000,3.5023770820e+000,4.1076402152e+000,3.5254182085e+000,4.1833830347e+000,4.1163789681e+000,4.6817367501e+000,
2.6437500000e+001,4.4490989856e+000,4.1603472748e+000,3.6312362060e+000,3.6039694184e+000,4.4438028899e+000,3.3137419762e+000,3.0400217045e+000,3.5468425126e+000,3.8657104104e+000,4.2705484389e+000,3.8154978195e+000,4.3424709029e+000,4.2432858465e+000,4.6781916067e+000,
2.6531250000e+001,4.4033256337e+000,4.0746241943e+000,3.6460686589e+000,3.5874721892e+000,4.3601116723e+000,3.2453243186e+000,3.0200661139e+000,3.5138832957e+000,3.8535700038e+000,4.2113103688e+000,3.8692750344e+000,4.3356782194e+000,4.2192980035e+000,4.6831563647e+000,
2.6625000000e+001,4.4293566129e+000,4.1424642669e+000,3.7107473704e+000,3.6754795117e+000,4.3740545243e+000,3.2460031089e+000,3.0188645925e+000,3.5330639210e+000,3.8713542663e+000,4.2076239661e+000,3.8739385355e+000,4.3143845843e+000,4.1727824072e+000,4.5244872352e+000,
2.6718750000e+001,4.4079084892e+000,4.0872457445e+000,3.6685351285e+000,3.5841362409e+000,4.3561668891e+000,3.2138094975e+000,2.9935838680e+000,3.5069510488e+000,3.8311574022e+000,4.1963168173e+000,3.8505364687e+000,4.3092350856e+000,4.0715621531e+000,4.4888556151e+000,
2.6812500000e+001,4.5916193245e+000,4.2456169071e+000,3.7392375482e+000,3.6590370977e+000,4.6246490122e+000,3.3783699912e+000,3.0587189755e+000,3.6682319799e+000,3.9523233099e+000,4.3311913864e+000,3.9833267256e+000,4.3679793149e+000,4.1897810916e+000,4.4504728777e+000,
2.6906250000e+001,4.6720758312e+000,4.2934987010e+000,3.7573711965e+000,3.6795234499e+000,4.6767485680e+000,3.4289929476e+000,3.1303120760e+000,3.6770826105e+000,3.9917574916e+000,4.3248551039e+000,3.9755086170e+000,4.3136272398e+000,4.1848148983e+000,4.4118771820e+000,
2.7000000000e+001,4.8608315638e+000,4.4813942729e+000,3.8727600914e+000,3.8361524299e+000,4.8726393655e+000,3.6445577679e+000,3.3656745571e+000,3.8582045540e+000,4.0843498845e+000,4.4835435219e+000,4.0630511574e+000,4.4168461614e+000,4.2760473609e+000,4.5033419033e+000,
2.7093750000e+001,4.9207693709e+000,4.5245344436e+000,3.9219315525e+000,3.8865462577e+000,4.9684653227e+000,3.6604169899e+000,3.4180123989e+000,3.9332479605e+000,4.2688653285e+000,4.5408458168e+000,4.2903857895e+000,4.5135208241e+000,4.4457327156e+000,4.4985257801e+000,
2.7187500000e+001,5.1133549479e+000,4.7636722816e+000,4.1354387494e+000,4.1570647987e+000,5.1749726194e+000,3.9053583481e+000,3.5699334781e+000,4.1735815751e+000,4.4507366322e+000,4.8474055962e+000,4.4526637666e+000,4.8010790398e+000,4.6216378175e+000,4.7102860761e+000,
2.7281250000e+001,5.2778404446e+000,4.8910171811e+000,4.2605219773e+000,4.2560382142e+000,5.2826896983e+000,3.9860444454e+000,3.6409682592e+000,4.2539068958e+000,4.4588335412e+000,4.8838281479e+000,4.4664201787e+000,4.8141023674e+000,4.6307015872e+000,4.7120928259e+000,
2.7375000000e+001,5.1219121622e+000,4.7835953964e+000,4.0796707011e+000,4.1115083062e+000,5.1297376630e+000,3.8834869416e+000,3.5558509345e+000,4.1163613431e+000,4.1756523191e+000,4.6700127920e+000,4.1741256871e+000,4.6090930511e+000,4.3753612993e+000,4.6542866023e+000,
2.7468750000e+001,5.0634591567e+000,4.7567843909e+000,3.9832468968e+000,4.0821718206e+000,5.0782198223e+000,3.8171416706e+000,3.5027777958e+000,4.0560272166e+000,4.0811450277e+000,4.5833085561e+000,4.1186976039e+000,4.5566248450e+000,4.3677625312e+000,4.6257605808e+000,
2.7562500000e+001,5.0287606664e+000,4.7250018922e+000,3.9169675351e+000,4.0425705454e+000,5.0752174072e+000,3.7992941738e+000,3.5148461958e+000,4.0465815023e+000,4.0697392631e+000,4.5921720310e+000,4.0392133648e+000,4.4886968967e+000,4.3243734992e+000,4.6013260143e+000,
2.7656250000e+001,5.0464784764e+000,4.7503961441e+000,3.9565338236e+000,4.1068493148e+000,5.0918063554e+000,3.8428955707e+000,3.5556289623e+000,4.1265917952e+000,4.1437658982e+000,4.6610792877e+000,4.1457665578e+000,4.5479282474e+000,4.3496950056e+000,4.6470533794e+000,
2.7750000000e+001,5.0661098594e+000,4.7655259602e+000,3.9815273473e+000,4.0929045245e+000,5.0981873354e+000,3.8534943464e+000,3.5486106605e+000,4.1286284472e+000,4.1829470743e+000,4.6863636194e+000,4.2656200605e+000,4.6064849419e+000,4.4217869459e+000,4.6772567424e+000,
2.7843750000e+001,5.0456998615e+000,4.7086178684e+000,3.9821338370e+000,4.0923839719e+000,5.0249873302e+000,3.7437521141e+000,3.5190887753e+000,4.0680866296e+000,4.1649223598e+000,4.6293931303e+000,4.2760077227e+000,4.6029272252e+000,4.3871866271e+000,4.6728702443e+000,
2.7937500000e+001,4.9910731651e+000,4.6767068734e+000,3.9797003924e+000,4.0852665217e+000,4.9971539653e+000,3.7096775611e+000,3.4845677960e+000,4.0747931988e+000,4.0996438377e+000,4.6180393086e+000,4.2660931279e+000,4.5887717085e+000,4.4101537018e+000,4.6215357983e+000,
2.8031250000e+001,5.0600112924e+000,4.7454624357e+000,4.1142666016e+000,4.1711156538e+000,5.1019358042e+000,3.6707338147e+000,3.5558667275e+000,4.1713557261e+000,4.2411424435e+000,4.8453814307e+000,4.4013708906e+000,4.7787760254e+000,4.5363252204e+000,4.7606015590e+000,
2.8125000000e+001,5.5011572300e+000,4.9707478702e+000,4.4763195507e+000,4.3050926585e+000,5.5856050996e+000,3.9743355408e+000,3.8926667364e+000,4.6215714899e+000,4.8736022734e+000,5.4140951947e+000,4.9624240625e+000,5.2767915543e+000,5.0900087603e+000,5.0433445621e+000,
2.8218750000e+001,5.3890503777e+000,4.7878397891e+000,4.3556658563e+000,4.1257587662e+000,5.5011059714e+000,3.8200259392e+000,3.8347831594e+000,4.5579544192e+000,4.8553435045e+000,5.3558724883e+000,4.9603284975e+000,5.2522202489e+000,5.1321515648e+000,5.0628216041e+000,
2.8312500000e+001,5.3228030494e+000,4.7138830269e+000,4.3213881037e+000,4.0844382045e+000,5.4477972402e+000,3.7372159766e+000,3.7956554244e+000,4.5268693101e+000,4.8449708670e+000,5.3663792891e+000,4.9538237822e+000,5.2589019776e+000,5.1104272465e+000,5.0427991644e+000,
2.8406250000e+001,5.3256233594e+000,4.6963139262e+000,4.3266770598e+000,4.1003718500e+000,5.4495445356e+000,3.7577311789e+000,3.7389202404e+000,4.5294145967e+000,4.8447721182e+000,5.3873971823e+000,4.9493824987e+000,5.2925225314e+000,5.0983294985e+000,5.0548093445e+000,
2.8500000000e+001,5.3254611467e+000,4.6895494529e+000,4.3272167697e+000,4.0956432421e+000,5.4506169895e+000,3.7624170452e+000,3.7152544092e+000,4.5231562668e+000,4.8473507866e+000,5.3948912012e+000,4.9546272437e+000,5.2862638218e+000,5.1033385246e+000,5.0403141222e+000,
2.8593750000e+001,5.2927006748e+000,4.6456313439e+000,4.2944825091e+000,4.0081981256e+000,5.4265582803e+000,3.7446932912e+000,3.6725523383e+000,4.5005968831e+000,4.8405770907e+000,5.3658546108e+000,4.9409316100e+000,5.2640787397e+000,5.1144730772e+000,5.0003545900e+000,
2.8687500000e+001,5.2826857269e+000,4.6245864390e+000,4.2888235906e+000,3.9950354602e+000,5.4163814075e+000,3.7112336630e+000,3.6824683267e+000,4.4730973394e+000,4.8126820311e+000,5.3440774420e+000,4.9086978915e+000,5.2563354868e+000,5.0995599219e+000,5.0103138301e+000,
2.8781250000e+001,5.2249840147e+000,4.5758952439e+000,4.2348754726e+000,3.9449144932e+000,5.3729353479e+000,3.6635851826e+000,3.6556881203e+000,4.4421016467e+000,4.7656607029e+000,5.3172824866e+000,4.8098732153e+000,5.1969916784e+000,5.0447743853e+000,4.9874387575e+000,
2.8875000000e+001,5.2066135263e+000,4.5673900206e+000,4.2324790026e+000,3.9501143047e+000,5.3645242915e+000,3.6643898197e+000,3.6693837837e+000,4.4396701414e+000,4.7607134831e+000,5.3200494956e+000,4.8135549626e+000,5.2102929990e+000,5.0515872214e+000,5.0249318135e+000,
2.8968750000e+001,5.1895488548e+000,4.5576078123e+000,4.1917241811e+000,3.9242129724e+000,5.3428017531e+000,3.6540777938e+000,3.6641757278e+000,4.4141475916e+000,4.7526151427e+000,5.3048086393e+000,4.8013746093e+000,5.2021471771e+000,5.0359469727e+000,5.0098027171e+000,
2.9062500000e+001,4.9924123681e+000,4.2556969184e+000,3.9873718770e+000,3.6776499975e+000,5.1405444613e+000,3.4413251453e+000,3.4462517327e+000,4.2445928465e+000,4.6139496310e+000,5.0941044274e+000,4.6543043583e+000,5.0173366252e+000,4.9012282265e+000,4.8634815680e+000,
2.9156250000e+001,3.3725219839e+000,3.2519254636e+000,2.7597081188e+000,3.0204246073e+000,3.4928543968e+000,2.4514283453e+000,2.3184695024e+000,2.9718205612e+000,2.6201899324e+000,3.6782005408e+000,2.7367033379e+000,3.7512383500e+000,3.4279346558e+000,4.1105171306e+000,
2.9250000000e+001,3.2272725255e+000,3.1563166104e+000,2.6153861672e+000,2.9807757544e+000,3.4080928246e+000,2.3547902505e+000,2.3493476021e+000,2.7812232373e+000,2.4339377860e+000,3.4776096864e+000,2.7102668314e+000,3.6679409650e+000,3.3437729221e+000,4.0278886942e+000,
2.9343750000e+001,3.2330967700e+000,3.1666525812e+000,2.6293024106e+000,2.8847825268e+000,3.4279962026e+000,2.3772848705e+000,2.4000489187e+000,2.7019246816e+000,2.4713575174e+000,3.2769754205e+000,2.6899758298e+000,3.3979044808e+000,3.2197401024e+000,3.8179625361e+000,
2.9437500000e+001,3.0784726532e+000,3.0652127000e+000,2.5292267424e+000,2.8253409139e+000,3.3226311741e+000,2.2426265513e+000,2.4601843873e+000,2.7121094665e+000,2.5688815038e+000,3.3886868407e+000,2.9160465162e+000,3.5285222567e+000,3.3060900865e+000,3.7599489713e+000,
2.9531250000e+001,3.1365081559e+000,3.1472830292e+000,2.6268893226e+000,2.8481517331e+000,3.3906782504e+000,2.2972858569e+000,2.5305820314e+000,2.7845305085e+000,2.6897761506e+000,3.3967399875e+000,2.9644416903e+000,3.5881159486e+000,3.4233627053e+000,3.7834347472e+000,
2.9625000000e+001,3.0770402952e+000,3.0665074382e+000,2.5692972095e+000,2.8177925381e+000,3.3649142532e+000,2.1692882973e+000,2.5605723092e+000,2.6543191986e+000,2.5943840562e+000,3.3663524156e+000,2.9532168200e+000,3.6266082643e+000,3.4271405662e+000,3.8172550342e+000,
2.9718750000e+001,3.2047810888e+000,3.1700995674e+000,2.5733195378e+000,2.8677308161e+000,3.4284468181e+000,2.3224023217e+000,2.5558704912e+000,2.7435290072e+000,2.5892256555e+000,3.3753668473e+000,2.8988895756e+000,3.6713020695e+000,3.4479717333e+000,3.9594085638e+000,
2.9812500000e+001,3.5934205289e+000,3.5796351576e+000,2.9172164882e+000,3.1721277875e+000,3.7182285585e+000,2.6497658880e+000,2.7803506178e+000,3.1106410787e+000,2.9246164905e+000,3.5617291418e+000,2.9997363956e+000,3.7999352821e+000,3.5166309456e+000,3.8871133078e+000,
2.9906250000e+001,3.6601934836e+000,3.6134575919e+000,2.9594341843e+000,3.2491786043e+000,3.7672463019e+000,2.7217351894e+000,2.7769789444e+000,3.1843662213e+000,3.0548150950e+000,3.8051231224e+000,3.1379167898e+000,3.8911168176e+000,3.6267558426e+000,3.8660773107e+000,
3.0000000000e+001,3.6661776104e+000,3.6038532591e+000,2.9682366785e+000,3.2419629036e+000,3.7601314362e+000,2.7583300505e+000,2.7492931432e+000,3.1392444721e+000,3.0781311012e+000,3.8088116476e+000,3.1667962104e+000,3.9057664839e+000,3.6446184492e+000,3.9553796920e+000,
3.0093750000e+001,3.6677698263e+000,3.6492708780e+000,2.9336823960e+000,3.2310602341e+000,3.7105207221e+000,2.7611319319e+000,2.7456516406e+000,3.1366520159e+000,3.1070367868e+000,3.8194912609e+000,3.2262600459e+000,3.9226044655e+000,3.7193022352e+000,4.0245048068e+000,
3.0187500000e+001,3.7361559953e+000,3.6889674961e+000,3.0005500609e+000,3.2584330535e+000,3.7251484235e+000,2.8118986062e+000,2.7996567846e+000,3.1750911566e+000,3.1173048254e+000,3.8005680829e+000,3.2372429564e+000,3.8612543542e+000,3.7534027814e+000,4.0616072175e+000,
3.0281250000e+001,3.7685214340e+000,3.6772094748e+000,3.0017399151e+000,3.2222870236e+000,3.7206926490e+000,2.7904235860e+000,2.8046064217e+000,3.1385253951e+000,3.0998879182e+000,3.8299888077e+000,3.2185294451e+000,3.8342970735e+000,3.7504764771e+000,4.0693778305e+000,
3.0375000000e+001,3.8373701182e+000,3.7406583886e+000,3.0052578535e+000,3.3062532818e+000,3.7756436147e+000,2.7708978203e+000,2.8044065005e+000,3.2142035361e+000,3.0539553848e+000,3.8517534750e+000,3.2537929391e+000,3.8587850248e+000,3.8280150535e+000,4.0855091275e+000,
3.0468750000e+001,3.8084375792e+000,3.7279346654e+000,2.9540281146e+000,3.2593504275e+000,3.7125006517e+000,2.7477201828e+000,2.7907778850e+000,3.1136288124e+000,3.0105123748e+000,3.7240615206e+000,3.1738125384e+000,3.7243131178e+000,3.8891061551e+000,4.2687464458e+000,
3.0562500000e+001,3.8396797916e+000,3.7470120747e+000,2.9565867039e+000,3.2878645950e+000,3.6946483355e+000,2.7717478321e+000,2.7564852143e+000,3.1046318164e+000,2.9457212470e+000,3.7136870736e+000,3.1536536760e+000,3.7609884140e+000,3.8614698516e+000,4.3281838012e+000,
3.0656250000e+001,3.9206762498e+000,3.7687732780e+000,2.9656552851e+000,3.2855510432e+000,3.7390944193e+000,2.8088097098e+000,2.6780070973e+000,3.1223365141e+000,2.9539504777e+000,3.6813083006e+000,3.2230164221e+000,3.6328797579e+000,3.8444067627e+000,4.2507473504e+000,
3.0750000000e+001,3.9462838973e+000,3.7440741460e+000,3.0556799310e+000,3.2323022646e+000,3.8288926996e+000,2.6988610083e+000,2.5615934118e+000,3.0053293687e+000,2.9355097442e+000,3.5932736966e+000,3.2132707460e+000,3.5500310240e+000,3.8149486712e+000,4.2242465765e+000,
3.0843750000e+001,3.6525619541e+000,3.5108038531e+000,2.8453477204e+000,2.9688208543e+000,3.4769992384e+000,2.4817302996e+000,2.3419811435e+000,2.7325277928e+000,2.5202630342e+000,3.3391510360e+000,3.0249491997e+000,3.3650470960e+000,3.6682239051e+000,4.2179311473e+000,
3.0937500000e+001,3.5848983492e+000,3.4982160993e+000,2.8615885299e+000,2.9201633860e+000,3.4282165024e+000,2.4492712526e+000,2.2569489452e+000,2.6235516994e+000,2.4110499013e+000,2.9593023846e+000,2.9077644637e+000,3.1853863823e+000,3.5582388690e+000,4.1846885953e+000,
3.1031250000e+001,3.5630678329e+000,3.5185645145e+000,2.8359359195e+000,2.9154524785e+000,3.3908483475e+000,2.4776638282e+000,2.2529498508e+000,2.6527617169e+000,2.3831880014e+000,3.1779657495e+000,3.0060279875e+000,3.3165341324e+000,3.6169609329e+000,4.1508940402e+000,
3.1125000000e+001,3.5465592949e+000,3.4532826583e+000,2.8641433314e+000,2.8610878463e+000,3.4011521779e+000,2.4962375548e+000,2.2520699937e+000,2.5304012009e+000,2.3361409209e+000,3.1819443291e+000,2.9188468304e+000,3.3522386294e+000,3.6054650864e+000,4.1720161148e+000,
3.1218750000e+001,3.4092756321e+000,3.3548917047e+000,2.8241039620e+000,2.8264783689e+000,3.2804702222e+000,2.4752948790e+000,2.1388276930e+000,2.4673039074e+000,2.3429179352e+000,3.2072564023e+000,2.9230343250e+000,3.3934596725e+000,3.5595899155e+000,4.1901261776e+000,
3.1312500000e+001,3.3745108806e+000,3.3481589771e+000,2.8139449439e+000,2.8516402538e+000,3.2124099186e+000,2.4641835224e+000,2.1487185690e+000,2.4718808710e+000,2.3922721397e+000,3.1678747473e+000,2.8475070210e+000,3.3755729806e+000,3.4867069220e+000,4.1939657005e+000,
3.1406250000e+001,3.3038478445e+000,3.2397330850e+000,2.7690647759e+000,2.7819313736e+000,3.1909814806e+000,2.5307369699e+000,2.1145567042e+000,2.4511371053e+000,2.3376128015e+000,3.1685949824e+000,2.8585583546e+000,3.3278619791e+000,3.4015940173e+000,4.1285351714e+000,
3.1500000000e+001,3.7151488084e+000,3.4514600192e+000,2.8015111022e+000,2.8161823967e+000,3.5642076947e+000,2.6509938537e+000,2.1435385645e+000,2.5157366618e+000,2.2704045457e+000,3.0549263763e+000,2.7382281915e+000,3.2091039064e+000,3.1743843309e+000,3.9996109708e+000,
3.1593750000e+001,3.6932902353e+000,3.4448299469e+000,2.7699841647e+000,2.7569318840e+000,3.5750478272e+000,2.6353630160e+000,2.1364911910e+000,2.4413235873e+000,2.3709659330e+000,3.0117363682e+000,2.7399875854e+000,3.1344927404e+000,3.0226435523e+000,3.8420168919e+000,
3.1687500000e+001,3.4773674922e+000,3.3743087213e+000,2.7003167471e+000,2.7499132257e+000,3.3579713788e+000,2.6630374333e+000,2.1280187894e+000,2.4723258055e+000,2.3939834852e+000,3.0859542951e+000,2.6209489044e+000,3.1618814378e+000,2.9564485601e+000,3.7912378292e+000,
3.1781250000e+001,3.3405083612e+000,3.2666539868e+000,2.5118622359e+000,2.6852487034e+000,3.2129135093e+000,2.6160678685e+000,2.1137038515e+000,2.3893963852e+000,2.2734702945e+000,3.1122686460e+000,2.6398051643e+000,3.2296201953e+000,2.9823896917e+000,3.8029397096e+000,
3.1875000000e+001,3.3657638991e+000,3.2507204240e+000,2.3621838865e+000,2.7031412748e+000,3.2023382139e+000,2.5534833697e+000,2.0961098940e+000,2.3441443884e+000,2.2459622361e+000,3.0481753330e+000,2.6445104225e+000,3.1820898679e+000,3.0464748692e+000,3.8527031903e+000,
3.1968750000e+001,3.4449183996e+000,3.2415544081e+000,2.4326442703e+000,2.7168082629e+000,3.2863985640e+000,2.5065577005e+000,2.1842418128e+000,2.3706294904e+000,2.3279249958e+000,3.0527336270e+000,2.5956541476e+000,3.2033967499e+000,3.0267924348e+000,3.8207907181e+000,
3.2062500000e+001,3.6836125317e+000,3.3779546394e+000,2.6029461431e+000,2.8483128429e+000,3.5353413187e+000,2.6736502533e+000,2.2256511337e+000,2.4863932493e+000,2.3624320548e+000,2.9257511173e+000,2.4814748678e+000,2.9927268055e+000,2.9817916774e+000,3.7429408822e+000,
3.2156250000e+001,3.8471877308e+000,3.4611522858e+000,2.5181080724e+000,2.8456980093e+000,3.6869185171e+000,2.7765630486e+000,2.3374702629e+000,2.5447782294e+000,2.4516163023e+000,2.8926820444e+000,2.5239367772e+000,2.9203009503e+000,3.0520745746e+000,3.6461127182e+000,
3.2250000000e+001,4.0069684518e+000,3.7999880088e+000,2.8338530600e+000,3.2002819859e+000,3.7847973383e+000,2.9492399744e+000,2.4541113214e+000,2.8149108757e+000,2.4176457237e+000,3.1252749654e+000,2.6912639147e+000,3.0956031752e+000,3.3093044587e+000,3.6619420458e+000,
3.2343750000e+001,4.0244695617e+000,3.8135163298e+000,2.8544685765e+000,3.1838890742e+000,3.7735454960e+000,2.9811862344e+000,2.3603173229e+000,2.7969317463e+000,2.3046451090e+000,3.1339557997e+000,2.6890681740e+000,3.1626857345e+000,3.3478925400e+000,3.7299916042e+000,
3.2437500000e+001,3.7976602865e+000,3.6968849182e+000,2.8113702472e+000,3.1278611549e+000,3.5541384637e+000,2.8824014386e+000,2.3481216458e+000,2.7241521619e+000,2.2232950058e+000,3.1749184327e+000,2.5920354378e+000,3.1921173588e+000,3.3900479438e+000,3.7482127699e+000,
3.2531250000e+001,3.7083458634e+000,3.6436759374e+000,2.8581702701e+000,3.1648855262e+000,3.4192225277e+000,2.8912290963e+000,2.3465310893e+000,2.7511019767e+000,2.2414161149e+000,3.2160127068e+000,2.6649042825e+000,3.1961782236e+000,3.4787321016e+000,3.7290406200e+000,
3.2625000000e+001,3.7354748381e+000,3.6454749389e+000,2.8062777677e+000,3.1384587187e+000,3.4504940824e+000,2.9034039092e+000,2.3225251268e+000,2.7956380768e+000,2.1383581756e+000,3.2827808140e+000,2.9275145667e+000,3.1260627622e+000,3.5194328053e+000,3.7221108387e+000,
3.2718750000e+001,3.8297023177e+000,3.6573575129e+000,2.8518330336e+000,3.1368366603e+000,3.4991777782e+000,2.9055249211e+000,2.3398995920e+000,2.8435523370e+000,2.1015383005e+000,3.2859081350e+000,2.9058344596e+000,3.1819313660e+000,3.4960343833e+000,3.7247034110e+000,
3.2812500000e+001,3.8421304036e+000,3.6814428350e+000,2.8934208219e+000,3.1536279423e+000,3.5237491957e+000,2.9196872523e+000,2.3694726038e+000,2.8752960367e+000,2.0960501073e+000,3.2836071795e+000,2.8797875331e+000,3.1507960916e+000,3.4721478859e+000,3.8241195595e+000,
3.2906250000e+001,3.7859707697e+000,3.6588238106e+000,2.8403150568e+000,3.1040509237e+000,3.4926117366e+000,2.9165455643e+000,2.4434002082e+000,2.8842890676e+000,2.1204030495e+000,3.3326286822e+000,2.8877022909e+000,3.2658624710e+000,3.4556584841e+000,3.9054619002e+000,
3.3000000000e+001,3.7778266677e+000,3.6260774097e+000,2.8433857547e+000,3.1008495556e+000,3.4655468245e+000,2.9123059759e+000,2.4741391072e+000,2.9032314408e+000,2.1404300470e+000,3.2993368444e+000,2.8809311985e+000,3.3121340196e+000,3.4111375305e+000,3.9585460904e+000,
3.3093750000e+001,3.5562337271e+000,3.4401111948e+000,2.7200195606e+000,2.9683737010e+000,3.2614376484e+000,2.7208165334e+000,2.4922776547e+000,2.8608579121e+000,2.1551796547e+000,3.1682325854e+000,2.9070448088e+000,3.3428154835e+000,3.3792387844e+000,4.0223624322e+000,
3.3187500000e+001,3.4130160974e+000,3.3064150169e+000,2.6036879298e+000,2.8565134490e+000,3.1237169806e+000,2.5902517483e+000,2.3759258775e+000,2.8045594825e+000,2.0307725672e+000,3.1174829967e+000,2.8271616587e+000,3.4082420981e+000,3.1770117202e+000,4.0784350203e+000,
3.3281250000e+001,3.5892017309e+000,3.2160149353e+000,2.4188065817e+000,2.5513877451e+000,3.4041122337e+000,2.4347612288e+000,2.2975271364e+000,2.6579330084e+000,2.0932718444e+000,2.9324604661e+000,2.6779971380e+000,3.2003604902e+000,3.0588920717e+000,3.9908314673e+000,
3.3375000000e+001,3.5815040102e+000,3.2420359611e+000,2.3974525994e+000,2.5692292514e+000,3.4740790136e+000,2.4497345359e+000,2.3777566705e+000,2.6779686187e+000,2.1645282918e+000,2.9620496529e+000,2.6805370301e+000,3.1874188915e+000,3.0386802255e+000,3.9623652264e+000,
3.3468750000e+001,3.6939767207e+000,3.3262906514e+000,2.5588099491e+000,2.6492809194e+000,3.5618269813e+000,2.4397273979e+000,2.3908314130e+000,2.7272482984e+000,2.1978494679e+000,3.0769490166e+000,2.8168785121e+000,3.2904485785e+000,3.1754873057e+000,4.0348694870e+000,
3.3562500000e+001,3.7835909082e+000,3.5244328815e+000,2.7101350924e+000,2.8807445586e+000,3.6743103351e+000,2.5687452275e+000,2.4878318858e+000,2.8918239389e+000,2.2081422702e+000,3.3252599115e+000,2.7264627982e+000,3.4682939347e+000,3.0389589802e+000,4.0716249905e+000,
3.3656250000e+001,3.6813379850e+000,3.4034575109e+000,2.6686412124e+000,2.7989511972e+000,3.6196497045e+000,2.5267399307e+000,2.4967422262e+000,2.8537025139e+000,2.2123786417e+000,3.2365200495e+000,2.4313892711e+000,3.4334310316e+000,3.0015971287e+000,4.0316525000e+000,
3.3750000000e+001,3.7402149439e+000,3.4028639264e+000,2.7384773518e+000,3.0090701623e+000,3.6830646977e+000,2.6127781263e+000,2.4807161544e+000,2.9140263531e+000,2.2292650828e+000,3.2026029351e+000,2.4688028192e+000,3.3748133738e+000,2.9619209187e+000,3.9727488379e+000,
3.3843750000e+001,3.7476068863e+000,3.4138174534e+000,2.7152899750e+000,3.0637458198e+000,3.7151784193e+000,2.6341983906e+000,2.4418423362e+000,2.9074231499e+000,2.2460398774e+000,3.2397027782e+000,2.4951001315e+000,3.4257523125e+000,2.9742200908e+000,4.0424824629e+000,
3.3937500000e+001,3.8679881757e+000,3.4936438180e+000,2.7413866793e+000,3.0465480527e+000,3.7821185952e+000,2.6642549061e+000,2.3812228318e+000,2.8836525022e+000,2.1433583061e+000,3.2240352466e+000,2.4918370272e+000,3.2801666041e+000,3.1203751649e+000,4.0357013156e+000,
3.4031250000e+001,3.8283823329e+000,3.4697546767e+000,2.6611780077e+000,3.0100063321e+000,3.7093791021e+000,2.6230296717e+000,2.1870085695e+000,2.7988364441e+000,2.0681586257e+000,3.2646129525e+000,2.3896102480e+000,3.2615407001e+000,3.0727375716e+000,3.9970826405e+000,
3.4125000000e+001,3.8073772760e+000,3.4784324308e+000,2.7391002934e+000,3.0692026661e+000,3.7770540342e+000,2.6011066768e+000,2.3406232409e+000,2.7758975559e+000,2.1383707576e+000,3.2446107967e+000,2.4019278442e+000,3.3130308003e+000,3.0593679326e+000,3.9524965514e+000,
3.4218750000e+001,3.6620800508e+000,3.3828812754e+000,2.7219354606e+000,3.0543883673e+000,3.7884199593e+000,2.6085166115e+000,2.3918241615e+000,2.7513943573e+000,2.2090124344e+000,3.1875822975e+000,2.3746885112e+000,3.2884676481e+000,3.2289910615e+000,3.9957266812e+000,
3.4312500000e+001,3.6397910390e+000,3.3099413901e+000,2.7882973078e+000,3.1523747685e+000,3.7864259589e+000,2.7555733326e+000,2.4678587865e+000,2.8724952525e+000,2.2224434630e+000,3.3198076223e+000,2.3655836179e+000,3.3413637980e+000,3.2110678290e+000,4.0356648096e+000,
3.4406250000e+001,3.6378041474e+000,3.3446344837e+000,2.7852133330e+000,3.1146990915e+000,3.7995717759e+000,2.7593909871e+000,2.4236973746e+000,2.8781283767e+000,2.3103392010e+000,3.2835733907e+000,2.3462969055e+000,3.3183264240e+000,3.1821288206e+000,4.0039137418e+000,
3.4500000000e+001,3.9802442615e+000,3.7264262257e+000,2.7298649355e+000,3.1602753638e+000,3.8497564562e+000,3.2874912031e+000,2.5161634958e+000,2.9624011992e+000,2.2765195901e+000,3.1634341153e+000,2.3006464003e+000,3.2555806745e+000,3.1601235905e+000,4.1032319433e+000,
3.4593750000e+001,4.0598618992e+000,3.7545563035e+000,2.7732731720e+000,3.1556344839e+000,3.8562048091e+000,3.3142562778e+000,2.5186562949e+000,2.9198122450e+000,2.2285104952e+000,3.1502557127e+000,2.2781442830e+000,3.3774138328e+000,3.2862587876e+000,4.2977310202e+000,
3.4687500000e+001,4.0546337919e+000,3.8427218261e+000,2.7831599443e+000,3.2160627422e+000,3.8499703106e+000,3.3259497444e+000,2.5037258112e+000,2.9387373985e+000,2.2696110857e+000,3.2334646972e+000,2.2747294046e+000,3.3989931160e+000,3.3083752369e+000,4.3129669890e+000,
3.4781250000e+001,3.9982480271e+000,3.8526283939e+000,2.7327506447e+000,3.0680511812e+000,3.8169949974e+000,3.2895012570e+000,2.5210045309e+000,2.8933826931e+000,2.2769431417e+000,3.1891138303e+000,2.3069987989e+000,3.4173564227e+000,3.4057458250e+000,4.3504720075e+000,
3.4875000000e+001,3.9304572486e+000,3.8539728280e+000,2.7182354429e+000,3.0608087930e+000,3.7608390221e+000,3.2649894254e+000,2.6463817213e+000,2.9122889738e+000,2.2619813190e+000,3.2202947851e+000,2.3525416530e+000,3.4123096334e+000,3.3998168498e+000,4.3165631783e+000,
3.4968750000e+001,3.9148540509e+000,3.9038669250e+000,2.7650952814e+000,3.2289033229e+000,3.7486986504e+000,3.2814131385e+000,2.6094173817e+000,3.0217211091e+000,2.2735449880e+000,3.2348940618e+000,2.4552307177e+000,3.4856152248e+000,3.3853874562e+000,4.3049120548e+000,
3.5062500000e+001,3.9043680517e+000,3.9381640026e+000,2.7510436012e+000,3.2380582066e+000,3.7348618801e+000,3.2944253640e+000,2.5776504633e+000,3.0753093267e+000,2.3007043293e+000,3.3258160011e+000,2.4551960497e+000,3.5657187969e+000,3.4524866141e+000,4.4512112966e+000,
3.5156250000e+001,3.9789443054e+000,3.9864356033e+000,2.7328299268e+000,3.2615322546e+000,3.7082665002e+000,3.3493886557e+000,2.4999214432e+000,3.1375045555e+000,2.2512514692e+000,3.4914879549e+000,2.4870553959e+000,3.6343697965e+000,3.4338222123e+000,4.4526313836e+000,
3.5250000000e+001,4.3064978902e+000,4.1069108719e+000,2.8197223267e+000,3.2712361729e+000,3.7489425946e+000,3.4320389988e+000,2.4615471335e+000,3.1365824708e+000,2.1188054211e+000,3.4380025216e+000,2.6000282618e+000,3.6701371667e+000,3.4300678962e+000,4.4929351280e+000,
3.5343750000e+001,4.3120632395e+000,4.1054670738e+000,2.8274302162e+000,3.2846163114e+000,3.7345165829e+000,3.3916647583e+000,2.4599748580e+000,3.1255209137e+000,2.2129515534e+000,3.4605838835e+000,2.6598162280e+000,3.6883048411e+000,3.5114767260e+000,4.5143376347e+000,
3.5437500000e+001,4.2280711748e+000,4.1235875522e+000,2.8975588299e+000,3.3172113266e+000,3.6304721416e+000,3.3371058783e+000,2.4503163179e+000,3.1022578208e+000,2.1570766977e+000,3.5014775176e+000,2.6089829727e+000,3.6814265312e+000,3.5073445870e+000,4.5283947006e+000,
3.5531250000e+001,3.9044007539e+000,3.7440502415e+000,2.7679284757e+000,3.1286244693e+000,3.5450519439e+000,2.8090475481e+000,2.4087734829e+000,2.8242977736e+000,2.1956507821e+000,3.3706140511e+000,2.6099690430e+000,3.5985871855e+000,3.4306218081e+000,4.4148924683e+000,
3.5625000000e+001,3.8710497928e+000,3.6302771258e+000,2.6782743874e+000,2.9904549288e+000,3.5350466874e+000,2.7262660958e+000,2.3937923763e+000,2.8368939722e+000,2.1988151430e+000,3.3038054884e+000,2.6175554956e+000,3.4669186169e+000,3.3934871605e+000,4.2753118821e+000,
3.5718750000e+001,3.8638891007e+000,3.5756493907e+000,2.6251657681e+000,2.9909265210e+000,3.5330429449e+000,2.7303008908e+000,2.3870980308e+000,2.7543079422e+000,2.2124792076e+000,3.2866459096e+000,2.5769711794e+000,3.4651831798e+000,3.2853592936e+000,4.2252590180e+000,
3.5812500000e+001,3.8558504836e+000,3.5688295289e+000,2.6047634283e+000,2.9437313599e+000,3.4848966056e+000,2.6886783762e+000,2.3480420133e+000,2.7140805534e+000,2.2108864973e+000,3.2618891920e+000,2.5398585442e+000,3.5462670051e+000,3.3129153560e+000,4.2177538249e+000,
3.5906250000e+001,3.8871116230e+000,3.5436721699e+000,2.6902135624e+000,2.9345300674e+000,3.4924815840e+000,2.7513592984e+000,2.3274126920e+000,2.6545915076e+000,2.2781593012e+000,3.3321464584e+000,2.5035998589e+000,3.5960770134e+000,3.2467004081e+000,4.2116253919e+000,
3.6000000000e+001,3.8988710682e+000,3.5119025659e+000,2.6912111537e+000,2.8172437846e+000,3.4981162655e+000,2.7417080567e+000,2.4005552160e+000,2.5896823146e+000,2.2748151173e+000,3.3633025256e+000,2.4963173336e+000,3.5751810586e+000,3.3227428119e+000,4.2175893322e+000,
3.6093750000e+001,3.8993875962e+000,3.4794600586e+000,2.6909097145e+000,2.7630095525e+000,3.4679909582e+000,2.6629191754e+000,2.3884696480e+000,2.4311344056e+000,2.1782868949e+000,3.1695436957e+000,2.5152321172e+000,3.4168620472e+000,3.2879166606e+000,4.0072272069e+000,
3.6187500000e+001,3.4787255195e+000,3.1956457075e+000,2.6671365059e+000,2.7057100158e+000,3.1676060813e+000,2.4095870533e+000,2.3670167561e+000,2.3228884211e+000,2.1312476068e+000,3.1368834953e+000,2.4973258277e+000,3.3718914252e+000,3.2405739693e+000,4.0364431130e+000,
3.6281250000e+001,2.8618704639e+000,3.0599354113e+000,2.6751381436e+000,2.7711032014e+000,2.7680260901e+000,2.2609117553e+000,2.3995233384e+000,2.3700823530e+000,2.1006350811e+000,3.1095951022e+000,2.4319596932e+000,3.2596710367e+000,3.0411555630e+000,3.8824683054e+000,
3.6375000000e+001,3.1443934936e+000,3.1819868194e+000,2.6558950252e+000,2.7311689084e+000,2.8886387528e+000,2.3866180818e+000,2.3949881361e+000,2.4926288152e+000,1.9799512016e+000,3.1038449412e+000,2.5203320186e+000,3.2385618696e+000,3.1005286683e+000,3.9498301944e+000,
3.6468750000e+001,3.2288241365e+000,3.1912965585e+000,2.5132737679e+000,2.7808204252e+000,2.8959232548e+000,2.4005018634e+000,2.3329626173e+000,2.4804773411e+000,1.8498543674e+000,3.0107535647e+000,2.5830274889e+000,3.3075196520e+000,3.0818315967e+000,3.9929429892e+000,
3.6562500000e+001,3.2612302392e+000,3.2317941343e+000,2.5041538603e+000,2.8357318413e+000,3.0365121191e+000,2.4706229992e+000,2.3820252942e+000,2.6151550566e+000,1.8878657454e+000,3.0801650389e+000,2.5925848401e+000,3.3960573170e+000,3.1712982894e+000,4.0002363270e+000,
3.6656250000e+001,3.4650537279e+000,3.4401662038e+000,2.7558115801e+000,2.9351522608e+000,3.0874636614e+000,2.6285059845e+000,2.4356674760e+000,2.7211195833e+000,1.8865340956e+000,3.3375727450e+000,2.6351569758e+000,3.5380899519e+000,3.2618648895e+000,4.0173405174e+000,
3.6750000000e+001,3.5075195106e+000,3.4200771158e+000,2.7892066640e+000,2.9440079439e+000,3.1684365004e+000,2.7043158092e+000,2.4431518249e+000,2.8372452690e+000,2.0495197832e+000,3.5670163769e+000,2.7546128201e+000,3.8358020609e+000,3.4984765352e+000,4.1531137968e+000,
3.6843750000e+001,3.5880883260e+000,3.4609696605e+000,2.8133409390e+000,2.9784261723e+000,3.2215570406e+000,2.7652728542e+000,2.5022895212e+000,2.9019828737e+000,1.9758996489e+000,3.6393654006e+000,2.7770089943e+000,3.7876355419e+000,3.5246544144e+000,4.1357818628e+000,
3.6937500000e+001,3.5567424349e+000,3.5318045101e+000,2.7673954953e+000,2.9830406717e+000,3.1633753180e+000,2.7573495583e+000,2.4775523286e+000,2.9137523765e+000,1.9939816758e+000,3.6327826598e+000,2.8002232907e+000,3.7729996259e+000,3.5456541527e+000,4.1293083651e+000,
3.7031250000e+001,3.4995860951e+000,3.4524783082e+000,2.7044709648e+000,2.9191841661e+000,3.1718492752e+000,2.7365279827e+000,2.4265126659e+000,2.8643501709e+000,2.0515371059e+000,3.6377841930e+000,2.7853172834e+000,3.8198594083e+000,3.4493634508e+000,4.1353829326e+000,
3.7125000000e+001,3.6876349182e+000,3.5030040339e+000,2.9062890791e+000,3.0322685373e+000,3.2703478965e+000,2.7558475546e+000,2.5684268548e+000,2.9481371941e+000,2.2089005724e+000,3.6734966270e+000,2.8257754712e+000,3.8752106438e+000,3.4401069858e+000,4.1624831509e+000,
3.7218750000e+001,3.6882520500e+000,3.4801531147e+000,2.9272852126e+000,3.0246919426e+000,3.3023718674e+000,2.7654459139e+000,2.5002698186e+000,2.9052998121e+000,2.3472795253e+000,3.6549917015e+000,2.7886040767e+000,3.8763904603e+000,3.4300942443e+000,4.1194947619e+000,
3.7312500000e+001,3.7465597799e+000,3.4814129476e+000,2.8757843988e+000,2.9379130426e+000,3.4096436284e+000,2.7588587570e+000,2.4854108111e+000,2.8258149831e+000,2.4154416753e+000,3.6661790250e+000,2.7779100055e+000,3.8691392274e+000,3.3860756715e+000,4.0741715504e+000,
3.7406250000e+001,3.6133599168e+000,3.2968533627e+000,2.8292071157e+000,2.8554363719e+000,3.4064413793e+000,2.6575286208e+000,2.4805737511e+000,2.7469357253e+000,2.4361908056e+000,3.6758490405e+000,2.5718541790e+000,3.8577789903e+000,3.3306283099e+000,4.0221020824e+000,
3.7500000000e+001,3.6291269090e+000,3.2537076388e+000,2.8638612368e+000,2.8236904647e+000,3.4385400375e+000,2.6448968583e+000,2.4515484540e+000,2.7229961389e+000,2.4718956882e+000,3.7202231042e+000,2.5835465475e+000,3.8961323890e+000,3.3406894893e+000,4.0512361719e+000,
3.7593750000e+001,3.6424731708e+000,3.3430797596e+000,2.9597981264e+000,3.0765726065e+000,3.3366014680e+000,2.6004099341e+000,2.4879461351e+000,2.7320976480e+000,2.4700757819e+000,3.5751156530e+000,2.6791355214e+000,3.8425508351e+000,3.2651047451e+000,4.0714263658e+000,
3.7687500000e+001,3.4903149464e+000,3.1752344630e+000,2.8572697000e+000,3.0351815299e+000,3.2325903908e+000,2.3313931097e+000,2.4512599531e+000,2.5278662872e+000,2.4331281094e+000,3.3148047465e+000,2.7293525908e+000,3.7179713760e+000,3.1584439224e+000,4.0286266343e+000,
3.7781250000e+001,3.5059903121e+000,3.2160783266e+000,2.8488444372e+000,3.0857409505e+000,3.2643504214e+000,2.2915990493e+000,2.5065817330e+000,2.4703426215e+000,2.4328155366e+000,3.1703783621e+000,2.6804781070e+000,3.3902495890e+000,2.9535763341e+000,3.8264275171e+000,
3.7875000000e+001,3.6783064465e+000,3.4969524552e+000,3.1007312931e+000,3.3193751406e+000,3.4224529473e+000,2.4101539074e+000,2.4767581498e+000,2.7494280098e+000,2.5593826032e+000,3.2696700328e+000,2.7172787117e+000,3.4277370400e+000,2.9803907090e+000,3.7965076973e+000,
3.7968750000e+001,3.7056137860e+000,3.4933324446e+000,3.1468437449e+000,3.2993753356e+000,3.4613803733e+000,2.4280394702e+000,2.5846824083e+000,2.7971470318e+000,2.5464106137e+000,3.3166409131e+000,2.6977800133e+000,3.4528949356e+000,3.0046593039e+000,3.8806718311e+000,
3.8062500000e+001,3.7618758423e+000,3.5488026009e+000,3.2163558176e+000,3.3559982976e+000,3.4634042623e+000,2.5394974216e+000,2.5757827230e+000,2.8815642639e+000,2.5855647406e+000,3.2943737659e+000,2.6349500867e+000,3.3564647565e+000,3.0636151751e+000,3.8502622782e+000,
3.8156250000e+001,3.6285171635e+000,3.4915458285e+000,3.0823089751e+000,3.2842639995e+000,3.4245711637e+000,2.5753721651e+000,2.4522982936e+000,2.8052244874e+000,2.5139260796e+000,3.2558104497e+000,2.6245800268e+000,3.3142208324e+000,3.0570498353e+000,3.7924910735e+000,
3.8250000000e+001,3.8140339170e+000,3.6210977496e+000,3.1006967925e+000,3.3482883308e+000,3.5303673426e+000,2.6485106496e+000,2.5139694931e+000,2.8465039146e+000,2.3260434042e+000,3.2751728443e+000,2.6499189641e+000,3.2340981782e+000,3.0769067094e+000,3.7387103869e+000,
3.8343750000e+001,3.8323023891e+000,3.6456621178e+000,3.1374854569e+000,3.3933803497e+000,3.4988317511e+000,2.7051346402e+000,2.5274087438e+000,2.8985708674e+000,2.3230839680e+000,3.2826229366e+000,2.6746722188e+000,3.2502020819e+000,3.0944204733e+000,3.8419998595e+000,
3.8437500000e+001,3.7927833009e+000,3.6281653633e+000,3.1773744934e+000,3.4170014262e+000,3.4037558964e+000,2.7404663424e+000,2.5179981657e+000,2.9196604095e+000,2.2560459427e+000,3.2809200592e+000,2.7730737954e+000,3.2941953390e+000,3.1299157849e+000,3.8332055789e+000,
3.8531250000e+001,3.7244976511e+000,3.6191421316e+000,3.1367027690e+000,3.3798587321e+000,3.3861386978e+000,2.7715732664e+000,2.4501901415e+000,2.9218031415e+000,2.2743685202e+000,3.2793152807e+000,2.8974424024e+000,3.1217796434e+000,3.1558344437e+000,3.7864604721e+000,
3.8625000000e+001,3.7339216089e+000,3.6723661725e+000,3.0855098779e+000,3.3179586300e+000,3.4485601663e+000,2.8931870880e+000,2.3737553729e+000,2.9580568516e+000,2.2563711381e+000,3.2865378040e+000,2.8872458578e+000,3.0962731536e+000,3.2407309431e+000,3.8780114364e+000,
3.8718750000e+001,3.7781239887e+000,3.7336604109e+000,3.0919560163e+000,3.3544981267e+000,3.4650864625e+000,2.9352789597e+000,2.3849951527e+000,3.0004417036e+000,2.2023072663e+000,3.3958696802e+000,2.7505971140e+000,3.0546160734e+000,3.2124420529e+000,3.9195505484e+000,
3.8812500000e+001,3.7606008658e+000,3.6828636278e+000,3.0666454510e+000,3.3209324858e+000,3.4493218403e+000,2.9794987973e+000,2.4074621585e+000,2.9642503026e+000,2.2122020975e+000,3.3661926529e+000,2.7250144798e+000,3.0438447198e+000,3.1058380199e+000,3.8183451059e+000,
3.8906250000e+001,3.8510721107e+000,3.7690140916e+000,2.8670349065e+000,3.1930027129e+000,3.3803241015e+000,3.0913638290e+000,2.3578675056e+000,2.9070721985e+000,2.0277398275e+000,3.1528713309e+000,2.6959280007e+000,2.8789746404e+000,3.0791705769e+000,3.8929267539e+000,
3.9000000000e+001,4.0475613251e+000,3.9496970425e+000,2.9067986242e+000,3.3398948414e+000,3.4446187313e+000,3.2174255541e+000,2.3473772155e+000,3.1114122782e+000,1.9359360812e+000,3.2664794739e+000,2.7493639272e+000,2.9582320829e+000,3.0344621736e+000,3.8490337725e+000,
3.9093750000e+001,4.1131583186e+000,4.0215957846e+000,2.9253397500e+000,3.4086556671e+000,3.6622735167e+000,3.3800962691e+000,2.4945935857e+000,3.3191559527e+000,2.1611017209e+000,3.5104462425e+000,2.8031928344e+000,2.9979161071e+000,3.1060661788e+000,3.8302982394e+000,
3.9187500000e+001,4.0889496257e+000,4.0293304853e+000,2.9376758025e+000,3.4312064422e+000,3.6439826105e+000,3.3492174281e+000,2.4738988925e+000,3.3453404179e+000,2.1450325016e+000,3.5628255600e+000,2.7625463793e+000,3.0171496214e+000,3.0621106607e+000,3.8122508291e+000,
3.9281250000e+001,3.8907774212e+000,3.9025000088e+000,2.7904139111e+000,3.2956996873e+000,3.4925726820e+000,3.2606951827e+000,2.4562722003e+000,3.2744845408e+000,2.1215526776e+000,3.5474206455e+000,2.7009722805e+000,3.0570125883e+000,3.0406231940e+000,3.7798774953e+000,
3.9375000000e+001,3.8385458646e+000,3.9072657819e+000,2.7644284151e+000,3.2499167173e+000,3.4184541190e+000,3.2715692606e+000,2.3692209843e+000,3.2266974382e+000,2.1838608874e+000,3.4978322560e+000,2.7253219692e+000,2.9959170399e+000,2.9899677342e+000,3.6245846376e+000,
3.9468750000e+001,3.8618593416e+000,3.9473876700e+000,2.7995261073e+000,3.2678902727e+000,3.4414585714e+000,3.2688595549e+000,2.4727869789e+000,3.2653319500e+000,2.2962477394e+000,3.4897628151e+000,2.5307951499e+000,3.0211712055e+000,2.9235651037e+000,3.7640415854e+000,
3.9562500000e+001,3.8613112864e+000,3.9259833814e+000,2.8083670507e+000,3.2020239121e+000,3.3435243140e+000,3.2454943540e+000,2.5223319787e+000,3.2502991449e+000,2.3424985195e+000,3.5126965297e+000,2.4097705137e+000,3.0385527469e+000,2.8145457867e+000,3.7367231881e+000,
3.9656250000e+001,3.8038719039e+000,3.8510975805e+000,2.7622486750e+000,3.1406222968e+000,3.3920608248e+000,3.2020087260e+000,2.5680544713e+000,3.2352756607e+000,2.4095335867e+000,3.5272116009e+000,2.3653248265e+000,3.1974734830e+000,2.8186760367e+000,3.7139944149e+000,
3.9750000000e+001,3.7810700006e+000,3.8752884268e+000,2.7567679731e+000,3.1925587142e+000,3.3602727922e+000,3.2240729470e+000,2.5420984107e+000,3.2745553840e+000,2.4266980146e+000,3.4911260057e+000,2.4232074164e+000,3.2053984981e+000,2.6688367278e+000,3.7151533921e+000,
3.9843750000e+001,3.7464155081e+000,3.8394358426e+000,2.6943216131e+000,3.1208366067e+000,3.2832499328e+000,3.1855225464e+000,2.4900800869e+000,3.2355223472e+000,2.4177855661e+000,3.4828644456e+000,2.3826005520e+000,3.2377842842e+000,2.5880061880e+000,3.7553675361e+000,
3.9937500000e+001,3.1076909226e+000,3.2644257612e+000,2.5566691305e+000,2.8452966102e+000,3.1306673979e+000,2.8696636798e+000,2.4281653073e+000,3.0537498875e+000,2.4561012713e+000,3.5003374214e+000,2.2975254179e+000,3.3534269832e+000,2.6907904588e+000,3.8213083313e+000,
4.0031250000e+001,3.1154989870e+000,3.3300221286e+000,2.6314777469e+000,2.8521628761e+000,3.0840698407e+000,2.8585862004e+000,2.4313548435e+000,2.9343143787e+000,2.4076019699e+000,3.4113864138e+000,2.3927240602e+000,3.4068043496e+000,3.0120172279e+000,3.8238399387e+000,
4.0125000000e+001,2.8525514963e+000,3.1025497636e+000,2.4674451792e+000,2.6595550534e+000,2.6972545940e+000,2.5073524295e+000,2.2751056702e+000,2.4705194198e+000,2.2774586008e+000,3.2350921518e+000,2.3930816249e+000,3.6648019314e+000,2.9468821650e+000,3.9858687845e+000,
4.0218750000e+001,2.9123956890e+000,3.1579892237e+000,2.5135933705e+000,2.6882096231e+000,2.7499605283e+000,2.5273832847e+000,2.2503843472e+000,2.4864699367e+000,2.3983271476e+000,3.1907427540e+000,2.4746841802e+000,3.7023087935e+000,3.1396142210e+000,4.0316102629e+000,
4.0312500000e+001,2.9801250121e+000,3.1714081226e+000,2.5301029683e+000,2.8394173786e+000,2.7420412351e+000,2.5791442318e+000,2.2600844798e+000,2.5848993744e+000,2.4531191519e+000,3.2433633600e+000,2.4775858239e+000,3.7021239976e+000,3.2099730203e+000,4.1349683430e+000,
4.0406250000e+001,2.9537530415e+000,3.1767814227e+000,2.4390072081e+000,2.8450320892e+000,2.7786620671e+000,2.5248135422e+000,2.2078267761e+000,2.6407957535e+000,2.3663014753e+000,3.4484466082e+000,2.4360153557e+000,3.8110705270e+000,3.2129752478e+000,4.1310744830e+000,
4.0500000000e+001,3.3968638608e+000,3.5032322231e+000,2.6039904990e+000,3.0068938487e+000,3.1467557895e+000,2.6842681700e+000,2.3083549792e+000,2.7652700788e+000,2.4365656259e+000,3.4442653658e+000,2.5067262462e+000,3.8046475572e+000,3.2971507755e+000,4.0966918764e+000,
4.0593750000e+001,3.6236073211e+000,3.6798136376e+000,2.6738247999e+000,3.1627758469e+000,3.2912660426e+000,2.7628957889e+000,2.2937289839e+000,2.8588857997e+000,2.3451991408e+000,3.3766134309e+000,2.4344364155e+000,3.7418168826e+000,3.3763993219e+000,4.0990829053e+000,
4.0687500000e+001,3.6934797212e+000,3.7280461630e+000,2.7526949731e+000,3.1787899165e+000,3.3981204206e+000,2.7271696797e+000,2.3621745192e+000,2.7964733963e+000,2.3792716226e+000,3.3400059937e+000,2.4383552583e+000,3.7267376924e+000,3.3779329285e+000,4.1695465008e+000,
4.0781250000e+001,3.6963115715e+000,3.6823335588e+000,2.7737955695e+000,3.1499324905e+000,3.4584337484e+000,2.6824423055e+000,2.4280335070e+000,2.7638024049e+000,2.3382715044e+000,3.3847055305e+000,2.4335662929e+000,3.7356668985e+000,3.3811709162e+000,4.1488407544e+000,
4.0875000000e+001,3.6686487985e+000,3.6792355500e+000,2.8117139459e+000,3.1551328193e+000,3.4504980911e+000,2.6644585895e+000,2.4728537208e+000,2.7501295463e+000,2.3308545538e+000,3.3622436441e+000,2.5358102425e+000,3.6978319583e+000,3.4001460646e+000,4.0677199678e+000,
4.0968750000e+001,3.6735171059e+000,3.6273730550e+000,2.9108030854e+000,3.2028959581e+000,3.3952955633e+000,2.6004974896e+000,2.4104373943e+000,2.6599678833e+000,2.3222309103e+000,3.3413584154e+000,2.6127856797e+000,3.7171228856e+000,3.5250746842e+000,4.1934091706e+000,
4.1062500000e+001,3.8117956904e+000,3.7338998708e+000,2.9466967729e+000,3.2033989386e+000,3.4877248080e+000,2.7063350172e+000,2.4202657705e+000,2.7678244064e+000,2.4390883693e+000,3.3333519968e+000,2.5161017767e+000,3.5992503515e+000,3.4273346354e+000,4.1565499835e+000,
4.1156250000e+001,3.8193069957e+000,3.7487863475e+000,2.9426106968e+000,3.2295420038e+000,3.5487540723e+000,2.7554598870e+000,2.5144895226e+000,2.7854272827e+000,2.3756572205e+000,3.2433992284e+000,2.5401929781e+000,3.2797511355e+000,3.4592171238e+000,4.0209628378e+000,
