Time (s),AF3,AF4,F3,F4,F7,F8,FC5,FC6,T7,T8,P7,P8,O1,O2,Sampling Rate
0.0000000000e+000,3.5056464983e+000,3.1552355290e+000,3.5814524543e+000,3.5424353799e+000,3.6384869159e+000,3.8753812888e+000,3.4897930109e+000,4.0834468056e+000,3.4285271176e+000,4.6358477206e+000,3.1613352320e+000,4.0613158101e+000,3.5762082405e+000,3.5284795716e+000,1
9.3750000000e-002,3.5146967810e+000,3.1564592114e+000,3.5703589016e+000,3.5807101117e+000,3.5804263876e+000,3.8125643530e+000,3.4281241089e+000,4.0579753715e+000,3.2889151662e+000,4.6759407610e+000,3.1490498382e+000,4.0433958383e+000,3.5723527370e+000,3.5915883187e+000,
1.8750000000e-001,3.5181915792e+000,3.1673718602e+000,3.5645754646e+000,3.5967946414e+000,3.5708449778e+000,3.8012423786e+000,3.3680625070e+000,4.0594603820e+000,3.2767793681e+000,4.6821580077e+000,3.2105677151e+000,4.0466169059e+000,3.5905204920e+000,3.6178794930e+000,
2.8125000000e-001,3.5256522613e+000,3.2013491614e+000,3.5887696086e+000,3.6875813196e+000,3.6376951492e+000,3.8685719606e+000,3.4534799201e+000,4.1973868073e+000,3.3755701728e+000,4.7852565711e+000,3.2463734897e+000,4.1366598083e+000,3.7086860481e+000,3.7536982100e+000,
3.7500000000e-001,3.7223256925e+000,3.1732683861e+000,3.6831724001e+000,3.7835030610e+000,3.6923261678e+000,3.8155175529e+000,3.4574842527e+000,4.0656823168e+000,3.3472568323e+000,4.8200057065e+000,3.2084553809e+000,4.0807801954e+000,3.6744329185e+000,3.7090068870e+000,
4.6875000000e-001,3.7100465393e+000,3.2279565271e+000,3.6987339022e+000,3.8054721355e+000,3.6459464578e+000,3.7993769468e+000,3.4080612949e+000,4.0287896595e+000,3.3897080573e+000,4.7690118421e+000,3.1796905704e+000,3.9723807309e+000,3.7117281280e+000,3.7032718652e+000,
5.6250000000e-001,3.8182473470e+000,3.2251535503e+000,3.6842474402e+000,3.7814417380e+000,3.6653615663e+000,3.8531967543e+000,3.3468523971e+000,3.9204781503e+000,3.3228399409e+000,4.7650886089e+000,3.0459695384e+000,3.8972654245e+000,3.5986660731e+000,3.5717984675e+000,
6.5625000000e-001,3.7142135460e+000,3.1375550329e+000,3.5921825153e+000,3.6609324900e+000,3.5882076266e+000,3.7287771026e+000,3.0737942060e+000,3.7417159130e+000,3.0918241870e+000,4.5853739962e+000,2.8272752846e+000,3.6884731650e+000,3.5227193527e+000,3.5777834260e+000,
7.5000000000e-001,3.7674820494e+000,3.2934830535e+000,3.6598349331e+000,3.7006598641e+000,3.5985587280e+000,3.7669951574e+000,3.1590072349e+000,3.8452450176e+000,3.1491118082e+000,4.6028113040e+000,2.9214031413e+000,3.6335507631e+000,3.5531765928e+000,3.6299080982e+000,
8.4375000000e-001,3.7385818713e+000,3.2548698487e+000,3.5959052575e+000,3.6274321874e+000,3.5819755046e+000,3.7199700187e+000,3.1037181065e+000,3.8401310953e+000,3.2056873489e+000,4.4959706546e+000,2.8767532988e+000,3.4553384499e+000,3.5245336126e+000,3.5684163077e+000,
9.3750000000e-001,3.8337548608e+000,3.2345451551e+000,3.6163774576e+000,3.5764887556e+000,3.6834929369e+000,3.6821097800e+000,3.0579974507e+000,3.7498166330e+000,3.2214432582e+000,4.4540264463e+000,2.8493030101e+000,3.4913926156e+000,3.5050185482e+000,3.5777477553e+000,
1.0312500000e+000,3.9303256609e+000,3.2317455147e+000,3.5700344780e+000,3.5063858206e+000,3.7822680333e+000,3.6716733405e+000,3.1754750157e+000,3.8600369203e+000,3.2810343541e+000,4.4466159601e+000,2.7611160564e+000,3.5844335322e+000,3.4895236848e+000,3.6079717857e+000,
1.1250000000e+000,3.8781001694e+000,3.2410260102e+000,3.5587283643e+000,3.5441556265e+000,3.7925152660e+000,3.7442233283e+000,3.1527324683e+000,3.9081414072e+000,3.3527027006e+000,4.5015833236e+000,2.9673405947e+000,3.6669288041e+000,3.5943569408e+000,3.6489802233e+000,
1.2187500000e+000,3.8518789863e+000,3.2306583886e+000,3.5282444279e+000,3.5840720613e+000,3.7995047214e+000,3.8006789945e+000,3.0944489408e+000,3.8650837136e+000,3.3360360411e+000,4.6137206244e+000,2.9819625195e+000,3.6577534581e+000,3.5963312074e+000,3.5420291799e+000,
1.3125000000e+000,3.8842641294e+000,3.2734029033e+000,3.5873485174e+000,3.5557744377e+000,3.8474563707e+000,3.8367046194e+000,3.1784801957e+000,3.8332607134e+000,3.3762037170e+000,4.5227121529e+000,2.9691705347e+000,3.7049619027e+000,3.5447601231e+000,3.5087657060e+000,
1.4062500000e+000,3.7986507108e+000,3.3436756420e+000,3.5294594547e+000,3.4543283395e+000,3.8189258104e+000,3.9075511210e+000,3.2421064095e+000,3.8313899309e+000,3.4768052415e+000,4.5980536900e+000,3.0892639822e+000,3.6938268435e+000,3.5827823564e+000,3.5274107401e+000,
1.5000000000e+000,3.7297664634e+000,3.2786556523e+000,3.4818952031e+000,3.3852709604e+000,3.7704028802e+000,3.8446511430e+000,3.2523131736e+000,3.8821920241e+000,3.4368732166e+000,4.4918079066e+000,3.0483322147e+000,3.6667476461e+000,3.5181302182e+000,3.5054045303e+000,
1.5937500000e+000,3.7362121947e+000,3.2724461418e+000,3.5141566498e+000,3.4113398695e+000,3.8259822428e+000,3.8045481478e+000,3.3278366099e+000,3.9189406929e+000,3.4453209618e+000,4.5005724940e+000,3.0552927959e+000,3.7281982035e+000,3.4975903722e+000,3.5488506128e+000,
1.6875000000e+000,3.7242340607e+000,3.2942744378e+000,3.5677053864e+000,3.4409376874e+000,3.7583464878e+000,3.8095047830e+000,3.3461429310e+000,3.9393033083e+000,3.5112333648e+000,4.5132727729e+000,3.1039510238e+000,3.7500374916e+000,3.6443102249e+000,3.5153330942e+000,
1.7812500000e+000,3.7021774159e+000,3.2176795403e+000,3.5176127809e+000,3.4712584868e+000,3.7160047192e+000,3.7163258164e+000,3.2535561678e+000,3.8722999330e+000,3.4800935022e+000,4.4767390989e+000,3.1059852910e+000,3.7196856493e+000,3.7452221974e+000,3.5470558645e+000,
1.8750000000e+000,3.8604472743e+000,3.3498024796e+000,3.6990208193e+000,3.7707300081e+000,3.9421555603e+000,3.9350044248e+000,3.4729496305e+000,4.1030855902e+000,3.7479203470e+000,4.6443307593e+000,3.3181205768e+000,3.8937074136e+000,3.8345100705e+000,3.6462135004e+000,
1.9687500000e+000,3.8699025918e+000,3.4319035947e+000,3.8623326059e+000,3.9134019777e+000,4.0624605086e+000,4.0262860513e+000,3.6449549022e+000,4.2333686006e+000,3.8536916197e+000,4.7753542554e+000,3.4441582183e+000,4.0052786450e+000,3.9285247693e+000,3.7664736386e+000,
2.0625000000e+000,3.8808445698e+000,3.3869323074e+000,3.8700764219e+000,3.9555042061e+000,4.0623659859e+000,4.0235338714e+000,3.6263032712e+000,4.1339173688e+000,3.9148655551e+000,4.7694577863e+000,3.5366723154e+000,4.0660087313e+000,3.9272548289e+000,3.6834738367e+000,
2.1562500000e+000,3.8532548385e+000,3.2877571005e+000,3.8382811651e+000,3.8978980928e+000,4.0765482279e+000,3.9320621555e+000,3.6345668279e+000,4.0580833883e+000,3.8838123445e+000,4.6422427329e+000,3.4536540592e+000,4.0243286771e+000,3.8626599020e+000,3.6064434560e+000,
2.2500000000e+000,3.8350505314e+000,3.2370649979e+000,3.8401006556e+000,3.8990699759e+000,4.0197254537e+000,3.8942315791e+000,3.6902472310e+000,4.0703357596e+000,3.8785042487e+000,4.5388163963e+000,3.4036863421e+000,3.9869339777e+000,3.8307500963e+000,3.5674418595e+000,
2.3437500000e+000,3.8298444422e+000,3.2275203477e+000,3.8587578866e+000,4.0085074259e+000,4.0300934454e+000,3.9649117123e+000,3.6376989804e+000,4.1517863283e+000,3.8398400145e+000,4.5736535323e+000,3.3648499387e+000,4.0409691976e+000,3.8057758002e+000,3.5795312814e+000,
2.4375000000e+000,3.8882954248e+000,3.2619552648e+000,3.8496476153e+000,4.0489298599e+000,4.1027292295e+000,3.9708637018e+000,3.6800371158e+000,4.2072342709e+000,3.8776326799e+000,4.4941507106e+000,3.3958301197e+000,4.0204847991e+000,3.8608663059e+000,3.5725706895e+000,
2.5312500000e+000,3.8741170797e+000,3.1975544824e+000,3.8734666755e+000,4.0278735771e+000,4.1010056366e+000,3.9066373423e+000,3.7099560924e+000,4.1235940844e+000,3.9097505025e+000,4.4840084384e+000,3.4122041925e+000,4.0433717290e+000,3.8703460780e+000,3.5619816586e+000,
2.6250000000e+000,3.8691370450e+000,3.2306244010e+000,3.8232807529e+000,3.9933049489e+000,4.1257624073e+000,3.9413519855e+000,3.7131971796e+000,4.1727161754e+000,3.8935915092e+000,4.5346628859e+000,3.4077155786e+000,4.1142148767e+000,3.8504864456e+000,3.5798393238e+000,
2.7187500000e+000,3.9403191438e+000,3.3587506217e+000,3.8829222612e+000,4.0582326250e+000,4.1048949090e+000,3.9932661555e+000,3.7177491224e+000,4.2256348972e+000,3.8717210979e+000,4.5808648283e+000,3.3364906602e+000,4.0935061228e+000,3.7204063118e+000,3.4969140170e+000,
2.8125000000e+000,3.8500399269e+000,3.3316814609e+000,3.8070772009e+000,3.9403466241e+000,4.0458447680e+000,3.9383751292e+000,3.7117357115e+000,4.1618049399e+000,3.7813274086e+000,4.5785817541e+000,3.3011517871e+000,4.0689759828e+000,3.4941823521e+000,3.3853825127e+000,
2.9062500000e+000,3.7539947560e+000,3.2092498558e+000,3.6999967946e+000,3.8222982340e+000,3.8898642177e+000,3.7950989753e+000,3.5973882643e+000,4.0127672858e+000,3.5510617908e+000,4.4667341858e+000,3.1816244810e+000,4.0006220961e+000,3.6259395310e+000,3.4433116532e+000,
3.0000000000e+000,3.6819938739e+000,3.1870087617e+000,3.6079763000e+000,3.7421673619e+000,3.7556391449e+000,3.7413692243e+000,3.5646700644e+000,3.9986181466e+000,3.5159230669e+000,4.3628851478e+000,3.1430533082e+000,3.9085268899e+000,3.6086934904e+000,3.4107302727e+000,
3.0937500000e+000,3.7692719019e+000,3.2251652663e+000,3.7115452192e+000,3.6630933667e+000,3.8166689671e+000,3.7514411665e+000,3.6534100123e+000,4.0035128139e+000,3.4776552521e+000,4.4194131209e+000,3.0278275948e+000,3.8161117771e+000,3.5579025952e+000,3.4045927552e+000,
3.1875000000e+000,3.9036656022e+000,3.3633186353e+000,3.8512167581e+000,3.7488307955e+000,3.9216267244e+000,3.8306796846e+000,3.7184521024e+000,4.1200577249e+000,3.5975953449e+000,4.5033927622e+000,3.2143111862e+000,3.8878660357e+000,3.7556764225e+000,3.5921562935e+000,
3.2812500000e+000,3.9463737023e+000,3.3755399726e+000,3.8400686093e+000,3.7079114236e+000,3.9492405889e+000,3.8098166690e+000,3.6721251926e+000,4.0937327629e+000,3.5727747373e+000,4.5941475549e+000,3.3229895375e+000,3.7981695207e+000,3.8814255314e+000,3.6265131209e+000,
3.3750000000e+000,3.9321816000e+000,3.3306192209e+000,3.8270113403e+000,3.6712964668e+000,3.9354946480e+000,3.7439311199e+000,3.6745911971e+000,4.1488190022e+000,3.5475197004e+000,4.5755799007e+000,3.3157137555e+000,3.7941973695e+000,3.8168323219e+000,3.6510610023e+000,
3.4687500000e+000,3.8781571706e+000,3.3162863902e+000,3.8071120978e+000,3.6706183171e+000,3.8757713630e+000,3.7231029557e+000,3.6068379666e+000,4.0857044200e+000,3.5337081264e+000,4.5532158574e+000,3.2130559053e+000,3.7575774481e+000,3.7493078683e+000,3.6250830856e+000,
3.5625000000e+000,3.8519497077e+000,3.2841541945e+000,3.7655924156e+000,3.6653588364e+000,3.8994100865e+000,3.7167499886e+000,3.6044624183e+000,4.0679569596e+000,3.5079586524e+000,4.6010022290e+000,3.2166821020e+000,3.7103959883e+000,3.7066974339e+000,3.6538584348e+000,
3.6562500000e+000,3.7760429237e+000,3.2433460948e+000,3.6957049416e+000,3.6705513558e+000,3.8934846486e+000,3.7341388910e+000,3.5941736566e+000,4.0694251344e+000,3.5613445958e+000,4.6000098106e+000,3.3851735667e+000,3.6525611039e+000,3.6973952975e+000,3.7775789611e+000,
3.7500000000e+000,3.8136067035e+000,3.2320974487e+000,3.8095765057e+000,3.7668277920e+000,3.8998009051e+000,3.8139149680e+000,3.6284984065e+000,4.1590313808e+000,3.5847907518e+000,4.7559840406e+000,3.4969646170e+000,3.7353973218e+000,3.7577203901e+000,3.8350996139e+000,
3.8437500000e+000,3.7993165820e+000,3.1698109420e+000,3.7561141501e+000,3.7760209696e+000,3.8961560771e+000,3.7927383504e+000,3.5306659934e+000,4.1533993165e+000,3.5466751837e+000,4.6969373737e+000,3.4381119586e+000,3.7168100995e+000,3.7228195750e+000,3.7636258013e+000,
3.9375000000e+000,3.7880134783e+000,3.1132779750e+000,3.7854815604e+000,3.7510021166e+000,3.9098139428e+000,3.7450022100e+000,3.4633718775e+000,4.0879411917e+000,3.5408277932e+000,4.7016359156e+000,3.3871771065e+000,3.6763457891e+000,3.5195853413e+000,3.7041727394e+000,
4.0312500000e+000,3.6718992792e+000,3.0453534156e+000,3.6998164821e+000,3.7175580915e+000,3.7661866700e+000,3.7339741093e+000,3.3116404600e+000,4.0881487962e+000,3.4300506632e+000,4.5990405797e+000,3.3543818266e+000,3.6723165191e+000,3.4659133690e+000,3.6619150402e+000,
4.1250000000e+000,3.6330822876e+000,3.0071160170e+000,3.6129389588e+000,3.7069099020e+000,3.7200667476e+000,3.6885314520e+000,3.2153587297e+000,4.0316231637e+000,3.3284047453e+000,4.5877185257e+000,3.3461521288e+000,3.7021240828e+000,3.4584835446e+000,3.7407620135e+000,
4.2187500000e+000,3.6489609054e+000,3.0087978886e+000,3.6604930976e+000,3.7833084812e+000,3.7766923886e+000,3.8067108666e+000,3.2702273738e+000,4.0259191603e+000,3.3986804808e+000,4.6376157166e+000,3.2117319357e+000,3.8971508781e+000,3.3229967082e+000,3.8541057625e+000,
4.3125000000e+000,3.7041742148e+000,3.0583973634e+000,3.7245136150e+000,3.8153791328e+000,3.7497018097e+000,3.8589579357e+000,3.3411865069e+000,3.9662870029e+000,3.4556684417e+000,4.7420151190e+000,3.1800105886e+000,3.9437970742e+000,3.3122810662e+000,3.8787047735e+000,
4.4062500000e+000,3.7824145184e+000,3.1703879787e+000,3.7708592331e+000,3.8700401954e+000,3.7335782620e+000,3.9303278122e+000,3.3761553932e+000,4.0257638923e+000,3.4330203894e+000,4.9674872714e+000,3.2159980213e+000,3.9247443268e+000,3.3847307791e+000,3.9157863111e+000,
4.5000000000e+000,3.7998317276e+000,3.2735062365e+000,3.7534620886e+000,3.8178383885e+000,3.7090414075e+000,3.9685682000e+000,3.3596156280e+000,4.1097224366e+000,3.4036037945e+000,5.0053750272e+000,3.2228822020e+000,3.9427269063e+000,3.3599761256e+000,3.9227461043e+000,
4.5937500000e+000,3.8241058402e+000,3.2872748870e+000,3.8303478188e+000,3.8199828500e+000,3.6644942467e+000,4.0225412804e+000,3.4332547815e+000,4.1201953554e+000,3.4155688396e+000,5.0468436466e+000,3.1885901720e+000,3.9398384780e+000,3.4680053302e+000,3.8952458443e+000,
4.6875000000e+000,3.8620356869e+000,3.2633707792e+000,3.8653997506e+000,3.8186230179e+000,3.7195591324e+000,3.9949295051e+000,3.4481801450e+000,4.1228295873e+000,3.4432463699e+000,4.9697475632e+000,2.9880599537e+000,3.9310810904e+000,3.4676139881e+000,3.7824424103e+000,
4.7812500000e+000,3.8803175130e+000,3.3763888701e+000,3.9240146061e+000,3.8516428074e+000,3.8097008207e+000,4.0085465708e+000,3.6036505781e+000,4.0892852078e+000,3.5496380372e+000,4.9682203621e+000,2.9799502289e+000,3.8570670396e+000,3.5344971294e+000,3.7528951073e+000,
4.8750000000e+000,3.9556454273e+000,3.4319797222e+000,3.9970797242e+000,3.8602778261e+000,3.7694948966e+000,4.0019960667e+000,3.6170065016e+000,4.2074327582e+000,3.5551328885e+000,4.9302029484e+000,2.9528974241e+000,3.8788008033e+000,3.5342319503e+000,3.7161627533e+000,
4.9687500000e+000,3.9754081375e+000,3.4758249397e+000,3.9844833483e+000,3.8696030282e+000,3.8145469060e+000,4.0256669354e+000,3.6253882528e+000,4.2265308608e+000,3.6157034794e+000,4.9606397893e+000,2.8472503169e+000,3.9194105617e+000,3.4996273760e+000,3.6173300025e+000,
5.0625000000e+000,4.0111466278e+000,3.5393930019e+000,4.0337339418e+000,3.8757901339e+000,3.8023908095e+000,4.0246111363e+000,3.6789335771e+000,4.2353323389e+000,3.6444216589e+000,5.0238849829e+000,2.8360508442e+000,3.9808894351e+000,3.4671173697e+000,3.6505832201e+000,
5.1562500000e+000,3.9395851785e+000,3.5339072425e+000,4.0019858570e+000,3.8415759428e+000,3.7632828502e+000,3.9873384872e+000,3.6229744901e+000,4.2277822862e+000,3.6241827342e+000,4.9541280928e+000,2.7289989455e+000,3.8317557061e+000,3.4289496986e+000,3.4535382188e+000,
5.2500000000e+000,3.8675980416e+000,3.4350060710e+000,3.9456415432e+000,3.7476376627e+000,3.7530850187e+000,3.8561776462e+000,3.6487939877e+000,4.1705411552e+000,3.6488090640e+000,4.8739643840e+000,2.8874591042e+000,3.7828675533e+000,3.4889337129e+000,3.2717663934e+000,
5.3437500000e+000,3.8320714147e+000,3.3849879618e+000,3.8999147512e+000,3.7180764281e+000,3.7050009818e+000,3.7635193881e+000,3.5942004935e+000,4.1753080964e+000,3.5789320724e+000,4.7281498492e+000,2.8533778220e+000,3.6996322869e+000,3.4336859196e+000,3.2660445633e+000,
5.4375000000e+000,3.7403181314e+000,3.2825195209e+000,3.8497677466e+000,3.6308604884e+000,3.6286322701e+000,3.6931915768e+000,3.4876386970e+000,4.0755217163e+000,3.5561318260e+000,4.6187065775e+000,2.7806781877e+000,3.6714867890e+000,3.4323466185e+000,3.0827889219e+000,
5.5312500000e+000,3.8305311853e+000,3.1589972918e+000,3.8936396471e+000,3.7532143561e+000,3.6825454485e+000,3.6536049130e+000,3.4791574510e+000,4.0650719695e+000,3.5813886526e+000,4.5398106395e+000,2.8485747057e+000,3.7069939635e+000,3.4334229654e+000,3.1253354256e+000,
5.6250000000e+000,3.7910515689e+000,3.0260206304e+000,3.8129925902e+000,3.6843991982e+000,3.6349828151e+000,3.5421390463e+000,3.4219444901e+000,4.0248161196e+000,3.5382544858e+000,4.4943830269e+000,2.8867286941e+000,3.6824681505e+000,3.4586398171e+000,3.0983532867e+000,
5.7187500000e+000,3.6995565474e+000,2.9752215786e+000,3.7886177886e+000,3.5962052986e+000,3.5731753606e+000,3.4958459937e+000,3.3659769021e+000,3.9891896978e+000,3.4884627355e+000,4.5551229034e+000,2.9348206334e+000,3.7397934090e+000,3.3672059058e+000,3.0651681620e+000,
5.8125000000e+000,3.6038561425e+000,2.9666027275e+000,3.6598792107e+000,3.5056238013e+000,3.4932072001e+000,3.4940009421e+000,3.1970830737e+000,3.9765030610e+000,3.4318166016e+000,4.5998347035e+000,3.0375232958e+000,3.6835028381e+000,3.3308816220e+000,3.0732176300e+000,
5.9062500000e+000,3.5513212264e+000,2.9531970193e+000,3.6322537133e+000,3.5507556647e+000,3.4588799252e+000,3.4602595337e+000,3.3271175307e+000,3.9082318639e+000,3.4421471728e+000,4.6767921980e+000,3.0414905557e+000,3.6782562856e+000,3.3875516694e+000,3.1653821027e+000,
6.0000000000e+000,3.5999047826e+000,2.8538139601e+000,3.6283499101e+000,3.5726119103e+000,3.4407322215e+000,3.4489257218e+000,3.2882946866e+000,3.9384143585e+000,3.3742334324e+000,4.7087065730e+000,3.0472219203e+000,3.7016079639e+000,3.4612276167e+000,3.3555692477e+000,
6.0937500000e+000,3.5443376434e+000,2.7628323166e+000,3.5496592187e+000,3.5438886603e+000,3.3574954973e+000,3.4446084442e+000,3.2125198800e+000,3.9524138252e+000,3.3333861322e+000,4.6272847013e+000,3.0703941771e+000,3.6684634563e+000,3.5896900487e+000,3.3729373823e+000,
6.1875000000e+000,3.5140123319e+000,2.7606286724e+000,3.4912866365e+000,3.4988664533e+000,3.2402301945e+000,3.4386561957e+000,3.1888263511e+000,3.9489716152e+000,3.1827788548e+000,4.6181292855e+000,3.0049281422e+000,3.7608982834e+000,3.5988808851e+000,3.4498411642e+000,
6.2812500000e+000,3.5253700029e+000,2.8605538572e+000,3.4659736571e+000,3.4379766249e+000,3.3430448660e+000,3.4548452111e+000,3.0136518811e+000,3.8831936124e+000,3.0403955811e+000,4.5617236188e+000,2.9156345812e+000,3.6425336597e+000,3.4784211466e+000,3.3758265865e+000,
6.3750000000e+000,3.6493910797e+000,2.8736770194e+000,3.5204814751e+000,3.5093098968e+000,3.4064313085e+000,3.4882265404e+000,3.0350880926e+000,3.9321058260e+000,3.0673178152e+000,4.5681652060e+000,2.9300539334e+000,3.7243493811e+000,3.6663349991e+000,3.5904919220e+000,
6.4687500000e+000,3.5679412900e+000,2.8649034260e+000,3.4257422925e+000,3.4419665018e+000,3.3865386869e+000,3.4693815404e+000,2.9867465742e+000,3.8626595197e+000,2.9420835453e+000,4.6333394440e+000,2.9071361758e+000,3.7372738519e+000,3.6760432290e+000,3.6184490081e+000,
6.5625000000e+000,3.4672525304e+000,2.8780574247e+000,3.3395183619e+000,3.3277920118e+000,3.4117994707e+000,3.3885007534e+000,2.9353985861e+000,3.7731358702e+000,2.9560363056e+000,4.7078251224e+000,2.9419647551e+000,3.7565013993e+000,3.6911167117e+000,3.6875765225e+000,
6.6562500000e+000,3.4774124287e+000,2.8380884376e+000,3.2878928681e+000,3.3562423086e+000,3.4951183877e+000,3.3795898152e+000,2.8496983211e+000,3.7118812728e+000,2.8884311507e+000,4.6644743396e+000,2.8666204961e+000,3.6827278151e+000,3.6811101865e+000,3.6857871932e+000,
6.7500000000e+000,3.4905369131e+000,2.7310760787e+000,3.2517113199e+000,3.4085239556e+000,3.4851816734e+000,3.3439067002e+000,2.9549861464e+000,3.6581529022e+000,2.8979543028e+000,4.6276819135e+000,2.7344025632e+000,3.7197995049e+000,3.6899182313e+000,3.7080289189e+000,
6.8437500000e+000,3.4427251572e+000,2.6698290027e+000,3.1588027076e+000,3.3816243191e+000,3.4311121632e+000,3.3230911073e+000,2.8751112515e+000,3.5591350479e+000,2.8209058166e+000,4.5912407103e+000,2.6837117676e+000,3.7715274350e+000,3.7072813711e+000,3.6930972593e+000,
6.9375000000e+000,3.4817869729e+000,2.7316521432e+000,3.1338630645e+000,3.2589080429e+000,3.5395872673e+000,3.3980767159e+000,2.7676938070e+000,3.5327554018e+000,2.8376666033e+000,4.5420944882e+000,2.7127830612e+000,3.7137043834e+000,3.6902456789e+000,3.6238346567e+000,
7.0312500000e+000,3.4975946588e+000,2.8239917593e+000,3.1850981633e+000,3.2811025296e+000,3.5938175496e+000,3.5110640190e+000,2.8684155336e+000,3.5031414797e+000,2.8030811531e+000,4.5942881124e+000,2.6804544160e+000,3.6469461619e+000,3.6312705470e+000,3.5707564790e+000,
7.1250000000e+000,3.4532093763e+000,2.8126948229e+000,3.1200894122e+000,3.2663442259e+000,3.5925287505e+000,3.4824185010e+000,2.8590880164e+000,3.5234909325e+000,2.8055485409e+000,4.6660816098e+000,2.6636455310e+000,3.5863831970e+000,3.5015914342e+000,3.4941424278e+000,
7.2187500000e+000,3.5052873791e+000,2.7445968863e+000,3.1646778340e+000,3.2255841746e+000,3.6305899069e+000,3.4597237201e+000,2.8338647628e+000,3.5562424582e+000,2.8132252496e+000,4.6860299316e+000,2.5904051955e+000,3.5013991866e+000,3.4540091153e+000,3.4188570692e+000,
7.3125000000e+000,3.3763269191e+000,2.7259861919e+000,3.1286172260e+000,3.1903493557e+000,3.5014858704e+000,3.4687715736e+000,2.7987693288e+000,3.6112625799e+000,2.8110815300e+000,4.6832336852e+000,2.4941077111e+000,3.4953119575e+000,3.3144874447e+000,3.3695616820e+000,
7.4062500000e+000,3.3923254115e+000,2.7616820203e+000,3.1942804501e+000,3.2104904638e+000,3.5718405660e+000,3.4610202200e+000,2.8817367401e+000,3.6547840748e+000,2.8282005594e+000,4.7077260938e+000,2.5525238796e+000,3.4648828416e+000,3.0931711728e+000,3.1689619975e+000,
7.5000000000e+000,3.5226922592e+000,2.9113827046e+000,3.3666046910e+000,3.3276364287e+000,3.6581767681e+000,3.5386212777e+000,2.9325522267e+000,3.8618498664e+000,2.8550915496e+000,4.5431744596e+000,2.5726837618e+000,3.5416426381e+000,3.0643661943e+000,3.2893941824e+000,
7.5937500000e+000,3.5334723581e+000,2.9556493096e+000,3.3972462326e+000,3.3540797837e+000,3.5977879743e+000,3.5477816192e+000,3.0245449278e+000,3.9316307107e+000,2.8517844606e+000,4.5174241149e+000,2.4696145602e+000,3.5678204636e+000,3.0372312990e+000,3.2686108629e+000,
7.6875000000e+000,3.6191660332e+000,3.0716131371e+000,3.4630823055e+000,3.3690893137e+000,3.6184280077e+000,3.6081839448e+000,3.0762389188e+000,4.0439126796e+000,2.8676935409e+000,4.5230282453e+000,2.5396627696e+000,3.6411357082e+000,2.9923704777e+000,3.3144747610e+000,
7.7812500000e+000,3.7373067691e+000,3.1309237944e+000,3.4448421583e+000,3.3271154629e+000,3.6595171870e+000,3.6556759525e+000,3.0235395990e+000,4.1136704575e+000,2.8143751915e+000,4.5471111428e+000,2.5516736462e+000,3.7312452321e+000,3.0541735651e+000,3.5199016654e+000,
7.8750000000e+000,3.7545264765e+000,3.1194744426e+000,3.5018856442e+000,3.3306099628e+000,3.5972112246e+000,3.5831683700e+000,3.0675753329e+000,4.1749090286e+000,2.8491024853e+000,4.4775917382e+000,2.5340280564e+000,3.7332681692e+000,2.9996600310e+000,3.5210694028e+000,
7.9687500000e+000,3.6982992872e+000,3.0794571293e+000,3.4464079968e+000,3.3738122979e+000,3.6554365810e+000,3.5973977920e+000,2.9891121975e+000,4.1921999214e+000,2.9384535662e+000,4.4666071780e+000,2.5176535358e+000,3.7255697494e+000,2.9768276721e+000,3.5160026097e+000,
8.0625000000e+000,3.6736443094e+000,3.3043755867e+000,3.4475063209e+000,9.2726927157e+000,3.6275112366e+000,3.6099822781e+000,3.0364259042e+000,4.1674574883e+000,2.9391704216e+000,4.5823416363e+000,2.5719199521e+000,3.6976268061e+000,2.9731366080e+000,3.4952985363e+000,
8.1562500000e+000,3.6644786160e+000,4.9238112879e+000,3.4702555478e+000,1.1739613188e+001,3.6792215191e+000,3.6426236461e+000,3.0464187152e+000,5.2718375128e+000,2.9956356054e+000,6.1462293605e+000,2.5360971805e+000,3.7936834215e+000,2.9756823406e+000,3.5407199472e+000,
8.2500000000e+000,3.8171809621e+000,4.9815105774e+000,3.5996136749e+000,1.1827271873e+001,3.8214111713e+000,3.8098360308e+000,3.3139599998e+000,5.2857786018e+000,3.2132601430e+000,6.2132218198e+000,2.7247621304e+000,3.8828913256e+000,3.0916482988e+000,3.5803351687e+000,
8.3437500000e+000,3.8201505312e+000,4.9809469812e+000,3.5104440779e+000,1.1836668498e+001,3.8123370239e+000,3.7533880193e+000,3.2287125039e+000,5.2789924434e+000,3.2524520151e+000,6.2183355953e+000,2.7422886880e+000,3.8913715615e+000,3.1664115957e+000,3.6470351070e+000,
8.4375000000e+000,3.8076150664e+000,4.9784939934e+000,3.4893222892e+000,1.1836913537e+001,3.7011856542e+000,3.7354606640e+000,3.2354103003e+000,5.2793967844e+000,3.3083840100e+000,6.2143349441e+000,2.7064325917e+000,3.8894051659e+000,3.1742818320e+000,3.6201258509e+000,
8.5312500000e+000,3.8591926828e+000,4.9697864861e+000,3.4741294933e+000,1.1836917961e+001,3.7673181756e+000,3.7622584911e+000,3.2641098064e+000,5.2603615309e+000,3.2928423613e+000,6.2159066757e+000,2.7615551741e+000,3.9181265520e+000,3.2054661281e+000,3.5480826182e+000,
8.6250000000e+000,3.8681907799e+000,4.9529889182e+000,3.5108082656e+000,1.1836914659e+001,3.7468600285e+000,3.7567323592e+000,3.3176411142e+000,5.2392804066e+000,3.3086932010e+000,6.2218466880e+000,2.7751283293e+000,3.9036027557e+000,3.1368561896e+000,3.4914400375e+000,
8.7187500000e+000,3.8167633392e+000,4.9508227962e+000,3.4959921901e+000,1.1836912259e+001,3.7323263272e+000,3.7473031488e+000,3.2997008099e+000,5.2283371394e+000,3.3004991519e+000,6.2060605952e+000,2.6453509974e+000,3.8215553868e+000,3.0318525301e+000,3.3136469906e+000,
8.8125000000e+000,3.6884176747e+000,4.9447926943e+000,3.5041060798e+000,1.1836939777e+001,3.7323653488e+000,3.6819669151e+000,3.3001851833e+000,5.2151265892e+000,3.3416573784e+000,6.2368838217e+000,2.7153246615e+000,3.8039586263e+000,3.0472249858e+000,3.2465552239e+000,
8.9062500000e+000,3.6787311551e+000,4.9422874479e+000,3.4431863903e+000,1.1836930764e+001,3.7509122852e+000,3.6721414640e+000,3.2726722527e+000,5.2159493185e+000,3.2807897082e+000,6.2344716588e+000,2.7812911906e+000,3.7527185748e+000,3.0483302400e+000,3.2345718608e+000,
9.0000000000e+000,3.6762231736e+000,4.9480217460e+000,3.4781907936e+000,1.1836699219e+001,3.6798282040e+000,3.6195945916e+000,3.3069889465e+000,5.2231143388e+000,3.3022951158e+000,6.2496133722e+000,2.7334786417e+000,3.7576403574e+000,3.0349646356e+000,3.1641997358e+000,
9.0937500000e+000,3.7267764774e+000,4.7832719475e+000,3.5312568613e+000,1.1585744081e+001,3.8493562605e+000,3.6572038208e+000,3.3600469623e+000,5.1107878391e+000,3.3572233407e+000,6.1231131470e+000,2.7541825841e+000,3.7945039028e+000,3.0178051496e+000,3.1525070655e+000,
9.1875000000e+000,3.6002481768e+000,3.2226155822e+000,3.4650529344e+000,9.2167538093e+000,3.7425101216e+000,3.4841341145e+000,3.2328131791e+000,3.9954126900e+000,3.2123213499e+000,4.8044892944e+000,2.6241070834e+000,3.6538475744e+000,2.8965135530e+000,3.0329711089e+000,
9.2812500000e+000,3.8746405686e+000,2.9834605148e+000,3.7751344728e+000,5.5248612509e+000,3.8546185082e+000,3.6579117858e+000,3.4880277117e+000,4.0743862682e+000,3.4117093591e+000,4.6670930485e+000,2.8187096992e+000,3.8136392895e+000,3.0913612103e+000,3.2825920162e+000,
9.3750000000e+000,3.9682172795e+000,3.0427109225e+000,3.9331821645e+000,4.0537885981e+000,3.9337933061e+000,3.7785481405e+000,3.6633086239e+000,4.2237419980e+000,3.5244148169e+000,4.8760305839e+000,3.0101961402e+000,3.9130072717e+000,3.2735862305e+000,3.4457157862e+000,
9.4687500000e+000,3.9417829745e+000,3.0900852399e+000,3.9144743294e+000,3.8193347924e+000,3.9010892769e+000,3.7936580710e+000,3.6533271613e+000,4.1969952759e+000,3.5140046525e+000,4.9170763990e+000,2.9885393027e+000,3.9282874375e+000,3.2367589923e+000,3.4408712678e+000,
9.5625000000e+000,3.8048272455e+000,3.0523177195e+000,3.8122042443e+000,3.7498144945e+000,3.7929517872e+000,3.7188829837e+000,3.5892165565e+000,4.1072568929e+000,3.5164455922e+000,4.8855746016e+000,3.0013846615e+000,3.8257853987e+000,3.2637315815e+000,3.3961719041e+000,
9.6562500000e+000,3.9034855773e+000,3.2068068133e+000,3.8353595685e+000,3.8134926179e+000,3.9320081996e+000,3.8236467840e+000,3.6673793455e+000,4.1808280175e+000,3.5522019111e+000,4.9400742730e+000,3.0470147562e+000,3.8791154774e+000,3.2662125421e+000,3.4336975149e+000,
9.7500000000e+000,3.8767851063e+000,3.1279314084e+000,3.8275814064e+000,3.7216546251e+000,3.9074108019e+000,3.7874979336e+000,3.6759811602e+000,4.1193495106e+000,3.6008215138e+000,4.9341669292e+000,2.9973041398e+000,3.8674628444e+000,3.2546273121e+000,3.4428286818e+000,
9.8437500000e+000,3.8857035324e+000,3.1594189631e+000,3.8628512184e+000,3.7035775061e+000,3.8475198717e+000,3.8029022104e+000,3.6797772184e+000,4.0945483585e+000,3.5445827885e+000,4.8320663379e+000,2.9389528644e+000,3.8333251703e+000,3.2280879692e+000,3.4100156203e+000,
9.9375000000e+000,3.9042388176e+000,3.1619266056e+000,3.8455702622e+000,3.6992148925e+000,3.8192512693e+000,3.7500320054e+000,3.6404284429e+000,4.0035249629e+000,3.5704642197e+000,4.8283028683e+000,2.9659325446e+000,3.9074291481e+000,3.2299117337e+000,3.4136704301e+000,
1.0031250000e+001,3.9216750335e+000,3.1464344347e+000,3.8723972994e+000,3.7233319269e+000,3.7577733161e+000,3.7006211778e+000,3.6657242244e+000,4.0022944221e+000,3.5653140584e+000,4.6906338088e+000,2.9432100705e+000,3.8632132910e+000,3.2282968828e+000,3.4640098312e+000,
1.0125000000e+001,3.9071711977e+000,3.1581349544e+000,3.8239901678e+000,3.6622161149e+000,3.7004386842e+000,3.7039814137e+000,3.6695981868e+000,4.0315334452e+000,3.5521709545e+000,4.7129574435e+000,2.9460847350e+000,3.9340324790e+000,3.2485788590e+000,3.4618052723e+000,
1.0218750000e+001,3.8632526197e+000,3.1336085365e+000,3.7239181460e+000,3.6272000851e+000,3.6874832020e+000,3.6864658994e+000,3.6394137938e+000,3.9784750661e+000,3.5230925950e+000,4.6793654848e+000,2.9240387884e+000,3.8741957243e+000,3.1771946960e+000,3.2907275875e+000,
1.0312500000e+001,3.4926014785e+000,2.9651741298e+000,3.1972999457e+000,3.2840080118e+000,3.4164614944e+000,3.3745295088e+000,3.2108083694e+000,3.8419904565e+000,3.0590991934e+000,4.3879575761e+000,2.5150193694e+000,3.7230692099e+000,2.9106491107e+000,3.1608013306e+000,
1.0406250000e+001,3.4649359487e+000,2.9785451199e+000,3.1522298640e+000,3.3041374366e+000,3.3635809788e+000,3.4063461966e+000,3.1147712523e+000,3.7147876548e+000,3.0481218361e+000,4.3262570625e+000,2.3910146673e+000,3.6873347756e+000,2.7647774090e+000,2.9458306016e+000,
1.0500000000e+001,3.4337723914e+000,2.9412971112e+000,3.1212498207e+000,3.3444290406e+000,3.4134155318e+000,3.4066340173e+000,3.1112941001e+000,3.7753183467e+000,3.0009662390e+000,4.3128901633e+000,2.3273366253e+000,3.6928650695e+000,2.6838550641e+000,2.9293217076e+000,
1.0593750000e+001,3.5407710765e+000,2.8485460126e+000,3.1456778704e+000,3.3733109759e+000,3.4073411259e+000,3.3925677709e+000,3.0432260298e+000,3.8138838794e+000,2.9756513851e+000,4.2581318938e+000,2.2407116856e+000,3.6547651445e+000,2.6020429995e+000,2.9265619791e+000,
1.0687500000e+001,3.3329518913e+000,2.7629872417e+000,3.0191270968e+000,3.3382318751e+000,3.3387088531e+000,3.2884389388e+000,2.7696598801e+000,3.7719150843e+000,2.8909177332e+000,4.1421426188e+000,2.1766768888e+000,3.6268840223e+000,2.6649909852e+000,2.9366525567e+000,
1.0781250000e+001,3.3478711399e+000,2.7553779695e+000,2.9764160546e+000,3.2960571390e+000,3.3153953423e+000,3.2749667138e+000,2.6418611772e+000,3.7775279652e+000,2.7838884764e+000,4.1061154877e+000,2.1507842338e+000,3.6359286791e+000,2.6005825807e+000,2.9306236188e+000,
1.0875000000e+001,3.4210269232e+000,2.8555497690e+000,2.9238739407e+000,3.3789926638e+000,3.3010111225e+000,3.3463331644e+000,2.6150788143e+000,3.9003473239e+000,2.6866872899e+000,4.0495522811e+000,2.0618047278e+000,3.6325815418e+000,2.5644324597e+000,2.8731463811e+000,
1.0968750000e+001,3.6394331883e+000,3.0030529728e+000,3.1721821397e+000,3.4896858382e+000,3.4245926227e+000,3.4895467188e+000,2.6697290579e+000,3.9716545765e+000,2.7281975339e+000,4.2096619460e+000,2.1148438446e+000,3.6845450269e+000,2.6746190112e+000,3.1114665643e+000,
1.1062500000e+001,3.6967106192e+000,3.0202316720e+000,3.3045212498e+000,3.4848962380e+000,3.3859088965e+000,3.5708828626e+000,2.7255566092e+000,3.9112145068e+000,2.8467139382e+000,4.2712459530e+000,2.1271966894e+000,3.6336780659e+000,2.6794150311e+000,3.2169769609e+000,
1.1156250000e+001,3.7270827796e+000,2.9919609108e+000,3.3817380716e+000,3.5377323526e+000,3.4017924620e+000,3.5523506876e+000,2.7340195637e+000,3.9868575208e+000,2.8002508663e+000,4.2621105289e+000,2.1117076609e+000,3.5705983826e+000,2.6653914105e+000,3.2480279694e+000,
1.1250000000e+001,3.6536085035e+000,2.8538659014e+000,3.4543771298e+000,3.5662788120e+000,3.3587596217e+000,3.5107368447e+000,2.7630118242e+000,3.8963035386e+000,2.8606822788e+000,4.4308053978e+000,2.1216208658e+000,3.5258927310e+000,2.7495005967e+000,3.3177372004e+000,
1.1343750000e+001,3.6428310745e+000,2.9372907751e+000,3.5451138787e+000,3.5694933109e+000,3.4529598323e+000,3.4340646816e+000,2.7744096985e+000,3.8954041961e+000,2.8685504520e+000,4.3985029597e+000,2.1998016641e+000,3.5700063298e+000,2.7425164520e+000,3.3184061709e+000,
1.1437500000e+001,3.6090560372e+000,2.8838571079e+000,3.5135449138e+000,3.5269643321e+000,3.4801689465e+000,3.3885761094e+000,2.7436418365e+000,3.8636623345e+000,2.9030769321e+000,4.4190947870e+000,2.2794227719e+000,3.5504171615e+000,2.8466154092e+000,3.4126552826e+000,
1.1531250000e+001,3.6330678320e+000,2.9110257491e+000,3.5503878221e+000,3.5546244091e+000,3.4450520978e+000,3.3716081687e+000,2.8045820871e+000,3.8708764024e+000,2.8577576978e+000,4.4051671699e+000,2.2832866631e+000,3.6074065554e+000,2.8542370734e+000,3.4736993101e+000,
1.1625000000e+001,3.7311429104e+000,3.1066211468e+000,3.6323171638e+000,3.6741298730e+000,3.6306035746e+000,3.5073756093e+000,2.8549849321e+000,3.9623038335e+000,3.0473941471e+000,4.4966534720e+000,2.4042436569e+000,3.6331043140e+000,2.9012875883e+000,3.4694691151e+000,
1.1718750000e+001,3.7631045949e+000,3.5776904910e+000,3.6498499450e+000,3.7369354598e+000,3.6520420535e+000,3.5935140827e+000,2.9492143396e+000,4.0014288995e+000,3.0331579163e+000,4.5054532154e+000,2.3592765562e+000,3.6633998158e+000,2.8314765514e+000,3.3683347611e+000,
1.1812500000e+001,3.7217465983e+000,9.4220636760e+000,3.6322994100e+000,3.7378233590e+000,3.7252149784e+000,3.8855308843e+000,2.9710175008e+000,3.9670005274e+000,3.1048563779e+000,4.6085017946e+000,2.4534224172e+000,3.6591719383e+000,2.8317984056e+000,3.7445997406e+000,
1.1906250000e+001,3.6379836706e+000,1.0077554539e+001,3.6149890085e+000,3.7251415719e+000,3.6361706866e+000,4.0976630732e+000,3.0130415835e+000,3.9528339022e+000,3.0776843039e+000,4.6629151593e+000,2.6544222716e+000,3.6924821022e+000,2.8934776777e+000,4.0914228951e+000,
1.2000000000e+001,3.5229284508e+000,1.0169837658e+001,3.4392357061e+000,3.7443116168e+000,3.6278773437e+000,4.1816784594e+000,3.0347625197e+000,3.9995140610e+000,3.0112861645e+000,4.7236587943e+000,2.6784333900e+000,3.6893403531e+000,2.9646609537e+000,4.0871222069e+000,
1.2093750000e+001,3.4954441964e+000,1.0170776170e+001,3.3598027836e+000,3.7537452561e+000,3.6847743154e+000,4.1596021966e+000,2.9691854069e+000,4.0216247883e+000,2.9955775205e+000,4.7184312290e+000,2.6699031034e+000,3.7121249730e+000,2.9862027226e+000,4.0784431990e+000,
1.2187500000e+001,3.5683691244e+000,1.0170885764e+001,3.4053479254e+000,3.7362817797e+000,3.6586641935e+000,4.1607061814e+000,2.9393023715e+000,4.0042606431e+000,2.9704916547e+000,4.6993849167e+000,2.6881188920e+000,3.7733127873e+000,3.0282701816e+000,4.0965616817e+000,
1.2281250000e+001,3.6125619419e+000,1.0170912876e+001,3.3632297053e+000,3.7361509641e+000,3.6778758659e+000,4.1817457255e+000,2.9233699118e+000,4.0543523415e+000,2.9916310462e+000,4.6064475876e+000,2.7413641539e+000,3.7888864770e+000,3.0801903181e+000,4.1095302391e+000,
1.2375000000e+001,3.7515771525e+000,1.0170892481e+001,3.3476733917e+000,3.6993175289e+000,3.5800856788e+000,4.2130902141e+000,2.9552132899e+000,4.0499974876e+000,2.9719355817e+000,4.5828009865e+000,2.6550062910e+000,3.7135382255e+000,3.0301599487e+000,4.0358733410e+000,
1.2468750000e+001,3.7476444702e+000,1.0170923221e+001,3.4422725307e+000,3.7022865492e+000,3.5885907301e+000,4.2146661987e+000,3.0379107040e+000,4.0382876796e+000,2.9831699724e+000,4.5429794336e+000,2.6573329192e+000,3.7278856438e+000,3.0661405251e+000,4.0259226307e+000,
1.2562500000e+001,3.7261041175e+000,1.0170836866e+001,3.4175557172e+000,3.5962047779e+000,3.5574498491e+000,4.1403467906e+000,3.0374980617e+000,3.9548016272e+000,2.9673446420e+000,4.6331243698e+000,2.6513071377e+000,3.6854493613e+000,3.0594412875e+000,4.0568850596e+000,
1.2656250000e+001,3.6117173437e+000,1.0170735194e+001,3.3246718865e+000,3.3745404420e+000,3.3215906888e+000,4.0677984114e+000,3.0010521451e+000,3.8222352994e+000,2.7730482658e+000,4.5571771850e+000,2.5737437287e+000,3.6087478552e+000,3.0283011574e+000,4.0630054541e+000,
1.2750000000e+001,3.5622072802e+000,1.0034739996e+001,3.2765677958e+000,3.2490900882e+000,3.2359630192e+000,4.0108453217e+000,2.9209858005e+000,3.7788655560e+000,2.6470691309e+000,4.6842904631e+000,2.5690975265e+000,3.4170396560e+000,3.0373922438e+000,4.0721282481e+000,
1.2843750000e+001,3.5347928557e+000,9.5050248146e+000,3.2979007909e+000,3.2156816446e+000,3.1671679900e+000,3.7470307914e+000,2.9128499056e+000,3.7141634074e+000,2.5329760615e+000,4.6293594711e+000,2.4043638400e+000,3.3907158807e+000,3.0028024545e+000,3.5295007283e+000,
1.2937500000e+001,3.5386225143e+000,5.0591325536e+000,3.2189082750e+000,3.1746470014e+000,3.2328825293e+000,3.2973735524e+000,2.8500249091e+000,3.6830569187e+000,2.4662629754e+000,4.5826794600e+000,2.1013024852e+000,3.3713749964e+000,2.9369741196e+000,3.4328574282e+000,
1.3031250000e+001,3.5461271052e+000,3.2345377725e+000,3.2033917750e+000,2.9088752355e+000,3.1405730271e+000,3.1382519621e+000,2.8555262512e+000,3.4157255920e+000,2.4062530568e+000,4.5148433993e+000,2.0649381989e+000,3.2573289446e+000,2.9351516882e+000,3.3912805652e+000,
1.3125000000e+001,3.6243420395e+000,2.7556070212e+000,3.2218206665e+000,2.8667317689e+000,3.1381018897e+000,3.1290735139e+000,2.8631000380e+000,3.3890495731e+000,2.5801422684e+000,4.5498368554e+000,2.1807002151e+000,3.2841013269e+000,2.9768743427e+000,3.3682503130e+000,
1.3218750000e+001,3.5259409015e+000,2.6270601313e+000,3.1840558736e+000,2.7078727796e+000,3.1463672667e+000,3.0774263724e+000,2.8451587827e+000,3.2776718048e+000,2.6173243566e+000,4.5058002892e+000,2.2798499445e+000,3.2442473877e+000,2.9898741896e+000,3.2878303489e+000,
1.3312500000e+001,3.4899979243e+000,2.6708437391e+000,3.1268007186e+000,2.7622043811e+000,3.1004304361e+000,2.9844567914e+000,2.8069630801e+000,3.2191850484e+000,2.5317206767e+000,4.4990395846e+000,2.2133500346e+000,3.2263654418e+000,2.9216852716e+000,3.3014535678e+000,
1.3406250000e+001,3.3222846352e+000,2.6009004026e+000,3.0035677507e+000,2.7475011786e+000,3.0780416832e+000,3.0133917836e+000,2.7296914654e+000,3.0802580076e+000,2.5223576581e+000,4.4764097998e+000,2.2109472655e+000,3.2103342476e+000,2.8333821727e+000,3.3049005216e+000,
1.3500000000e+001,3.3235932949e+000,2.6431308618e+000,2.9271657208e+000,2.8149837083e+000,3.1032745158e+000,3.1213402507e+000,2.8080911062e+000,3.2071502445e+000,2.5840918097e+000,4.4896148206e+000,2.2848805709e+000,3.1302069018e+000,2.8467307206e+000,3.3422419582e+000,
1.3593750000e+001,3.3494920680e+000,2.6267510716e+000,2.8863328368e+000,2.8927397955e+000,3.0412401889e+000,3.1399118132e+000,2.7750342882e+000,3.2122080953e+000,2.6445526819e+000,4.3780692491e+000,2.2866563752e+000,3.0631322804e+000,2.8258811986e+000,3.1939877561e+000,
1.3687500000e+001,3.3873760797e+000,2.5996730186e+000,2.9237162026e+000,2.9049447623e+000,3.0665577330e+000,3.1558031756e+000,2.7747370080e+000,3.1331559875e+000,2.7547731870e+000,4.4328230115e+000,2.3076009934e+000,3.1896714315e+000,2.8761242389e+000,3.2116891828e+000,
1.3781250000e+001,3.3664557328e+000,2.6270072384e+000,2.9094719553e+000,2.8613650307e+000,3.0526691297e+000,3.1757673421e+000,2.7538179717e+000,3.1483593722e+000,2.8291115536e+000,4.2065407038e+000,2.3679385890e+000,3.2763460123e+000,2.9683169145e+000,3.1892087323e+000,
1.3875000000e+001,3.4226861783e+000,2.6441647798e+000,2.9887371689e+000,2.9108828812e+000,3.1415501928e+000,3.1889162086e+000,2.7515575952e+000,3.1872391904e+000,2.8937050839e+000,3.9741986461e+000,2.3891993936e+000,3.3286919564e+000,2.9903194796e+000,3.0091719023e+000,
1.3968750000e+001,3.4134575188e+000,2.5714431858e+000,3.0422250701e+000,2.9571261646e+000,3.2655942734e+000,3.1149166754e+000,2.8330038493e+000,3.2661918331e+000,3.0337397171e+000,3.9995528973e+000,2.4987255482e+000,3.3304397056e+000,3.0133141394e+000,2.8794340696e+000,
1.4062500000e+001,3.4487350287e+000,2.5756503844e+000,3.1572848542e+000,3.0636897993e+000,3.4189362084e+000,3.1851382443e+000,2.9050437876e+000,3.3070385815e+000,3.1225652289e+000,4.0195887902e+000,2.5366001956e+000,3.3825530582e+000,2.9300081435e+000,2.9256308184e+000,
1.4156250000e+001,3.5322669520e+000,2.7458098654e+000,3.2850898558e+000,3.2196421786e+000,3.4117536577e+000,3.3631581524e+000,2.9545875286e+000,3.3833017775e+000,3.0369081587e+000,4.0772091056e+000,2.4500218879e+000,3.4177734054e+000,2.8944236251e+000,3.0770454063e+000,
1.4250000000e+001,3.4803285148e+000,2.7838795659e+000,3.3337303416e+000,3.2584805952e+000,3.4551592657e+000,3.3334008997e+000,3.1237046319e+000,3.4496581213e+000,3.0864378824e+000,4.1672453831e+000,2.3980519466e+000,3.4627140498e+000,2.8587231291e+000,3.1401459269e+000,
1.4343750000e+001,3.5002857212e+000,2.7278333144e+000,3.3347101068e+000,3.2304474803e+000,3.4710400223e+000,3.3127706662e+000,3.1508530532e+000,3.4635550305e+000,3.0803755701e+000,4.2085186416e+000,2.3829410665e+000,3.4688806585e+000,2.8614552287e+000,3.1282086209e+000,
1.4437500000e+001,3.5648029022e+000,2.7203667169e+000,3.3778739729e+000,3.2775400636e+000,3.4476669656e+000,3.2700176545e+000,3.1284399737e+000,3.4721233853e+000,3.0498218304e+000,4.2858051982e+000,2.3870991988e+000,3.5585617576e+000,2.8426355553e+000,3.1292859079e+000,
1.4531250000e+001,3.5563077227e+000,2.7422748283e+000,3.3969938596e+000,3.2580000400e+000,3.4083871122e+000,3.2677740603e+000,3.1249446071e+000,3.4085962538e+000,3.0324137875e+000,4.2873937002e+000,2.3943212478e+000,3.5847437855e+000,2.9410442229e+000,3.1579122710e+000,
1.4625000000e+001,3.4952681944e+000,2.7829115429e+000,3.3997888548e+000,3.2933830684e+000,3.4449704609e+000,3.2936783643e+000,3.1357896070e+000,3.5310246938e+000,3.0279214163e+000,4.2814017521e+000,2.3732001996e+000,3.6442089098e+000,2.9113317050e+000,3.2403742160e+000,
1.4718750000e+001,3.7407978428e+000,3.0006429508e+000,3.6131519161e+000,3.5402653939e+000,3.5552802466e+000,3.4538752811e+000,3.3047554110e+000,3.7906740835e+000,3.1655188994e+000,4.2995976989e+000,2.4148384743e+000,3.6081724322e+000,2.9861435871e+000,3.2918390420e+000,
1.4812500000e+001,3.7470151964e+000,3.0716677482e+000,3.6366323578e+000,3.6230906435e+000,3.5801282299e+000,3.4748732125e+000,3.3875239706e+000,3.9705139748e+000,3.1960706100e+000,4.3729036390e+000,2.4794032659e+000,3.5436839049e+000,2.9697555080e+000,3.2871710805e+000,
1.4906250000e+001,3.7936596610e+000,3.0406532293e+000,3.7041871180e+000,3.6203556766e+000,3.5430270773e+000,3.4298256674e+000,3.4530656163e+000,3.9424543829e+000,3.1199795618e+000,4.3731966702e+000,2.4974840694e+000,3.5166484966e+000,3.0893323811e+000,3.3593173840e+000,
1.5000000000e+001,3.6794400670e+000,3.0883613426e+000,3.6651233931e+000,3.5948941806e+000,3.3355372259e+000,3.3611262754e+000,3.3534721274e+000,3.9040255183e+000,2.9421415439e+000,4.3314622644e+000,2.3685364497e+000,3.4633647120e+000,3.0310261347e+000,3.3677945280e+000,
1.5093750000e+001,3.7077637636e+000,3.0927967703e+000,3.6684773798e+000,3.5801020660e+000,3.3070883105e+000,3.3788942099e+000,3.3660078365e+000,3.8987461908e+000,2.9501548572e+000,4.3481291390e+000,2.5810305365e+000,3.5832514797e+000,3.1464566285e+000,3.4960834843e+000,
1.5187500000e+001,3.5723158398e+000,2.9533173143e+000,3.4332443528e+000,3.4915938249e+000,3.2426489088e+000,3.3035481120e+000,3.1427504172e+000,3.8660537218e+000,2.8267335545e+000,4.1346386578e+000,2.5727284295e+000,3.5549396896e+000,3.1402703289e+000,3.4282248418e+000,
1.5281250000e+001,3.6648723447e+000,3.0339372479e+000,3.4878560088e+000,3.4632335229e+000,3.2741527623e+000,3.3862911824e+000,3.1599288899e+000,3.8590860321e+000,2.7757050990e+000,4.1661587035e+000,2.5286624504e+000,3.6335926796e+000,3.1058901572e+000,3.3602052916e+000,
1.5375000000e+001,3.6230145427e+000,3.0173713119e+000,3.4700186886e+000,3.4103447577e+000,3.2110532449e+000,3.4011613205e+000,3.1389927330e+000,3.8331160000e+000,2.7503797616e+000,4.0245795029e+000,2.5362156849e+000,3.5601065973e+000,3.1347427107e+000,3.3537134651e+000,
1.5468750000e+001,3.7347112165e+000,3.1690698487e+000,3.5280265598e+000,3.4625932458e+000,3.3482084661e+000,3.5538735076e+000,3.2110714579e+000,4.0163614023e+000,2.8342454284e+000,4.1691146622e+000,2.5959406560e+000,3.5181853522e+000,3.2294489290e+000,3.3854511764e+000,
1.5562500000e+001,3.7324029027e+000,3.1835999742e+000,3.4941040866e+000,3.4793963218e+000,3.3467697736e+000,3.5364623737e+000,3.1950926295e+000,4.0111951402e+000,2.8231939457e+000,4.1622203962e+000,2.5541333806e+000,3.4797019026e+000,3.1870830624e+000,3.2998971588e+000,
1.5656250000e+001,3.7402811928e+000,3.1985467045e+000,3.4919574794e+000,3.5482835616e+000,3.3237896754e+000,3.5604215634e+000,3.2012797604e+000,4.0242902456e+000,2.6995682107e+000,4.1731109487e+000,2.5173317137e+000,3.5313467501e+000,3.3199198434e+000,3.3925024756e+000,
1.5750000000e+001,3.5295671402e+000,2.9906433024e+000,3.2290649009e+000,3.2704887950e+000,3.1651343024e+000,3.3726121655e+000,3.0533348249e+000,3.7178638673e+000,2.5293588104e+000,4.0916061730e+000,2.4208238915e+000,3.4953752381e+000,3.2391817885e+000,3.3766657324e+000,
1.5843750000e+001,3.5722040068e+000,2.9816415706e+000,3.2059933050e+000,3.1828575565e+000,3.1572563070e+000,3.3383834947e+000,3.0133528224e+000,3.7199322645e+000,2.7146076251e+000,4.1240042115e+000,2.3775336155e+000,3.5106763111e+000,3.1438113460e+000,3.2866810479e+000,
1.5937500000e+001,3.4328999223e+000,2.9486216788e+000,3.0509880095e+000,3.1022490441e+000,3.1410142807e+000,3.3533144347e+000,2.8870589581e+000,3.6828620489e+000,2.7824896706e+000,4.1118377148e+000,2.5595979535e+000,3.4909846164e+000,3.1613580949e+000,3.2907607133e+000,
1.6031250000e+001,3.4287436298e+000,2.9588498323e+000,3.1091836257e+000,3.1353770341e+000,3.1278204101e+000,3.3374291128e+000,2.9534520325e+000,3.7430690209e+000,2.7663886689e+000,4.2158261909e+000,2.4890532595e+000,3.5870414711e+000,3.1742737940e+000,3.2662492377e+000,
1.6125000000e+001,3.5114837430e+000,3.0521603860e+000,3.1550249035e+000,3.2161407193e+000,3.1775462424e+000,3.4224931514e+000,2.9122505158e+000,3.8305369834e+000,2.7813989918e+000,4.3763568487e+000,2.2838199534e+000,3.5750097356e+000,3.0470084136e+000,3.0970676856e+000,
1.6218750000e+001,3.4784977580e+000,3.0494905210e+000,3.1759258760e+000,3.3424594720e+000,3.1470677392e+000,3.4653669076e+000,2.9500619249e+000,3.8825481638e+000,2.7695802307e+000,4.3702654522e+000,2.2902860550e+000,3.5596287378e+000,3.2068724848e+000,3.0718824724e+000,
1.6312500000e+001,3.4874385091e+000,3.0464833896e+000,3.1656297814e+000,3.4181193012e+000,3.1682460918e+000,3.4890317049e+000,2.9267904172e+000,3.8911357840e+000,2.8319260474e+000,4.3917170075e+000,2.3307324559e+000,3.5049700946e+000,3.3291239602e+000,3.1514961278e+000,
1.6406250000e+001,3.5161584451e+000,3.0535257332e+000,3.2012559591e+000,3.4074596500e+000,3.1940897036e+000,3.4330472937e+000,2.9815413994e+000,3.9057856434e+000,2.9443581964e+000,4.3730987289e+000,2.2653137249e+000,3.4984103692e+000,3.4780361902e+000,3.1564579630e+000,
1.6500000000e+001,3.4258925551e+000,2.8865402043e+000,3.1930087628e+000,3.2960060334e+000,3.1188471931e+000,3.3893718882e+000,3.0124866557e+000,3.7701344396e+000,2.9106940574e+000,4.3951153009e+000,2.2041376839e+000,3.6225925009e+000,3.4561505010e+000,3.3010850356e+000,
1.6593750000e+001,3.5336341090e+000,3.0195542986e+000,3.2621140767e+000,3.2814079790e+000,3.2936060617e+000,3.4877681184e+000,3.0732957208e+000,3.8822700501e+000,2.9263389531e+000,4.3603726174e+000,2.2477834260e+000,3.6754576553e+000,3.4869321028e+000,3.3965006363e+000,
1.6687500000e+001,3.5512183686e+000,3.0919976789e+000,3.2764370961e+000,3.3364129468e+000,3.4000560010e+000,3.5148028961e+000,3.0653221978e+000,3.9503613075e+000,2.9659789471e+000,4.3592113763e+000,2.2828370776e+000,3.5992651752e+000,3.5200946451e+000,3.4436505773e+000,
1.6781250000e+001,3.4923421318e+000,3.0642754649e+000,3.2466827529e+000,3.3394300722e+000,3.3912889137e+000,3.5359433147e+000,2.9482391060e+000,3.9663502546e+000,2.9520444239e+000,4.3957795709e+000,2.2743536014e+000,3.6635732494e+000,3.6020317056e+000,3.5503010028e+000,
1.6875000000e+001,3.4477578422e+000,3.0210849433e+000,3.2493635781e+000,3.3482586330e+000,3.4791302987e+000,3.5663442902e+000,2.9829179565e+000,3.9673973902e+000,3.0336057139e+000,4.3668398762e+000,2.3778614033e+000,3.6360559989e+000,3.6374052614e+000,3.6493372677e+000,
1.6968750000e+001,3.5045404943e+000,3.0321968364e+000,3.2836556835e+000,3.4299740324e+000,3.4546509728e+000,3.6209207052e+000,2.8861616607e+000,4.0146672448e+000,2.9197964388e+000,4.4367785375e+000,2.3468373025e+000,3.7665841901e+000,3.7398238806e+000,3.7707623600e+000,
1.7062500000e+001,3.5827472305e+000,3.1895603532e+000,3.2831317806e+000,3.5383822720e+000,3.4812568977e+000,3.7404706760e+000,2.8610568346e+000,4.1234932857e+000,2.8737116868e+000,4.3181425396e+000,2.3733424265e+000,3.6537969482e+000,3.7436674205e+000,3.7852523334e+000,
1.7156250000e+001,3.6273563052e+000,3.1476898029e+000,3.2699972131e+000,3.4947928639e+000,3.4613070979e+000,3.6481514225e+000,2.7932715905e+000,4.0940536176e+000,2.9442786195e+000,4.2934162893e+000,2.4172692558e+000,3.5483606925e+000,3.7322002827e+000,3.7815414907e+000,
1.7250000000e+001,3.6388885925e+000,3.1324565360e+000,3.3035772926e+000,3.3938943905e+000,3.5457046076e+000,3.5915365397e+000,2.9707724729e+000,4.0087440952e+000,3.1114076529e+000,4.3089305110e+000,2.5208393692e+000,3.5190665949e+000,3.7250881878e+000,3.7761970357e+000,
1.7343750000e+001,3.6422775155e+000,3.2091971570e+000,3.3074020543e+000,3.3555174776e+000,3.5460847460e+000,3.5739441162e+000,2.9698588682e+000,3.9529051295e+000,3.1127957299e+000,4.3005804857e+000,2.5912474087e+000,3.5526514413e+000,3.6304487528e+000,3.7017092871e+000,
1.7437500000e+001,3.6615920220e+000,3.2982254798e+000,3.2913534821e+000,3.4463108255e+000,3.6115821801e+000,3.5881705426e+000,2.9159973761e+000,4.0493596155e+000,3.0437992258e+000,4.2335495982e+000,2.7272300504e+000,3.5221539515e+000,3.6263826173e+000,3.7502007429e+000,
1.7531250000e+001,3.5922335851e+000,3.2384617095e+000,3.2012367815e+000,3.4687207234e+000,3.5964186366e+000,3.5524099092e+000,2.7523802250e+000,4.0539900941e+000,3.0658944130e+000,4.2134979502e+000,2.7204313843e+000,3.4793822338e+000,3.6122680945e+000,3.7111645084e+000,
1.7625000000e+001,3.4788878702e+000,3.0909619412e+000,3.1247059356e+000,3.4600565178e+000,3.3922385307e+000,3.5798487971e+000,2.5434670155e+000,3.9175600275e+000,2.9731728705e+000,4.2955649759e+000,2.7657842623e+000,3.5690979486e+000,3.5545908773e+000,3.6838068025e+000,
1.7718750000e+001,3.5437217779e+000,3.1584494394e+000,3.2153237558e+000,3.4701987896e+000,3.4124177789e+000,3.5430296991e+000,2.6861288888e+000,3.8709215350e+000,2.9278508597e+000,4.3817172066e+000,2.8026641956e+000,3.5561464985e+000,3.4805633626e+000,3.6366559526e+000,
1.7812500000e+001,3.5295123546e+000,3.2305936035e+000,3.2530574245e+000,3.5995512534e+000,3.4446376102e+000,3.6325178769e+000,2.8463597297e+000,4.0709343698e+000,3.0238009690e+000,4.4467734279e+000,2.8627016327e+000,3.6005352990e+000,3.5303583724e+000,3.5140551685e+000,
1.7906250000e+001,3.5986965260e+000,3.3107798976e+000,3.3045861529e+000,3.6668923208e+000,3.4438892468e+000,3.6777583601e+000,2.9633060641e+000,4.1187690909e+000,3.1833170378e+000,4.4270455307e+000,3.0496997461e+000,3.7830552358e+000,3.4795260659e+000,3.3938832255e+000,
1.8000000000e+001,3.5848969428e+000,3.2500046868e+000,3.2284164354e+000,3.5749679352e+000,3.4268678838e+000,3.5788447186e+000,3.0548241400e+000,4.0747742347e+000,3.2133010952e+000,4.4150124495e+000,3.0217636671e+000,3.6528251863e+000,3.4134207429e+000,3.2642991809e+000,
1.8093750000e+001,3.4897092207e+000,3.1081791796e+000,3.1844083782e+000,3.4897785842e+000,3.3700980819e+000,3.5110391351e+000,3.0873613147e+000,3.9533263787e+000,3.2204053741e+000,4.3555801545e+000,2.9835065510e+000,3.6397962349e+000,3.4345141288e+000,3.2218425798e+000,
1.8187500000e+001,3.4241472677e+000,3.1373198526e+000,3.1566312796e+000,3.5134010560e+000,3.3330913721e+000,3.5211340579e+000,3.0150703626e+000,4.0122631237e+000,3.1811262484e+000,4.3804166662e+000,2.9693376830e+000,3.6640195932e+000,3.4108694661e+000,3.2826446421e+000,
1.8281250000e+001,3.4175086726e+000,3.1365272857e+000,3.1880451002e+000,3.5087996820e+000,3.2413837068e+000,3.5825416345e+000,2.8873193860e+000,4.0683760608e+000,3.1476693485e+000,4.4948522313e+000,2.9516847625e+000,3.8129331225e+000,3.3661361526e+000,3.3212007982e+000,
1.8375000000e+001,3.4088724161e+000,3.0379684935e+000,3.2108059239e+000,3.5707049716e+000,3.2483328637e+000,3.6040757020e+000,2.9107896133e+000,4.0526231070e+000,3.1974407134e+000,4.4666608811e+000,2.8423429450e+000,3.8085512365e+000,3.3525221655e+000,3.3079049195e+000,
1.8468750000e+001,3.4514750467e+000,3.0956191881e+000,3.2634325874e+000,3.5383954783e+000,3.2038594328e+000,3.6446142723e+000,2.9384997693e+000,4.0360639322e+000,3.1512383377e+000,4.4465329451e+000,2.8676126724e+000,3.8227524590e+000,3.1238735948e+000,3.1003000759e+000,
1.8562500000e+001,3.5283942508e+000,3.1395679378e+000,3.3499694237e+000,3.5040259163e+000,3.2665955570e+000,3.6487637499e+000,3.0553936519e+000,4.0596208617e+000,3.3172957842e+000,4.6366192649e+000,2.9874880772e+000,4.0623471055e+000,3.1627854556e+000,2.9651276733e+000,
1.8656250000e+001,3.5368780651e+000,3.0982037346e+000,3.3107468327e+000,3.4234460166e+000,3.3269147155e+000,3.6314175474e+000,3.0220733640e+000,4.0557533914e+000,3.3193095566e+000,4.5358013218e+000,2.9768580947e+000,4.0156229595e+000,3.2922279936e+000,2.8231488331e+000,
1.8750000000e+001,3.5063972120e+000,3.1110217019e+000,3.3347739052e+000,3.4603105142e+000,3.2607213357e+000,3.6964567741e+000,3.0831182109e+000,4.1209815355e+000,3.1811985633e+000,4.5575570732e+000,2.9127107677e+000,4.0564700925e+000,3.2670881081e+000,2.9577339695e+000,
1.8843750000e+001,3.5486226358e+000,3.1471823566e+000,3.3199665630e+000,3.4332647274e+000,3.2994645930e+000,3.7079130717e+000,3.0983467357e+000,3.9914954222e+000,3.0930027449e+000,4.5095751532e+000,2.6241583464e+000,4.0261324660e+000,3.1526684480e+000,2.9189357086e+000,
1.8937500000e+001,3.5274639713e+000,3.1125620259e+000,3.3242935032e+000,3.4201151626e+000,3.3212592936e+000,3.6945838625e+000,3.0642440085e+000,4.0220158057e+000,2.9249516384e+000,4.5329415668e+000,2.5444581040e+000,4.1103599105e+000,3.0796698378e+000,2.9356474232e+000,
1.9031250000e+001,3.4847023185e+000,3.1224301566e+000,3.3328683825e+000,3.4276645016e+000,3.3146411043e+000,3.6344250910e+000,2.9854286925e+000,3.9696405518e+000,2.9329180973e+000,4.5457970816e+000,2.6130661214e+000,4.0979093803e+000,3.1156784825e+000,3.0210346358e+000,
1.9125000000e+001,3.5090328771e+000,3.1166407464e+000,3.3404518533e+000,3.4152836687e+000,3.3708199387e+000,3.6455488876e+000,3.0032200243e+000,3.9206130630e+000,2.9926775418e+000,4.5484787359e+000,2.7390631888e+000,4.1813175819e+000,3.1494299738e+000,3.0500406332e+000,
1.9218750000e+001,3.6493955835e+000,3.2656600903e+000,3.4247553283e+000,3.5444004851e+000,3.5289140346e+000,3.7033941559e+000,3.0775594693e+000,3.9333263068e+000,3.0258903195e+000,4.4997404326e+000,2.6833975934e+000,4.2132788100e+000,3.1159554014e+000,3.0190511470e+000,
1.9312500000e+001,3.8094125550e+000,3.3370147604e+000,3.4679092738e+000,3.6686549066e+000,3.5873516951e+000,3.7448307550e+000,3.1815052153e+000,3.8651348148e+000,2.9530134124e+000,4.4835979475e+000,2.6396553686e+000,4.1334408460e+000,3.1110788814e+000,3.1015409406e+000,
1.9406250000e+001,3.7641715386e+000,3.2796602071e+000,3.4181199352e+000,3.5826725383e+000,3.6005317265e+000,3.6698788531e+000,3.1852557568e+000,3.8702130021e+000,2.9622729685e+000,4.4689161204e+000,2.6149445280e+000,4.0864899342e+000,3.1277811130e+000,3.1766863618e+000,
1.9500000000e+001,3.6698268466e+000,3.1636370091e+000,3.3079633486e+000,3.4995862898e+000,3.6013474795e+000,3.6180316782e+000,3.1147846533e+000,3.8521337768e+000,2.9780921539e+000,4.4721309523e+000,2.4644343181e+000,4.0486783859e+000,3.2249889767e+000,3.2704881035e+000,
1.9593750000e+001,3.6906470783e+000,3.1416033453e+000,3.3236723714e+000,3.5604093890e+000,3.5792699632e+000,3.5995358523e+000,3.1666429495e+000,3.8066247678e+000,2.8286705654e+000,4.3466400486e+000,2.5867380914e+000,3.7892626941e+000,3.2445265521e+000,3.3701045342e+000,
1.9687500000e+001,3.6774271980e+000,3.0953482474e+000,3.2716758677e+000,3.5216906308e+000,3.6040993077e+000,3.5380513716e+000,3.1766314570e+000,3.7879210161e+000,2.8063601394e+000,4.2731699771e+000,2.5408020576e+000,3.7803281920e+000,3.1511406511e+000,3.4178896118e+000,
1.9781250000e+001,3.6695735374e+000,3.0133370962e+000,3.3296638993e+000,3.4774876107e+000,3.6241787001e+000,3.3757650364e+000,3.1337063575e+000,3.6069661625e+000,2.8419744244e+000,4.2058405996e+000,2.5442167159e+000,3.6878643525e+000,3.1093340774e+000,3.3998220445e+000,
1.9875000000e+001,3.6659620532e+000,2.9121831239e+000,3.3268047838e+000,3.4149689097e+000,3.5695470882e+000,3.3113065665e+000,3.0282991825e+000,3.5674482671e+000,2.8655881380e+000,4.1396439875e+000,2.5921144891e+000,3.4760881484e+000,3.0970057298e+000,3.3437043055e+000,
1.9968750000e+001,3.6808457738e+000,2.9334308639e+000,3.3018318297e+000,3.3814006671e+000,3.5534108913e+000,3.2506901464e+000,3.0113311136e+000,3.4153525568e+000,2.8442461681e+000,4.1778922206e+000,2.6523349217e+000,3.4036385332e+000,3.1444019606e+000,3.3835115610e+000,
2.0062500000e+001,3.6615611603e+000,2.9326992797e+000,3.3107426134e+000,3.4288358521e+000,3.5442250955e+000,3.3132714294e+000,3.0264981673e+000,3.4978778596e+000,2.8316562458e+000,4.1097325638e+000,2.5437846623e+000,3.3522694298e+000,3.1021822434e+000,3.3653259344e+000,
2.0156250000e+001,3.6772832772e+000,2.8823965024e+000,3.3698956548e+000,3.4311615397e+000,3.5171952368e+000,3.2649502458e+000,3.0121233854e+000,3.4354334106e+000,2.8963835395e+000,4.1825634771e+000,2.5658779420e+000,3.2414665254e+000,3.1813554773e+000,3.4246570681e+000,
2.0250000000e+001,3.4629222160e+000,2.5267698366e+000,3.1487868832e+000,3.2367948394e+000,3.2921521827e+000,3.1663582107e+000,2.8043582599e+000,3.4440847862e+000,2.7216610431e+000,4.1711718285e+000,2.5920594603e+000,3.1317791421e+000,3.1995995110e+000,3.3925625993e+000,
2.0343750000e+001,3.4682481028e+000,2.5224754571e+000,3.1727853459e+000,3.1964694024e+000,3.2483587759e+000,3.1903188406e+000,2.7714166095e+000,3.4430387361e+000,2.7827828718e+000,4.2288369713e+000,2.6361773106e+000,3.1352693722e+000,3.1649766053e+000,3.4061942045e+000,
2.0437500000e+001,3.4820472652e+000,2.4843518113e+000,3.1742185999e+000,3.2541433330e+000,3.1963977587e+000,3.1888417476e+000,2.7496264993e+000,3.4230738222e+000,2.6677226476e+000,4.2040721662e+000,2.6044586473e+000,3.2737826002e+000,3.0080541538e+000,3.3414100189e+000,
2.0531250000e+001,3.5702873906e+000,2.5512985005e+000,3.2251743917e+000,3.2838737177e+000,3.1647963019e+000,3.3477498784e+000,2.8551239886e+000,3.5341066550e+000,2.6245325940e+000,4.3314890469e+000,2.5671605604e+000,3.4161044583e+000,2.8783532569e+000,3.4059180723e+000,
2.0625000000e+001,3.4942154457e+000,2.5350535748e+000,3.1875970105e+000,3.2864917355e+000,3.0947188736e+000,3.4060962247e+000,2.7905137056e+000,3.5183842852e+000,2.6440923396e+000,4.2352718477e+000,2.4075221448e+000,3.3290837933e+000,2.7852695597e+000,3.3620372430e+000,
2.0718750000e+001,3.5804653599e+000,2.7170450968e+000,3.3832311005e+000,3.4138091729e+000,3.3213437161e+000,3.5326862249e+000,2.9435089357e+000,3.6091355744e+000,2.7650994758e+000,4.2581424340e+000,2.4784688511e+000,3.5135895959e+000,2.8977522371e+000,3.4994542834e+000,
2.0812500000e+001,3.4975041799e+000,2.6318078410e+000,3.2748199637e+000,3.2842384109e+000,3.2793260151e+000,3.5073552180e+000,2.8669125793e+000,3.5293331839e+000,2.7233904968e+000,4.2395621620e+000,2.4343448763e+000,3.5903831343e+000,2.8891171206e+000,3.4029087220e+000,
2.0906250000e+001,3.5386679711e+000,2.7632031178e+000,3.3618552458e+000,3.4065856790e+000,3.2614041615e+000,3.6810146924e+000,2.9648149278e+000,3.8133523988e+000,2.7740492313e+000,4.2552874232e+000,2.4272370131e+000,3.6015351469e+000,2.8603492656e+000,3.4103192425e+000,
2.1000000000e+001,3.5782194155e+000,2.6941724946e+000,3.3567300890e+000,3.3186723771e+000,3.2449241699e+000,3.6414001954e+000,2.9525274215e+000,3.7990151663e+000,2.8096807243e+000,4.2883167479e+000,2.4236692034e+000,3.5924827361e+000,2.8239368777e+000,3.4016592455e+000,
2.1093750000e+001,3.6448280801e+000,2.7991532277e+000,3.3608327838e+000,3.3229992096e+000,3.2202947373e+000,3.6588551889e+000,3.0125216389e+000,3.8961722004e+000,2.6437914060e+000,4.3028684509e+000,2.2775427692e+000,3.5844847848e+000,2.6370463046e+000,3.3432440924e+000,
2.1187500000e+001,3.6207701857e+000,2.8297705520e+000,3.4089910782e+000,3.3208779881e+000,3.3361525721e+000,3.7303963320e+000,3.0759969567e+000,4.0197907320e+000,2.8108580876e+000,4.2857520256e+000,2.3001368910e+000,3.6074216080e+000,2.6296430831e+000,3.2344831460e+000,
2.1281250000e+001,3.6385960874e+000,2.7779117496e+000,3.4483721080e+000,3.3196957416e+000,3.3845356557e+000,3.7554514250e+000,3.1029950344e+000,4.0111016515e+000,2.8262798021e+000,4.2703904809e+000,2.2802670724e+000,3.6637416757e+000,2.7565676471e+000,3.3596318549e+000,
2.1375000000e+001,3.6229478278e+000,2.9064289039e+000,3.4252235284e+000,3.3165625250e+000,3.5726784009e+000,3.7598079836e+000,3.1223704192e+000,4.0628544839e+000,2.7754500700e+000,4.2490691616e+000,2.2001664146e+000,3.7193047263e+000,2.8575499418e+000,3.3252298794e+000,
2.1468750000e+001,3.5932604053e+000,2.8645985236e+000,3.3614604504e+000,3.2256037297e+000,3.6176778234e+000,3.6998298281e+000,3.0628527720e+000,4.1196620092e+000,2.9084397836e+000,4.1476837023e+000,2.2320631117e+000,3.6537008277e+000,2.9522148136e+000,3.2695672123e+000,
2.1562500000e+001,3.6092730792e+000,2.8917676125e+000,3.4139207125e+000,3.3346514126e+000,3.6780008941e+000,3.7162652787e+000,3.0168683412e+000,4.1048487315e+000,3.0178605871e+000,4.1631585713e+000,2.3107339668e+000,3.7111387301e+000,3.0171758735e+000,3.2598232088e+000,
2.1656250000e+001,3.6942054998e+000,2.9281646770e+000,3.4657419136e+000,3.3518196052e+000,3.7250249371e+000,3.6697727009e+000,2.9995532130e+000,4.1742674456e+000,3.0507379166e+000,4.1464469840e+000,2.2064603377e+000,3.8426694777e+000,3.0967190122e+000,3.4886805908e+000,
2.1750000000e+001,3.6659137131e+000,2.8399787316e+000,3.2707086427e+000,3.3064573371e+000,3.5694443062e+000,3.6131180066e+000,2.8598770054e+000,4.1049007539e+000,2.9632437833e+000,4.1577879466e+000,2.1800161804e+000,3.8472113853e+000,3.1812946238e+000,3.3424688447e+000,
2.1843750000e+001,3.7255703129e+000,2.7918024850e+000,3.2972848267e+000,3.2872997272e+000,3.6194944292e+000,3.6207835867e+000,2.8569698348e+000,4.0804327061e+000,3.0665556844e+000,4.1586692564e+000,2.1996537134e+000,3.8187574940e+000,3.1717803091e+000,3.3491744210e+000,
2.1937500000e+001,3.6279411900e+000,2.7215702693e+000,3.1826679919e+000,3.2183469553e+000,3.6239595401e+000,3.5702934937e+000,2.7269348011e+000,3.9531027605e+000,3.0495264159e+000,4.1530110366e+000,2.1230148610e+000,3.9085408551e+000,3.1191701736e+000,3.3111986746e+000,
2.2031250000e+001,3.6823247658e+000,2.8184313162e+000,3.2170581898e+000,3.3102579316e+000,3.6713349875e+000,3.7137378848e+000,2.7451389950e+000,4.0083085911e+000,3.0431451592e+000,4.2007065018e+000,2.3076203964e+000,3.8664783149e+000,3.1656603373e+000,3.3592313348e+000,
2.2125000000e+001,3.6023240347e+000,2.7539099986e+000,3.1720640484e+000,3.2781451218e+000,3.6568473038e+000,3.7177749253e+000,2.6785898742e+000,3.9349408001e+000,3.0218908923e+000,4.1702032704e+000,2.3756954243e+000,3.8294756509e+000,3.2438782055e+000,3.4012279201e+000,
2.2218750000e+001,3.5981486036e+000,2.7761773102e+000,3.1242710055e+000,3.2828228248e+000,3.6171938021e+000,3.6873519134e+000,2.7100289287e+000,3.8610329532e+000,3.0092237216e+000,4.1031852067e+000,2.4801769441e+000,3.8235876539e+000,3.2385064332e+000,3.3746168912e+000,
2.2312500000e+001,3.5330319916e+000,2.7033041877e+000,3.1015340573e+000,3.2197140190e+000,3.5473031956e+000,3.6084387662e+000,2.6535900007e+000,3.8368398998e+000,3.0074626214e+000,4.1034029116e+000,2.5062729512e+000,3.7586290843e+000,3.1506404020e+000,3.2942857157e+000,
2.2406250000e+001,3.6304438081e+000,2.7790536658e+000,3.1839494454e+000,3.2422323682e+000,3.3829648880e+000,3.5117414469e+000,2.5983133930e+000,3.6714145137e+000,3.0479330835e+000,4.1333400116e+000,2.5726115198e+000,3.7940680271e+000,3.1100277036e+000,3.3108926556e+000,
2.2500000000e+001,3.6794438304e+000,2.7951609609e+000,3.2692698103e+000,3.3159687016e+000,3.3090178115e+000,3.5280722084e+000,2.6912654869e+000,3.6910509372e+000,3.0327007606e+000,4.2505411473e+000,2.6351240370e+000,3.8594260709e+000,3.1983743088e+000,3.3631159100e+000,
2.2593750000e+001,3.7058863348e+000,2.8784795988e+000,3.2898702891e+000,3.3728735053e+000,3.3888248529e+000,3.5707549334e+000,2.9308117742e+000,3.7195377177e+000,3.1320634222e+000,4.3330815664e+000,2.6382870672e+000,3.8624648415e+000,3.1832699960e+000,3.3216907750e+000,
2.2687500000e+001,3.6108008922e+000,2.8751733754e+000,3.2673554726e+000,3.3845661402e+000,3.3451416493e+000,3.5635841162e+000,2.9711180758e+000,3.7385744193e+000,3.1138673264e+000,4.3359648499e+000,2.6313217674e+000,3.8508700544e+000,2.9853788290e+000,3.0126169838e+000,
2.2781250000e+001,3.5861264206e+000,2.9243969779e+000,3.3087982327e+000,3.4267136673e+000,3.3157269086e+000,3.5721800049e+000,3.0357008848e+000,3.8319206817e+000,3.0920335264e+000,4.3498553062e+000,2.6254115237e+000,3.9139394363e+000,2.8688809530e+000,3.0424133997e+000,
2.2875000000e+001,3.6602148180e+000,2.8898038205e+000,3.3108640643e+000,3.4718365378e+000,3.3693373033e+000,3.4752116640e+000,3.0773582514e+000,3.8799413133e+000,3.0843268273e+000,4.4103333255e+000,2.5923359561e+000,3.9233861565e+000,2.8729415007e+000,3.1560416023e+000,
2.2968750000e+001,3.6508125491e+000,2.8501306990e+000,3.3175653765e+000,3.4165773722e+000,3.3390600288e+000,3.4667639114e+000,3.0578081046e+000,3.8465944451e+000,3.0867357062e+000,4.4098816576e+000,2.5383952690e+000,3.9020984906e+000,2.9097964621e+000,3.2036387014e+000,
2.3062500000e+001,3.6351638197e+000,2.8132364764e+000,3.2895053049e+000,3.3340874201e+000,3.3651748261e+000,3.2863536565e+000,3.0426971826e+000,3.7586613558e+000,3.1148153785e+000,4.3781992999e+000,2.4255925580e+000,3.9597323170e+000,2.8468258321e+000,3.1701984240e+000,
2.3156250000e+001,3.7168112823e+000,2.7858106712e+000,3.3776116872e+000,3.4034102798e+000,3.4564938574e+000,3.2609236858e+000,3.1131930466e+000,3.8300130568e+000,3.1872282871e+000,4.4301387363e+000,2.6212912371e+000,4.0171445882e+000,2.9154125255e+000,3.2330621703e+000,
2.3250000000e+001,3.7481173371e+000,2.7854117958e+000,3.4115759922e+000,3.4996582474e+000,3.4271968286e+000,3.3025640883e+000,3.0553634482e+000,3.8618153487e+000,3.1620850155e+000,4.4471067292e+000,2.6340040578e+000,4.1036618730e+000,2.9239290066e+000,3.2606508315e+000,
2.3343750000e+001,3.6303088041e+000,2.7067393524e+000,3.3322866326e+000,3.4421105527e+000,3.3425956559e+000,3.3373996570e+000,3.0451729913e+000,3.9000014635e+000,3.1790395727e+000,4.5435400422e+000,2.6643195206e+000,4.1357269128e+000,2.9634158084e+000,3.3238438534e+000,
2.3437500000e+001,3.6373337090e+000,2.7102983759e+000,3.3574681241e+000,3.4826208074e+000,3.3911799114e+000,3.3471533506e+000,3.0412704984e+000,3.8706485818e+000,3.2344031832e+000,4.5705916066e+000,2.5805156762e+000,4.1039436818e+000,2.9562887859e+000,3.2299482690e+000,
2.3531250000e+001,3.6220869595e+000,2.6957126484e+000,3.2812085188e+000,3.4435979992e+000,3.3810072975e+000,3.3900558602e+000,2.8706423332e+000,3.8631405259e+000,3.1531384466e+000,4.5583494524e+000,2.4912019821e+000,4.0645025592e+000,2.9625270225e+000,3.1401693577e+000,
2.3625000000e+001,3.5536913987e+000,2.5398039626e+000,3.2535759530e+000,3.3883698378e+000,3.2476441746e+000,3.3012717193e+000,2.6678147619e+000,3.7213621180e+000,2.9851299359e+000,4.5435142409e+000,2.4680561579e+000,4.0475573168e+000,3.0451919863e+000,3.2326015175e+000,
2.3718750000e+001,3.5565208380e+000,2.5159249674e+000,3.2722767302e+000,3.3206661077e+000,3.2654781235e+000,3.2476764749e+000,2.6570071014e+000,3.6369814381e+000,2.9886739762e+000,4.4916244946e+000,2.4859238532e+000,3.8986454155e+000,3.0467577968e+000,3.1798071454e+000,
2.3812500000e+001,3.4788999857e+000,2.4868222428e+000,3.2589891976e+000,3.2442822109e+000,3.2423917148e+000,3.2295618338e+000,2.6206293028e+000,3.6189023461e+000,2.9107250323e+000,4.3482715704e+000,2.5436561989e+000,3.7751466687e+000,3.1504438277e+000,3.1549716624e+000,
2.3906250000e+001,3.4054432141e+000,2.4921125948e+000,3.2490574725e+000,3.2686577179e+000,3.1643057445e+000,3.2348722390e+000,2.6908595483e+000,3.5581238680e+000,2.8488692683e+000,4.4469523610e+000,2.5895280114e+000,3.7566477840e+000,3.2264843982e+000,3.1737488154e+000,
2.4000000000e+001,3.3342144466e+000,2.5290083855e+000,3.2209934598e+000,3.2688389810e+000,3.1946068382e+000,3.2138807394e+000,2.6572897434e+000,3.6374091341e+000,2.8398597644e+000,4.4996469927e+000,2.6074132943e+000,3.7311161396e+000,3.2634580495e+000,3.2349215029e+000,
2.4093750000e+001,3.3079018093e+000,2.4371803219e+000,3.1984037674e+000,3.2283948422e+000,3.1653736810e+000,3.1724673724e+000,2.5228949171e+000,3.6926992157e+000,2.7311747914e+000,4.4217921727e+000,2.5669500368e+000,3.7472208611e+000,3.2660382827e+000,3.1623239333e+000,
2.4187500000e+001,3.3113247736e+000,2.4553906342e+000,3.2688540883e+000,3.2104471746e+000,3.0540556062e+000,3.1166389528e+000,2.5698432091e+000,3.6154734409e+000,2.7217333291e+000,4.4217613890e+000,2.5985106571e+000,3.6546121559e+000,3.3190955932e+000,3.1589645037e+000,
2.4281250000e+001,3.2416040197e+000,2.6268505047e+000,3.1774690753e+000,3.1819022894e+000,3.2178912536e+000,3.1758467187e+000,2.5929804315e+000,3.6907296665e+000,2.6472148290e+000,4.3829591191e+000,2.5558713223e+000,3.5031983527e+000,3.3151192980e+000,3.1776318505e+000,
2.4375000000e+001,3.2793696890e+000,2.6682261576e+000,3.2822498049e+000,3.1984130404e+000,3.3003689758e+000,3.2196427374e+000,2.8165101915e+000,3.6334845523e+000,2.7123375000e+000,4.4259492947e+000,2.5360144920e+000,3.5723728192e+000,3.2760751263e+000,3.1517377338e+000,
2.4468750000e+001,3.1709348808e+000,2.5705714997e+000,3.1796831648e+000,3.0491350960e+000,3.1771923412e+000,3.1984800382e+000,2.7694177323e+000,3.5844236743e+000,2.5780670669e+000,4.3345888306e+000,2.5519519679e+000,3.7155666062e+000,3.2089169974e+000,3.2217798550e+000,
2.4562500000e+001,3.0322569707e+000,2.4908416502e+000,3.1213966283e+000,2.9418910851e+000,3.2623297036e+000,3.1698480102e+000,2.7758390174e+000,3.5714853068e+000,2.6316391935e+000,4.2277266428e+000,2.5348830265e+000,3.6241917132e+000,3.1073386448e+000,3.2190226081e+000,
2.4656250000e+001,3.0567750160e+000,2.5730608136e+000,3.0928824974e+000,2.8172589602e+000,3.3014035742e+000,3.0382909761e+000,2.7438601075e+000,3.6095737211e+000,2.6899741481e+000,4.2575411102e+000,2.5423888143e+000,3.6113155623e+000,3.0322222996e+000,3.2331627732e+000,
2.4750000000e+001,3.0807625784e+000,2.5555828267e+000,3.0960831170e+000,2.9287361632e+000,3.2057542976e+000,3.0651665113e+000,2.6564376035e+000,3.6422263506e+000,2.6489165262e+000,4.3194791049e+000,2.5721930502e+000,3.6528117161e+000,2.9972245590e+000,3.2054213710e+000,
2.4843750000e+001,3.0178187130e+000,2.6200105624e+000,3.0087309166e+000,2.9176029111e+000,3.2601692618e+000,3.0960040454e+000,2.6758275615e+000,3.6883195077e+000,2.6858220274e+000,4.3544031484e+000,2.6197999735e+000,3.6763950400e+000,2.9337149220e+000,3.2398643721e+000,
2.4937500000e+001,3.0520698770e+000,2.6972098630e+000,3.0394039011e+000,2.9887976109e+000,3.2824540492e+000,3.2581262624e+000,2.6195507715e+000,3.7196474711e+000,2.7905952375e+000,4.3274328773e+000,2.6765399542e+000,3.7271006831e+000,2.8866639580e+000,3.1970446122e+000,
2.5031250000e+001,3.2193619317e+000,2.8096358385e+000,3.1957132396e+000,3.1866634311e+000,3.3368649361e+000,3.3045307602e+000,2.6851516186e+000,3.6998514080e+000,2.8899185181e+000,4.3795612012e+000,2.6243911227e+000,3.7951196746e+000,2.9122274667e+000,3.1568190122e+000,
2.5125000000e+001,3.1869840983e+000,2.8288192978e+000,3.1418856831e+000,3.1114642718e+000,3.3469416994e+000,3.2790162882e+000,2.6944311787e+000,3.6272228801e+000,2.8966374661e+000,4.3202636606e+000,2.5533499100e+000,3.7886834327e+000,2.8304749202e+000,3.2338477174e+000,
2.5218750000e+001,3.2482237369e+000,2.8639187543e+000,3.1430499361e+000,3.0646713535e+000,3.4301456969e+000,3.3465518101e+000,2.8169157392e+000,3.7259471900e+000,2.9913066470e+000,4.2170679795e+000,2.5097894823e+000,3.7981373838e+000,2.6587649410e+000,3.1779192258e+000,
2.5312500000e+001,3.2260408673e+000,2.7492311365e+000,3.1467170040e+000,3.0403438751e+000,3.4038244726e+000,3.2592597011e+000,2.8530588079e+000,3.6795198857e+000,2.9763993258e+000,4.1236904586e+000,2.4965849480e+000,3.7508414645e+000,2.6901541742e+000,3.0594164266e+000,
2.5406250000e+001,3.1858104705e+000,2.8336955567e+000,3.1143768956e+000,3.1270033696e+000,3.3951548523e+000,3.2609882150e+000,2.8247743608e+000,3.7224795156e+000,2.9287034936e+000,4.0722698539e+000,2.5379786692e+000,3.6855756848e+000,2.7393137308e+000,3.0704543694e+000,
2.5500000000e+001,3.1888730799e+000,2.9611095980e+000,3.1674539175e+000,3.1806122309e+000,3.4176764657e+000,3.3080259467e+000,2.8168981593e+000,3.7600251736e+000,2.9298098897e+000,4.0949677338e+000,2.5237247156e+000,3.5537054250e+000,2.6882513271e+000,2.9892301640e+000,
2.5593750000e+001,3.3163482666e+000,2.9805677472e+000,3.1989570496e+000,3.2823558094e+000,3.3973230195e+000,3.3429984026e+000,2.8982691542e+000,3.8180994280e+000,2.9297798881e+000,4.1462254257e+000,2.5880312555e+000,3.5433121518e+000,2.7542915279e+000,3.0344355813e+000,
2.5687500000e+001,3.3439593637e+000,3.0082060528e+000,3.1454224184e+000,3.3543717809e+000,3.4464686179e+000,3.4148969530e+000,2.9463050259e+000,3.8231470150e+000,2.9029950965e+000,4.1391609796e+000,2.5986181009e+000,3.5142112269e+000,2.8560425903e+000,3.0609722913e+000,
2.5781250000e+001,3.4792255133e+000,3.0462539605e+000,3.1966246114e+000,3.4116228060e+000,3.4853996678e+000,3.4882271622e+000,2.9697150164e+000,3.8850405086e+000,2.9299446405e+000,4.1285298971e+000,2.4461775409e+000,3.5256220463e+000,3.0382052705e+000,3.1899785015e+000,
2.5875000000e+001,3.8180804118e+000,3.2538068942e+000,3.5128732913e+000,3.7442633894e+000,3.6684045653e+000,3.7038394397e+000,3.2421323496e+000,4.0286828006e+000,3.0817838247e+000,4.4923191099e+000,2.5973629884e+000,3.5402243318e+000,3.4859415491e+000,3.2415978837e+000,
2.5968750000e+001,4.1416570637e+000,3.5434687966e+000,3.8395963095e+000,4.0119982182e+000,3.7781463604e+000,3.9848916286e+000,3.3402320523e+000,4.2659630778e+000,3.1834577453e+000,4.5432093794e+000,3.0111875034e+000,3.6361885301e+000,3.7959991509e+000,3.4388006438e+000,
2.6062500000e+001,4.3135549705e+000,3.6840253973e+000,4.0703708237e+000,4.1864476048e+000,3.9858731173e+000,4.1080616099e+000,3.4577755258e+000,4.4091705924e+000,3.2576672285e+000,4.6060210970e+000,3.2253746852e+000,3.6986520004e+000,3.9316686660e+000,3.5463131069e+000,
2.6156250000e+001,4.4178415479e+000,3.7507877855e+000,4.2115997221e+000,4.3347534953e+000,4.0471613186e+000,4.2253134645e+000,3.5389128602e+000,4.5416560391e+000,3.3146803519e+000,4.7252225056e+000,3.2315641251e+000,3.7043791322e+000,4.0540887793e+000,3.5129771975e+000,
2.6250000000e+001,4.4899750224e+000,3.8480031673e+000,4.2688539647e+000,4.3881575185e+000,4.0984555898e+000,4.2350981719e+000,3.4655624843e+000,4.5292926495e+000,3.3112699387e+000,4.7668295497e+000,3.2081263074e+000,3.7170256196e+000,4.1674263778e+000,3.5643857148e+000,
2.6343750000e+001,4.5217494473e+000,3.9142682640e+000,4.2892454617e+000,4.4147506406e+000,4.0837034945e+000,4.2772792307e+000,3.4680548251e+000,4.5749050977e+000,3.2961642251e+000,4.7822556675e+000,3.2249043654e+000,3.8467662830e+000,4.2431077861e+000,3.5837728642e+000,
2.6437500000e+001,4.5206484202e+000,3.8931634265e+000,4.2804821971e+000,4.4227535792e+000,4.0415479513e+000,4.2659880365e+000,3.4733890138e+000,4.5562136098e+000,3.3057967624e+000,4.8193833268e+000,3.2540779081e+000,3.8012043693e+000,4.2743326017e+000,3.6095926597e+000,
2.6531250000e+001,4.5198474146e+000,3.8668350645e+000,4.2842583993e+000,4.4242822457e+000,4.0740362257e+000,4.2446273529e+000,3.4677120203e+000,4.5262326513e+000,3.3479836676e+000,4.8035310673e+000,3.2277149770e+000,3.7732045485e+000,4.2775387737e+000,3.5799139111e+000,
2.6625000000e+001,4.5189006986e+000,3.8624354037e+000,4.2886623346e+000,4.4343455443e+000,4.0828351354e+000,4.2657419549e+000,3.3998689833e+000,4.5261954100e+000,3.3415648788e+000,4.8049494956e+000,3.2709106902e+000,3.8062748543e+000,4.2960458461e+000,3.5854277100e+000,
2.6718750000e+001,4.5404405144e+000,3.9034546141e+000,4.3297291265e+000,4.4292542341e+000,4.0767644124e+000,4.2551741974e+000,3.4354657570e+000,4.5023859982e+000,3.3226907603e+000,4.8084544515e+000,3.3063233939e+000,3.7776987350e+000,4.2639748732e+000,3.5233214205e+000,
2.6812500000e+001,4.5172327551e+000,3.9069310656e+000,4.3354954621e+000,4.4239189980e+000,4.0549984307e+000,4.2352728604e+000,3.4528146083e+000,4.5020834346e+000,3.3239024985e+000,4.8091550128e+000,3.3513699923e+000,3.8686803986e+000,4.2171364211e+000,3.5203990280e+000,
2.6906250000e+001,4.3214596785e+000,3.7929551577e+000,4.1292990695e+000,4.2494369652e+000,3.8853282852e+000,4.0442938241e+000,3.1970794231e+000,4.3483609036e+000,3.1781823048e+000,4.4946924370e+000,3.2333975156e+000,3.7502449795e+000,3.9839358202e+000,3.3534892540e+000,
2.7000000000e+001,3.9976909518e+000,3.4753347115e+000,3.8705340432e+000,3.9095576551e+000,3.6749101505e+000,3.7611285609e+000,3.0272798951e+000,4.0889975176e+000,3.0047371826e+000,4.3504442629e+000,2.8917306147e+000,3.6086778984e+000,3.7899344113e+000,3.0675032714e+000,
2.7093750000e+001,3.8272923896e+000,3.3381158746e+000,3.6029932149e+000,3.6389575524e+000,3.5610395843e+000,3.6188077120e+000,2.9183148457e+000,3.9711518543e+000,2.9185626219e+000,4.1525507445e+000,2.7218428083e+000,3.5967861066e+000,3.5869226476e+000,2.9148125604e+000,
2.7187500000e+001,3.6807659209e+000,3.2900029051e+000,3.4594359580e+000,3.5960134958e+000,3.4698402516e+000,3.5016301255e+000,2.8921902855e+000,3.8974740864e+000,2.7672868068e+000,4.0608263624e+000,2.7501286174e+000,3.5575365547e+000,3.4820758137e+000,2.8902749667e+000,
2.7281250000e+001,3.5030940402e+000,3.1749380529e+000,3.2853606352e+000,3.5157938547e+000,3.3704412704e+000,3.3843293266e+000,2.8463126090e+000,3.8981067316e+000,2.6216033634e+000,4.0674133037e+000,2.6728362100e+000,3.4369048083e+000,3.0900165610e+000,2.8540030021e+000,
2.7375000000e+001,3.4218400855e+000,3.0192689626e+000,3.2873109636e+000,3.4195835720e+000,3.3244737666e+000,3.3001737295e+000,2.8037721950e+000,3.8578150275e+000,2.6261503531e+000,4.0260976910e+000,2.6307674231e+000,3.4787360853e+000,2.9138137037e+000,2.9446821591e+000,
2.7468750000e+001,3.4528894601e+000,3.0577521917e+000,3.3428592484e+000,3.4415513664e+000,3.4234131881e+000,3.3954269260e+000,2.7581257583e+000,3.9134311545e+000,2.5974946775e+000,3.9950476864e+000,2.6407066871e+000,3.5503625322e+000,2.8797103840e+000,3.0233724095e+000,
2.7562500000e+001,3.4298908359e+000,2.9947410141e+000,3.2658375986e+000,3.3276798950e+000,3.3207561499e+000,3.2369733401e+000,2.8002962231e+000,3.8691663663e+000,2.3739608291e+000,4.0003404787e+000,2.6307812531e+000,3.6024174841e+000,2.8734638930e+000,3.0518836721e+000,
2.7656250000e+001,3.3741959000e+000,2.9653660897e+000,3.3241330872e+000,3.3186791102e+000,3.4115863741e+000,3.2690711129e+000,2.7995170256e+000,3.8830415334e+000,2.4062128343e+000,3.9746429146e+000,2.5835189262e+000,3.6182049274e+000,2.7681386700e+000,3.0893342720e+000,
2.7750000000e+001,3.2884699551e+000,2.7636869526e+000,3.2078248912e+000,3.1605316396e+000,3.4617170513e+000,3.2298447887e+000,2.8417789673e+000,3.8508673931e+000,2.5050529209e+000,3.9296415199e+000,2.5028662073e+000,3.6354161232e+000,2.6452042684e+000,3.0448626345e+000,
2.7843750000e+001,3.3714441987e+000,2.9653905536e+000,3.3543270345e+000,3.4026089043e+000,3.6105751999e+000,3.3406338886e+000,2.9703911914e+000,3.9465101124e+000,2.6594208157e+000,4.0834226173e+000,2.4631643207e+000,3.5385483522e+000,2.6091555483e+000,3.0106178464e+000,
2.7937500000e+001,3.4509140630e+000,2.9706221880e+000,3.3540676064e+000,3.4611203313e+000,3.7156166430e+000,3.4054765333e+000,2.8889351124e+000,3.9660234116e+000,2.6643942087e+000,4.1903466167e+000,2.4670215696e+000,3.6741950271e+000,2.8608645810e+000,3.0252372307e+000,
2.8031250000e+001,3.4957338266e+000,3.0315782193e+000,3.3036036567e+000,3.5527018962e+000,3.7283995249e+000,3.4136469632e+000,2.9184574571e+000,3.9717097029e+000,2.6633179528e+000,4.1957185600e+000,2.4218262114e+000,3.6795105405e+000,2.8447376115e+000,3.0965020115e+000,
2.8125000000e+001,3.4736843815e+000,2.9140574719e+000,3.2789807674e+000,3.4779481814e+000,3.6658359195e+000,3.3260162017e+000,2.8721407411e+000,3.8509046425e+000,2.6588556224e+000,4.1480570558e+000,2.3733173819e+000,3.6229412008e+000,2.8866766943e+000,3.1446146932e+000,
2.8218750000e+001,3.3984395763e+000,2.8258202284e+000,3.2125091941e+000,3.4237202231e+000,3.6307487237e+000,3.3096624629e+000,2.8929155057e+000,3.8069304876e+000,2.7379650474e+000,4.0774963684e+000,2.3252506110e+000,3.6533784249e+000,2.8228706777e+000,3.0983695442e+000,
2.8312500000e+001,3.3854873509e+000,2.8476331363e+000,3.1567742982e+000,3.4284796617e+000,3.7385678365e+000,3.4428268987e+000,2.9878155851e+000,3.8583343604e+000,2.7936994612e+000,4.0258388154e+000,2.3452773175e+000,3.5820762543e+000,2.8302380342e+000,3.1318700841e+000,
2.8406250000e+001,3.3852029096e+000,2.8070560600e+000,3.1285080707e+000,3.4076150578e+000,3.7148902213e+000,3.4021046474e+000,2.9851075464e+000,3.8202581622e+000,2.7986097228e+000,3.9540473857e+000,2.4517634783e+000,3.5211009396e+000,2.9352806480e+000,3.1502957178e+000,
2.8500000000e+001,3.3553829067e+000,2.8798300612e+000,3.2651999135e+000,3.5931315936e+000,3.7219877017e+000,3.4822945249e+000,3.0302324234e+000,3.9285076906e+000,2.8304212828e+000,3.9733713175e+000,2.3951674372e+000,3.5610090929e+000,2.9209403517e+000,3.1624889673e+000,
2.8593750000e+001,3.5145109582e+000,2.9823564341e+000,3.3793308459e+000,3.6932971865e+000,3.6869602800e+000,3.6285312997e+000,3.0971838600e+000,3.9348903946e+000,2.9607143970e+000,4.0587036884e+000,2.5070978580e+000,3.5379387190e+000,2.9483376475e+000,3.0993817622e+000,
2.8687500000e+001,3.5093076802e+000,3.1074605377e+000,3.3318507237e+000,3.6582457418e+000,3.7239877361e+000,3.6543475769e+000,3.1310583093e+000,3.9101297094e+000,2.9864818468e+000,4.1086916474e+000,2.4696197661e+000,3.5161325270e+000,2.9951189201e+000,3.1184097696e+000,
2.8781250000e+001,3.6873358681e+000,3.1180790544e+000,3.4952984340e+000,3.7444207035e+000,3.8955842696e+000,3.7420639648e+000,3.2943692127e+000,3.8657128000e+000,3.1231562365e+000,4.2580673496e+000,2.5935079585e+000,3.6210140968e+000,3.1188541738e+000,3.4011544267e+000,
2.8875000000e+001,3.6549560405e+000,3.0229357561e+000,3.4005207141e+000,3.6311933634e+000,3.8906299139e+000,3.7325025412e+000,3.2546298119e+000,3.8276638589e+000,3.0415122714e+000,4.1364453153e+000,2.6088351133e+000,3.6022368564e+000,3.0335932365e+000,3.4667206607e+000,
2.8968750000e+001,3.6562458773e+000,2.9420672136e+000,3.4071535828e+000,3.5548937355e+000,3.8079476751e+000,3.6702884540e+000,3.2862309938e+000,3.7421960062e+000,3.0827575010e+000,4.0717889557e+000,2.6234902666e+000,3.6080714943e+000,3.0935824944e+000,3.5050855759e+000,
2.9062500000e+001,3.7285640480e+000,3.0289789050e+000,3.5705755168e+000,3.6458163448e+000,3.8576161796e+000,3.6754604918e+000,3.2679190607e+000,3.7642606992e+000,3.1465196412e+000,4.1608678532e+000,2.6983568095e+000,3.6400784304e+000,3.1381380471e+000,3.4728152636e+000,
2.9156250000e+001,3.8379244892e+000,3.0689964093e+000,3.6089608042e+000,3.6606004094e+000,3.8999362559e+000,3.6897212355e+000,3.3097714500e+000,3.7486659708e+000,3.2238300293e+000,4.3243739722e+000,2.6607037545e+000,3.5587596598e+000,3.0659316557e+000,3.4252332591e+000,
2.9250000000e+001,3.8583526178e+000,3.0368175381e+000,3.6030816542e+000,3.7139476992e+000,3.8743901756e+000,3.7167035430e+000,3.3509896732e+000,3.7980684248e+000,3.1935936326e+000,4.4746955230e+000,2.7157448793e+000,3.6318589544e+000,3.0670438583e+000,3.4852087288e+000,
2.9343750000e+001,3.9315451387e+000,3.0462158162e+000,3.6636438547e+000,3.7190160708e+000,3.8083370541e+000,3.7911473318e+000,3.3761711029e+000,3.7818259520e+000,3.1948556955e+000,4.5064724111e+000,2.7102028567e+000,3.7031481295e+000,3.0292239805e+000,3.3122795017e+000,
2.9437500000e+001,3.9406727882e+000,3.0365882130e+000,3.6621063251e+000,3.7647221096e+000,3.8815895339e+000,3.8316613246e+000,3.4535958342e+000,3.8119103044e+000,3.2434235235e+000,4.5325299002e+000,2.6525631717e+000,3.7321173000e+000,3.0185179295e+000,3.2806532249e+000,
2.9531250000e+001,3.9106570742e+000,2.8678395734e+000,3.5608165066e+000,3.6347965999e+000,3.9073474737e+000,3.7699811530e+000,3.3936460491e+000,3.7278359466e+000,3.2064769821e+000,4.7052899929e+000,2.7117082012e+000,3.8225423715e+000,3.0733799064e+000,3.4509482870e+000,
2.9625000000e+001,3.8623261976e+000,2.7378895914e+000,3.5165395130e+000,3.6123371553e+000,3.8847139448e+000,3.7439842762e+000,3.3779891115e+000,3.8104665337e+000,3.1864619227e+000,4.7269081420e+000,2.6374446307e+000,3.8643535447e+000,3.0783579389e+000,3.4162430983e+000,
2.9718750000e+001,3.7965575998e+000,2.5935665145e+000,3.4360596714e+000,3.5123000109e+000,3.7518011201e+000,3.6244656735e+000,3.3570809309e+000,3.8173119698e+000,3.0593530364e+000,4.6153627766e+000,2.4701154151e+000,3.8080342025e+000,2.8957555181e+000,3.2804787286e+000,
2.9812500000e+001,3.6737314871e+000,2.5493463124e+000,3.3593149233e+000,3.5146200488e+000,3.5722195121e+000,3.6156095454e+000,3.2328713121e+000,3.8147293497e+000,2.9434570484e+000,4.6021158046e+000,2.3452311158e+000,3.7026908985e+000,2.7667412040e+000,3.1371778637e+000,
2.9906250000e+001,3.6656570182e+000,2.6259813011e+000,3.4032407017e+000,3.5935550443e+000,3.5328135270e+000,3.6233511761e+000,3.2082436078e+000,3.8485050065e+000,2.9286465887e+000,4.6667894150e+000,2.2489276151e+000,3.7127377133e+000,2.7345908311e+000,3.1034567979e+000,
3.0000000000e+001,3.6661122950e+000,2.7474761015e+000,3.3789562637e+000,3.5789781669e+000,3.4775623455e+000,3.6917036079e+000,3.2346004800e+000,3.8974377315e+000,2.8537273702e+000,4.6695667131e+000,2.2150294590e+000,3.7332823094e+000,2.7286172930e+000,3.0879204447e+000,
3.0093750000e+001,3.6437299355e+000,2.7310598609e+000,3.2873608840e+000,3.5083700555e+000,3.4570921806e+000,3.7848032842e+000,3.2459261968e+000,4.0305402930e+000,2.8488634441e+000,4.6439796174e+000,2.2538389609e+000,3.7354507299e+000,2.7853332089e+000,3.1258062214e+000,
3.0187500000e+001,3.5843030180e+000,2.7477525538e+000,3.2812702318e+000,3.5588431249e+000,3.6662196487e+000,3.8386200409e+000,3.1592093072e+000,4.0634476559e+000,2.9073260978e+000,4.5957131094e+000,2.3278927384e+000,3.8005067858e+000,2.8681528231e+000,3.1775906456e+000,
3.0281250000e+001,3.5846026857e+000,2.7285542683e+000,3.3575175491e+000,3.5195093526e+000,3.6855948967e+000,3.7839577385e+000,3.0480233273e+000,4.0771233102e+000,2.8054745774e+000,4.4593208491e+000,2.3214327255e+000,3.8257812232e+000,2.8995359880e+000,3.1517895239e+000,
3.0375000000e+001,3.5324548527e+000,2.7308143859e+000,3.3042276599e+000,3.4952843860e+000,3.7161972446e+000,3.7317023725e+000,2.9407141957e+000,4.0905508777e+000,2.8567123385e+000,4.4489471428e+000,2.2545332085e+000,3.7879533610e+000,2.9075798989e+000,3.1909534823e+000,
3.0468750000e+001,3.5389509207e+000,2.7693258312e+000,3.2699891690e+000,3.3926805661e+000,3.6752530866e+000,3.7718400028e+000,3.0270742965e+000,4.1270492516e+000,2.8687501515e+000,4.3498205340e+000,2.2740846637e+000,3.6999121955e+000,2.8643126078e+000,3.1637575866e+000,
3.0562500000e+001,3.5710895542e+000,2.7915513367e+000,3.2677691805e+000,3.2661605396e+000,3.7233653902e+000,3.6604056841e+000,3.0437636081e+000,4.0128650539e+000,2.8836614437e+000,4.0858330232e+000,2.2378263704e+000,3.6359793836e+000,2.8282454632e+000,3.0032577763e+000,
3.0656250000e+001,3.5718206924e+000,2.8045903866e+000,3.2445391429e+000,3.2656130684e+000,3.7375027600e+000,3.5878551139e+000,3.0932217736e+000,3.9628090072e+000,2.9478623775e+000,4.0471433668e+000,2.3978681584e+000,3.5877842739e+000,2.9882672787e+000,3.0135541940e+000,
3.0750000000e+001,3.5379502744e+000,2.8426007805e+000,3.1907640199e+000,3.3446759530e+000,3.6604937970e+000,3.5429900943e+000,2.9989626996e+000,3.8977266059e+000,2.9233179940e+000,4.0301017543e+000,2.5042876336e+000,3.5912467538e+000,3.0925037514e+000,2.9318713476e+000,
3.0843750000e+001,3.5740117530e+000,2.8715362211e+000,3.1953101589e+000,3.3475690359e+000,3.7412800695e+000,3.5865621224e+000,3.0509648191e+000,3.9438576363e+000,2.9703386884e+000,3.8093529312e+000,2.5596676290e+000,3.5394279925e+000,3.1844084027e+000,2.9811366576e+000,
3.0937500000e+001,3.5572351373e+000,2.8271074193e+000,3.1635532939e+000,3.2885436902e+000,3.7274758194e+000,3.6561027097e+000,3.0844570339e+000,3.9191549169e+000,3.0078381469e+000,3.8761702219e+000,2.5604723768e+000,3.5226624722e+000,3.2109587103e+000,3.0155979616e+000,
3.1031250000e+001,3.4881452300e+000,2.6997273778e+000,3.2194443409e+000,3.3299761164e+000,3.7898184676e+000,3.5227414348e+000,3.0670743395e+000,3.8663375953e+000,3.0664531234e+000,3.8884780282e+000,2.5661088419e+000,3.4353117486e+000,3.2317724526e+000,3.1164007997e+000,
3.1125000000e+001,3.5195341127e+000,2.6862138973e+000,3.2286586371e+000,3.3520897710e+000,3.8038073913e+000,3.4243623845e+000,3.0736708587e+000,3.7775770745e+000,3.0791108287e+000,3.8930183070e+000,2.6089788551e+000,3.4560986829e+000,3.2234520889e+000,3.1389022147e+000,
3.1218750000e+001,3.5248288992e+000,2.6961415653e+000,3.1964606608e+000,3.3162271004e+000,3.5871298953e+000,3.3601447577e+000,3.1522024426e+000,3.7097215179e+000,3.0754320362e+000,3.8637358691e+000,2.5349295795e+000,3.3621347096e+000,3.1963681289e+000,3.0340030896e+000,
3.1312500000e+001,3.5423684185e+000,2.7368971992e+000,3.2054900025e+000,3.4147411790e+000,3.6358243263e+000,3.5783056156e+000,3.1834682499e+000,3.7085639152e+000,3.0887886968e+000,4.0422051452e+000,2.5231776078e+000,3.4211184849e+000,3.1743367558e+000,3.1614479087e+000,
3.1406250000e+001,3.4986935055e+000,2.7330755307e+000,3.1801633925e+000,3.3673457746e+000,3.6045693812e+000,3.5557243471e+000,3.1051757361e+000,3.7498375718e+000,3.0554155300e+000,4.1120507794e+000,2.6355432615e+000,3.3998912141e+000,3.1613491059e+000,3.1857174365e+000,
3.1500000000e+001,3.5038542190e+000,2.8543726009e+000,3.2035340871e+000,3.4519168749e+000,3.4959237424e+000,3.5716173036e+000,3.0621405604e+000,3.8687711197e+000,2.9596740279e+000,4.1613434226e+000,2.5858156443e+000,3.3596630179e+000,3.1378168161e+000,3.6259107097e+000,
3.1593750000e+001,3.5123029931e+000,2.8238940827e+000,3.2793308003e+000,3.4756744318e+000,3.4105628909e+000,3.6350942225e+000,2.9689224967e+000,3.9050246363e+000,2.9941670681e+000,4.2150741777e+000,2.4613673358e+000,3.3903792338e+000,3.0217004220e+000,3.6401091857e+000,
3.1687500000e+001,3.4922888190e+000,2.8394169110e+000,3.2970838056e+000,3.4977750258e+000,3.4969175891e+000,3.7133936235e+000,2.9433416681e+000,3.9055927024e+000,2.9052849008e+000,4.2298203945e+000,2.3862837902e+000,3.4811613537e+000,2.8566518458e+000,3.6748732135e+000,
3.1781250000e+001,3.5822971212e+000,2.8673857267e+000,3.4648172308e+000,3.5024444005e+000,3.5653508841e+000,3.6998565590e+000,2.9760920802e+000,3.8957405963e+000,2.8770880596e+000,4.2585703252e+000,2.3607096753e+000,3.4081950391e+000,2.8027227905e+000,3.6336406177e+000,
3.1875000000e+001,3.5725857369e+000,2.8522293334e+000,3.5135742408e+000,3.5352177822e+000,3.5109130916e+000,3.6407293330e+000,3.1085762030e+000,3.8526242614e+000,2.9630496902e+000,4.2520218912e+000,2.4802265644e+000,3.5606358078e+000,2.8534247364e+000,3.6883465326e+000,
3.1968750000e+001,3.6190056772e+000,2.8549229584e+000,3.4525564859e+000,3.4903979589e+000,3.4194848225e+000,3.6225373741e+000,3.0620028835e+000,3.9051263299e+000,2.8291212862e+000,4.1862252252e+000,2.5512829906e+000,3.6134478660e+000,2.8782975937e+000,3.7044957130e+000,
3.2062500000e+001,3.6976000686e+000,2.8519762551e+000,3.4558833563e+000,3.5735031090e+000,3.4535064717e+000,3.6717899933e+000,3.0782508878e+000,3.9751841716e+000,2.7944837476e+000,4.2023435149e+000,2.5635608471e+000,3.6177430368e+000,2.8123487317e+000,3.6535229759e+000,
3.2156250000e+001,3.6874024233e+000,2.8690373977e+000,3.4508188356e+000,3.5556431498e+000,3.4097945846e+000,3.7086197109e+000,3.0544120227e+000,3.9856346931e+000,2.8104548096e+000,4.2814269524e+000,2.5263843819e+000,3.6372040690e+000,2.8679087883e+000,3.6333079754e+000,
3.2250000000e+001,3.6291811669e+000,2.8720282429e+000,3.4196032212e+000,3.5310728276e+000,3.4020288044e+000,3.5411981005e+000,3.0902160978e+000,3.9647563621e+000,2.7596024957e+000,4.2142336937e+000,2.5518546954e+000,3.6317197993e+000,2.8213096906e+000,3.6551481398e+000,
3.2343750000e+001,3.6770916855e+000,2.9899225386e+000,3.5027662519e+000,3.4816536530e+000,3.4903224620e+000,3.4873968135e+000,3.2080795836e+000,3.9489036725e+000,2.8339255495e+000,4.1518600209e+000,2.5774590859e+000,3.5934220914e+000,2.8231363193e+000,3.5976345806e+000,
3.2437500000e+001,3.6753209185e+000,2.9733888880e+000,3.5112109000e+000,3.5674111590e+000,3.4920993537e+000,3.5556291683e+000,3.2732372372e+000,3.9245766430e+000,2.7991301627e+000,4.0825805574e+000,2.5156655247e+000,3.5878088988e+000,2.8989813397e+000,3.4210366183e+000,
3.2531250000e+001,3.6820773565e+000,2.9067323414e+000,3.5085152375e+000,3.5619111483e+000,3.5244404235e+000,3.5496653752e+000,3.2761180584e+000,3.8439219482e+000,2.7732903022e+000,4.1433209284e+000,2.5864290331e+000,3.5860377741e+000,2.9656260256e+000,3.0138794025e+000,
3.2625000000e+001,3.6187443584e+000,2.8684926473e+000,3.4426763653e+000,3.5228650731e+000,3.4358532980e+000,3.6814208500e+000,3.3073549599e+000,4.0905997177e+000,2.7962553857e+000,4.0876370583e+000,2.6106634805e+000,3.4997537993e+000,3.0367264814e+000,3.0210539537e+000,
3.2718750000e+001,3.6391400296e+000,2.9343255286e+000,3.4522375240e+000,3.4965101710e+000,3.4061180124e+000,3.6723159094e+000,3.2978892373e+000,4.1647526937e+000,2.8623880101e+000,4.0772841242e+000,2.6169822737e+000,3.5085875207e+000,3.1545117667e+000,2.9856144695e+000,
3.2812500000e+001,3.5603291824e+000,2.9421230208e+000,3.3542215703e+000,3.4961472129e+000,3.5766809532e+000,3.7097490502e+000,3.3237824661e+000,4.1970712399e+000,2.8401878907e+000,4.1293174893e+000,2.5465321586e+000,3.5749343701e+000,3.0938539561e+000,3.0177488446e+000,
3.2906250000e+001,3.5147041556e+000,2.9406238925e+000,3.2604076030e+000,3.4626853671e+000,3.5672994301e+000,3.6883895618e+000,3.2588713337e+000,4.1967920364e+000,2.8478427334e+000,4.2901609251e+000,2.4034277237e+000,3.5567626852e+000,3.0066002266e+000,2.8224975434e+000,
3.3000000000e+001,3.4922867846e+000,2.9756478068e+000,3.2675626752e+000,3.4652142288e+000,3.6349788237e+000,3.6604186456e+000,3.2850023987e+000,4.1875358967e+000,2.9412496071e+000,4.4079181308e+000,2.4089234641e+000,3.5604469562e+000,3.0888989493e+000,2.8099781445e+000,
3.3093750000e+001,3.4511281911e+000,3.0047836616e+000,3.3023738023e+000,3.4265255946e+000,3.6309889330e+000,3.6384464422e+000,3.2798642221e+000,4.2546227535e+000,2.9459418238e+000,4.3931697116e+000,2.4071486511e+000,3.5532372791e+000,3.0724991614e+000,2.8551657483e+000,
3.3187500000e+001,3.5746601669e+000,3.1106075111e+000,3.4330162181e+000,3.4717627952e+000,3.6228665518e+000,3.6849054984e+000,3.3002733026e+000,4.2430115191e+000,2.9221398598e+000,4.4195663860e+000,2.4118933557e+000,3.5569186863e+000,3.0111177294e+000,2.8480017151e+000,
3.3281250000e+001,3.4632483032e+000,2.9322251018e+000,3.3887959953e+000,3.5155495322e+000,3.5893943384e+000,3.6880924634e+000,3.2089426397e+000,4.2698911552e+000,2.8224287033e+000,4.4632776747e+000,2.3731308247e+000,3.6251492746e+000,3.0405909722e+000,2.7218994124e+000,
3.3375000000e+001,3.4970184890e+000,2.9626062978e+000,3.4134432485e+000,3.5660549973e+000,3.5990895101e+000,3.6183983004e+000,3.1790982762e+000,4.2003876650e+000,2.8643388030e+000,4.4813159068e+000,2.3817990398e+000,3.6716685060e+000,3.0165167354e+000,2.6853416724e+000,
3.3468750000e+001,3.5219246925e+000,3.0158792957e+000,3.4071700749e+000,3.5068343705e+000,3.6334546439e+000,3.5983125281e+000,3.1161454570e+000,4.2183156885e+000,2.8541491012e+000,4.4941876012e+000,2.3380935788e+000,3.6506792068e+000,2.9725001570e+000,2.8614679920e+000,
3.3562500000e+001,3.5472755847e+000,3.0155776778e+000,3.3822523662e+000,3.3950110117e+000,3.6680043963e+000,3.5708755219e+000,3.1487009456e+000,4.1655440107e+000,2.8319917994e+000,4.4270472695e+000,2.1969439121e+000,3.7420418056e+000,2.8894386129e+000,2.9999118430e+000,
3.3656250000e+001,3.5686844529e+000,3.1058208178e+000,3.3805157630e+000,3.4447043624e+000,3.6843960128e+000,3.3942776769e+000,3.1308163661e+000,3.8932814971e+000,2.8284823735e+000,4.4666146136e+000,2.2856316843e+000,3.8499503073e+000,2.8505608556e+000,3.1812786585e+000,
3.3750000000e+001,3.6267137891e+000,3.0325351782e+000,3.3809533374e+000,3.4762418643e+000,3.6348672758e+000,3.4596788016e+000,3.0264281908e+000,3.9652318870e+000,2.7928210017e+000,4.3764196507e+000,2.3713354537e+000,3.8960645991e+000,2.8428678522e+000,3.2646812419e+000,
3.3843750000e+001,3.5770856693e+000,3.0051416581e+000,3.4007508996e+000,3.4552020729e+000,3.5099092582e+000,3.4849020989e+000,2.9796766441e+000,3.9276715544e+000,2.7499644812e+000,4.2902146136e+000,2.3747503351e+000,3.8543978004e+000,2.7658302460e+000,3.2352212007e+000,
3.3937500000e+001,3.6535323009e+000,3.1056567231e+000,3.4533472727e+000,3.4519741295e+000,3.6157892045e+000,3.4513842166e+000,2.9392021331e+000,3.9257351563e+000,2.6836247495e+000,4.1881889985e+000,2.3054417953e+000,3.7621540445e+000,2.7375958979e+000,3.1656420543e+000,
3.4031250000e+001,3.6651345529e+000,3.0441691804e+000,3.4691336976e+000,3.3912473837e+000,3.5699801739e+000,3.4074133450e+000,2.9923058947e+000,3.7457240361e+000,2.7229780498e+000,4.0236148739e+000,2.2522804160e+000,3.7598544691e+000,2.5453386739e+000,3.0359075019e+000,
3.4125000000e+001,3.7660902837e+000,3.0593343475e+000,3.4943210683e+000,3.4244242841e+000,3.6147875920e+000,3.4013312102e+000,3.0740789759e+000,3.6740829702e+000,2.7768401619e+000,3.9460613177e+000,2.2304339562e+000,3.7440307592e+000,2.5702470867e+000,3.1237635896e+000,
3.4218750000e+001,3.7376884371e+000,3.0132756366e+000,3.4585987705e+000,3.3702708319e+000,3.7237522605e+000,3.3899493680e+000,3.2110014091e+000,3.6708803007e+000,2.9616669196e+000,3.8494520729e+000,2.3168604564e+000,3.6980815403e+000,2.7048123288e+000,3.1323752334e+000,
3.4312500000e+001,3.7117553787e+000,2.9708783467e+000,3.4439076384e+000,3.3251469908e+000,3.7183435562e+000,3.3548647183e+000,3.1838498367e+000,3.6139561264e+000,2.9816262339e+000,3.6106103304e+000,2.3559922151e+000,3.6043923997e+000,2.7025957601e+000,3.1742448877e+000,
3.4406250000e+001,3.6785726575e+000,2.8969859201e+000,3.4211658777e+000,3.1823518647e+000,3.6381771065e+000,3.3398204273e+000,3.2655660871e+000,3.5146696768e+000,3.0188383612e+000,3.7627889539e+000,2.3662829206e+000,3.6418930987e+000,2.7733626018e+000,3.2502425582e+000,
3.4500000000e+001,3.6369563082e+000,2.9235442257e+000,3.4007509932e+000,3.1846755060e+000,3.6026767313e+000,3.3369617084e+000,3.2952700167e+000,3.4925617463e+000,3.0700603939e+000,3.7160912803e+000,2.3032534097e+000,3.5711443800e+000,2.7131592476e+000,3.1506013477e+000,
3.4593750000e+001,3.7088117653e+000,2.9940483120e+000,3.4208041782e+000,3.2138175492e+000,3.5268467644e+000,3.3929680982e+000,3.2695694458e+000,3.5602109023e+000,3.0648255615e+000,3.7686676696e+000,2.3263285981e+000,3.5612244815e+000,2.7584546729e+000,3.0784390725e+000,
3.4687500000e+001,3.7356425166e+000,2.9827853070e+000,3.4575382833e+000,3.1301536192e+000,3.6725338305e+000,3.3389329136e+000,3.3347302984e+000,3.4475568917e+000,3.1023356525e+000,3.7750859975e+000,2.4431577088e+000,3.4823147469e+000,2.8349504056e+000,2.9401697999e+000,
3.4781250000e+001,3.6889722983e+000,2.9757237389e+000,3.3602570898e+000,3.0360523337e+000,3.6336373364e+000,3.1965212291e+000,3.3455422331e+000,3.3374819945e+000,3.1068069749e+000,4.0142728391e+000,2.3724549229e+000,3.4335521134e+000,2.8545574746e+000,2.9931118712e+000,
3.4875000000e+001,3.6806047565e+000,2.8867896717e+000,3.3450375858e+000,3.1248919686e+000,3.6028630396e+000,3.2080007228e+000,3.3387406309e+000,3.4074203466e+000,3.1593223799e+000,3.9973204008e+000,2.3842720747e+000,3.3987849816e+000,2.9240879001e+000,2.9823458955e+000,
3.4968750000e+001,3.5307010023e+000,2.7498297132e+000,3.2323517631e+000,3.0162243407e+000,3.4930384248e+000,3.2527371498e+000,3.2639657566e+000,3.4323105210e+000,3.1064395687e+000,3.9684514012e+000,2.4717154115e+000,3.3823594298e+000,2.8800192048e+000,2.9843975127e+000,
3.5062500000e+001,3.2743777461e+000,2.6657430312e+000,2.9929275661e+000,2.8724133647e+000,3.3836316994e+000,3.1395448243e+000,3.1664230801e+000,3.3519548080e+000,3.0010565119e+000,3.9036189686e+000,2.5631993302e+000,3.3545797829e+000,2.9712939845e+000,3.0117192291e+000,
3.5156250000e+001,3.1860611284e+000,2.6041314547e+000,2.8489925166e+000,2.7834551369e+000,3.2571232187e+000,3.1312826094e+000,3.0710010150e+000,3.3897105335e+000,2.9173357418e+000,3.9345727453e+000,2.5213399842e+000,3.3187891966e+000,2.8892707318e+000,2.9777468301e+000,
3.5250000000e+001,3.1678950884e+000,2.5454580834e+000,2.7948073357e+000,2.8141793490e+000,3.1209038613e+000,3.0776797913e+000,2.8703197017e+000,3.4361376051e+000,2.7052147122e+000,3.9671152220e+000,2.4651006327e+000,3.2958623220e+000,2.8387548493e+000,3.0887202765e+000,
3.5343750000e+001,3.2508628152e+000,2.5455678610e+000,2.7937802122e+000,2.7984028051e+000,3.0446383640e+000,3.0531873151e+000,2.8290900397e+000,3.4212127838e+000,2.7018833267e+000,3.9771735061e+000,2.4541109989e+000,3.2882878154e+000,2.8414796419e+000,2.9579620972e+000,
3.5437500000e+001,3.1784341831e+000,2.4435454481e+000,2.6548469081e+000,2.8809782964e+000,3.0397184434e+000,2.9943243715e+000,2.6280896705e+000,3.4211960963e+000,2.6518017192e+000,3.9167601737e+000,2.4818231592e+000,3.2616577675e+000,2.9243555842e+000,2.8624620031e+000,
3.5531250000e+001,3.0894054137e+000,2.4948144539e+000,2.7062526384e+000,3.0320001678e+000,3.0759189428e+000,3.1891262621e+000,2.6346456927e+000,3.4939007365e+000,2.6119567740e+000,4.0094074006e+000,2.5202922071e+000,3.3259151215e+000,2.9425098451e+000,2.9650110336e+000,
3.5625000000e+001,3.0659920829e+000,2.4330850675e+000,2.6369503677e+000,3.0796572496e+000,3.1086796515e+000,3.0824872640e+000,2.5521860314e+000,3.4728093954e+000,2.5804345206e+000,4.0272181973e+000,2.4069632705e+000,3.3118090395e+000,2.9552753073e+000,3.0319800362e+000,
3.5718750000e+001,2.8983635128e+000,2.3069835079e+000,2.5164339621e+000,3.0527303646e+000,2.9542930649e+000,3.1466089975e+000,2.5471482478e+000,3.4729381434e+000,2.4542292306e+000,3.9643841782e+000,2.3275061332e+000,3.2788205878e+000,2.8614137430e+000,2.9974030566e+000,
3.5812500000e+001,2.9627141615e+000,2.4518281242e+000,2.5621017692e+000,3.0915844427e+000,2.9443102476e+000,3.1320526649e+000,2.5464244278e+000,3.5242929886e+000,2.3870508915e+000,3.7699532240e+000,2.2969530892e+000,3.3192084820e+000,2.8336417507e+000,2.9853628623e+000,
3.5906250000e+001,3.1059900182e+000,2.4863609834e+000,2.5705456798e+000,2.9896772632e+000,2.9605530809e+000,3.0404940636e+000,2.5554775895e+000,3.4306962906e+000,2.4368031221e+000,3.8559148072e+000,2.3224601953e+000,3.2937124916e+000,2.7509664272e+000,2.9621613564e+000,
3.6000000000e+001,3.2073332846e+000,2.6023699246e+000,2.6178877330e+000,3.0703551526e+000,2.9260602399e+000,3.1107277714e+000,2.6490111060e+000,3.5042196788e+000,2.5343858632e+000,3.9105544818e+000,2.2327332947e+000,3.3291436260e+000,2.8054730474e+000,3.0087101453e+000,
3.6093750000e+001,3.2910420118e+000,2.6962674807e+000,2.7936798165e+000,3.1413390233e+000,2.9697355569e+000,3.2425917568e+000,2.7229750979e+000,3.5521463730e+000,2.5927396856e+000,4.0133597449e+000,2.1426965872e+000,3.4547977638e+000,2.6982949232e+000,3.0157746268e+000,
3.6187500000e+001,3.4120856357e+000,2.6770118676e+000,2.9175814404e+000,3.2593408553e+000,3.0915850482e+000,3.3096991209e+000,2.8454069820e+000,3.5661255073e+000,2.6789973274e+000,3.9585540568e+000,2.1596089898e+000,3.3857779691e+000,2.8056313936e+000,2.8439119726e+000,
3.6281250000e+001,3.3833484652e+000,2.6818946231e+000,2.8797150675e+000,3.1843897491e+000,3.1398417339e+000,3.3171070350e+000,2.8976327423e+000,3.5194990134e+000,2.6681215390e+000,3.9602740871e+000,2.1930593030e+000,3.4407736464e+000,2.8327994041e+000,2.8952613596e+000,
3.6375000000e+001,3.3170264870e+000,2.7649674086e+000,2.8372550323e+000,3.2551079935e+000,3.2450903096e+000,3.4160840256e+000,2.9124755895e+000,3.5660160315e+000,2.7236679089e+000,4.0442957993e+000,2.2624332894e+000,3.5259469574e+000,2.7754945739e+000,2.9691662833e+000,
3.6468750000e+001,3.3803302456e+000,2.7749862528e+000,2.8859648514e+000,3.2159182749e+000,3.1890155337e+000,3.3987923105e+000,2.9118524490e+000,3.5355636245e+000,2.6168729752e+000,4.1524761799e+000,2.2360483015e+000,3.4759090764e+000,2.7426877167e+000,2.9291513741e+000,
3.6562500000e+001,3.3933481619e+000,2.8177679071e+000,2.8834382505e+000,3.1860681339e+000,3.0975363331e+000,3.3438612314e+000,2.8207416788e+000,3.5677393719e+000,2.6904169332e+000,4.0586524231e+000,2.2469461253e+000,3.5267245094e+000,2.6806873732e+000,2.7325978623e+000,
3.6656250000e+001,3.3927180468e+000,2.8492897184e+000,2.9115107874e+000,3.1998376707e+000,3.1768789483e+000,3.3828521392e+000,2.8122520761e+000,3.7149309418e+000,2.8117095945e+000,4.0879235209e+000,2.2958686800e+000,3.5727004025e+000,2.7246283221e+000,2.8449268331e+000,
3.6750000000e+001,3.5252446753e+000,2.9594259659e+000,3.0439331553e+000,3.2895637186e+000,3.1816875094e+000,3.4396103156e+000,2.8734430831e+000,3.8181885353e+000,2.8414692571e+000,4.2157052032e+000,2.3691007923e+000,3.5515610809e+000,2.8445090437e+000,2.8548613538e+000,
3.6843750000e+001,3.5478317287e+000,2.9579662817e+000,3.2283350626e+000,3.3391050540e+000,3.3035352615e+000,3.5673986433e+000,2.9649560570e+000,3.8252441687e+000,2.8878621893e+000,4.2639467387e+000,2.4830698888e+000,3.6257844284e+000,3.0493607898e+000,2.8835433588e+000,
3.6937500000e+001,3.5081031314e+000,2.9800395565e+000,3.2211568106e+000,3.3593436860e+000,3.2424461149e+000,3.5393974260e+000,2.8846852535e+000,3.8241384734e+000,2.7961111761e+000,4.2515273201e+000,2.4344549166e+000,3.6363887668e+000,3.0253764545e+000,2.8912215029e+000,
3.7031250000e+001,3.4723118018e+000,2.9302936003e+000,3.2366903906e+000,3.3610634638e+000,3.3671349953e+000,3.5187044421e+000,2.8484016970e+000,3.8239915775e+000,2.8244879441e+000,4.2787201448e+000,2.4433501102e+000,3.6752758527e+000,3.0470246723e+000,2.8592518854e+000,
3.7125000000e+001,3.3724800222e+000,2.8616434680e+000,3.1244310114e+000,3.3497836299e+000,3.4074488544e+000,3.4679444105e+000,2.7981362753e+000,3.7891606566e+000,2.8706817538e+000,4.3121224148e+000,2.4015431216e+000,3.6227017171e+000,3.0389522154e+000,2.9690464446e+000,
3.7218750000e+001,3.3530468854e+000,3.0007078440e+000,3.1695977462e+000,3.2545676345e+000,3.5002829234e+000,3.4148749765e+000,2.7740458121e+000,3.7459971304e+000,2.9626780519e+000,4.3048546704e+000,2.5708264691e+000,3.7167119789e+000,3.0235162507e+000,3.0841465308e+000,
3.7312500000e+001,3.4540220539e+000,3.0175254674e+000,3.2138885276e+000,3.2636019075e+000,3.5561289508e+000,3.4528994442e+000,2.8256394969e+000,3.7986222531e+000,2.9808286871e+000,4.3298262569e+000,2.6239651607e+000,3.6140589039e+000,2.9610665221e+000,3.0127763349e+000,
3.7406250000e+001,3.4804383684e+000,3.0223407899e+000,3.2466447678e+000,3.1884862279e+000,3.5146073790e+000,3.3561092078e+000,2.8191672071e+000,3.8104965780e+000,2.9537344970e+000,4.2081507955e+000,2.6315467386e+000,3.6986194235e+000,2.8857136840e+000,2.9408996700e+000,
3.7500000000e+001,3.5243386440e+000,3.0226571499e+000,3.2430697204e+000,3.2712933994e+000,3.5687910240e+000,3.3634037160e+000,2.9296851261e+000,3.8990203494e+000,2.9478983477e+000,4.2139956562e+000,2.7389734199e+000,3.6283052253e+000,2.8573244741e+000,2.9327872707e+000,
3.7593750000e+001,3.5061383415e+000,2.9464326442e+000,3.2399497474e+000,3.1926755830e+000,3.5362200430e+000,3.3225795259e+000,2.9389092371e+000,3.8499594689e+000,2.9707723587e+000,4.1953077954e+000,2.7185624679e+000,3.5503969665e+000,2.8398196994e+000,3.0930686179e+000,
3.7687500000e+001,3.5174619786e+000,2.9491325091e+000,3.3333397964e+000,3.2785003375e+000,3.5520573011e+000,3.3857061168e+000,2.9110264802e+000,3.6537725877e+000,2.9862226724e+000,4.2625851653e+000,2.7583803863e+000,3.6422513102e+000,2.7846719937e+000,3.0028972555e+000,
3.7781250000e+001,3.4181631726e+000,2.7754651851e+000,3.1672802518e+000,3.1933934650e+000,3.4593813911e+000,3.1906513069e+000,2.7263167289e+000,3.6277382481e+000,2.9625825019e+000,4.2487274212e+000,2.7049206707e+000,3.6781244249e+000,2.5020280245e+000,3.0846094360e+000,
3.7875000000e+001,3.4439363625e+000,2.8123955352e+000,3.1534288717e+000,3.2563705874e+000,3.4788216026e+000,3.2268523252e+000,2.8117892629e+000,3.6851405659e+000,3.0437580764e+000,4.3185210642e+000,2.6965118170e+000,3.5932384988e+000,2.5438206251e+000,3.1101244383e+000,
3.7968750000e+001,3.4441550759e+000,2.8445293779e+000,3.1861955449e+000,3.3510077758e+000,3.4945879604e+000,3.3876153354e+000,2.8544346948e+000,3.8036678070e+000,3.0821722845e+000,4.3018233654e+000,2.7205404855e+000,3.6410460000e+000,2.6160584848e+000,3.1716497818e+000,
3.8062500000e+001,3.4577929365e+000,2.8143513352e+000,3.1760411937e+000,3.3934321616e+000,3.4153064223e+000,3.4086243867e+000,2.8217541774e+000,3.7727482674e+000,2.9536537114e+000,4.2280618663e+000,2.7267544087e+000,3.6562554191e+000,2.6732309991e+000,3.2085839993e+000,
3.8156250000e+001,3.4298747502e+000,2.7071359870e+000,3.1411414328e+000,3.4059414736e+000,3.3331541456e+000,3.4641366192e+000,2.8284014153e+000,3.8683990291e+000,2.9461658177e+000,4.1980484113e+000,2.7618211185e+000,3.6367552370e+000,2.8437870500e+000,3.1393652374e+000,
3.8250000000e+001,3.3413421397e+000,2.6762171969e+000,3.0807729703e+000,3.4035268197e+000,3.2168847967e+000,3.4318896595e+000,2.7539943541e+000,3.9249598399e+000,2.8438689476e+000,4.2031187114e+000,2.6602417419e+000,3.5683578105e+000,2.9819896298e+000,3.1872719641e+000,
3.8343750000e+001,3.2302621477e+000,2.5369035391e+000,3.0650819772e+000,3.4128825012e+000,3.2059367974e+000,3.4203194467e+000,2.8118537760e+000,3.9295909713e+000,2.9161750274e+000,4.1722499829e+000,2.6846988871e+000,3.4761428929e+000,3.0849154919e+000,3.3384105472e+000,
3.8437500000e+001,3.2602985935e+000,2.6439567691e+000,3.1946632778e+000,3.5866821476e+000,3.2910718217e+000,3.4910706928e+000,2.8420802121e+000,4.0695074064e+000,2.9482472787e+000,4.2303787283e+000,2.6302527097e+000,3.4989685167e+000,3.1908842135e+000,3.4214110725e+000,
3.8531250000e+001,3.3226755300e+000,2.6549324002e+000,3.2022947792e+000,3.5325409107e+000,3.3707273911e+000,3.5052977931e+000,2.7353400469e+000,4.0240075523e+000,2.9315469668e+000,4.2185713883e+000,2.5048443138e+000,3.5094309532e+000,3.2463531310e+000,3.4477843051e+000,
3.8625000000e+001,3.3957489756e+000,2.6205609176e+000,3.1862808649e+000,3.5205778750e+000,3.3885165235e+000,3.5693267265e+000,2.7409680576e+000,4.0723487438e+000,2.8786880371e+000,4.2724269455e+000,2.5094280435e+000,3.4722434564e+000,3.2961852489e+000,3.4558668973e+000,
3.8718750000e+001,3.3463004925e+000,2.6589769741e+000,3.0807453959e+000,3.4314536271e+000,3.3711427461e+000,3.5086693336e+000,2.6543013477e+000,4.0970536702e+000,2.7780883282e+000,4.1753395576e+000,2.5008749887e+000,3.5194019053e+000,3.2991391321e+000,3.4557319611e+000,
3.8812500000e+001,3.3658221550e+000,2.8302344911e+000,3.1640584802e+000,3.3588758570e+000,3.3994576829e+000,3.5519194200e+000,2.8081758644e+000,4.0829583143e+000,2.7196457500e+000,4.0423817938e+000,2.5364626424e+000,3.4762386153e+000,3.2616497601e+000,3.3875302185e+000,
3.8906250000e+001,3.2867956358e+000,2.7521270682e+000,3.0716357534e+000,3.2610084928e+000,3.4210044884e+000,3.5926585346e+000,2.7680520698e+000,4.1008897994e+000,2.5511816529e+000,4.1284667781e+000,2.5577083213e+000,3.4782055159e+000,3.1737120074e+000,3.3711690737e+000,
3.9000000000e+001,3.3458243863e+000,2.7531022875e+000,3.1632576646e+000,3.1684731242e+000,3.4728450248e+000,3.5653916461e+000,2.7801573988e+000,4.0485526578e+000,2.7562211001e+000,4.1304918445e+000,2.5937801389e+000,3.6127600925e+000,3.2436826106e+000,3.3952952703e+000,
3.9093750000e+001,3.3083768267e+000,2.8050924465e+000,3.1040010008e+000,3.1235772356e+000,3.4032850279e+000,3.5638372310e+000,2.7737496708e+000,4.0969776285e+000,2.6887981385e+000,4.1594484281e+000,2.5495717294e+000,3.6171202699e+000,3.1074739219e+000,3.3037874718e+000,
3.9187500000e+001,3.3325206448e+000,2.8727912340e+000,3.1752039514e+000,3.1963186997e+000,3.4457453239e+000,3.5398307133e+000,2.8947900320e+000,4.0084402931e+000,2.8406119021e+000,4.3097264492e+000,2.6136378129e+000,3.7649199488e+000,3.1763614654e+000,3.2714838554e+000,
3.9281250000e+001,3.5815507889e+000,2.9873101604e+000,3.3252930623e+000,3.2321320104e+000,3.6215358613e+000,3.7025975392e+000,3.0778593597e+000,4.0504471805e+000,3.0094507955e+000,4.3639133354e+000,2.5971598941e+000,3.8105207745e+000,3.0172217572e+000,3.2225007320e+000,
3.9375000000e+001,3.6018855381e+000,3.0519546584e+000,3.3401894753e+000,3.2576620193e+000,3.6181471513e+000,3.6943157509e+000,3.1294505577e+000,4.0451742139e+000,3.0026941315e+000,4.3981475318e+000,2.6008839977e+000,3.8359628111e+000,3.0250848764e+000,3.2951781508e+000,
3.9468750000e+001,3.4960573434e+000,3.0085843095e+000,3.2545663766e+000,3.0828589464e+000,3.6061613607e+000,3.6056187764e+000,3.1177324504e+000,3.8962020470e+000,2.9467404434e+000,4.3118944267e+000,2.6355229483e+000,4.0032462424e+000,2.9356916967e+000,3.3242248084e+000,
3.9562500000e+001,3.4668303824e+000,3.0644838190e+000,3.2944010291e+000,3.1005720087e+000,3.7560976905e+000,3.7363161964e+000,3.1435769351e+000,3.9671081256e+000,2.9378146100e+000,4.4321690494e+000,2.7357207267e+000,4.0419062793e+000,2.8375580926e+000,3.2839983084e+000,
3.9656250000e+001,3.4912119347e+000,3.0923158923e+000,3.3802834221e+000,3.1736289875e+000,3.7941616074e+000,3.6570676683e+000,3.1706119292e+000,3.9235558113e+000,2.9940011075e+000,4.3633733615e+000,2.7491030846e+000,4.0036254034e+000,2.8606532119e+000,3.1889280066e+000,
3.9750000000e+001,3.4846355819e+000,3.1050168364e+000,3.4246005110e+000,3.2777404066e+000,3.8023757860e+000,3.6163580561e+000,3.2023606430e+000,3.8766696163e+000,3.0304634785e+000,4.3847619273e+000,2.6898620700e+000,3.9638108104e+000,2.9562371356e+000,3.2515748154e+000,
3.9843750000e+001,3.4661524890e+000,3.0134891244e+000,3.4010350109e+000,3.3437345105e+000,3.7791416374e+000,3.6025704995e+000,3.1343196656e+000,3.8276205046e+000,3.0458854938e+000,4.3804515192e+000,2.6582490242e+000,3.9780605135e+000,3.0331490646e+000,3.2513624805e+000,
3.9937500000e+001,3.4484649208e+000,3.0501959994e+000,3.3473993389e+000,3.3624785594e+000,3.7410313064e+000,3.4947568175e+000,3.1739692218e+000,3.6939270374e+000,3.0585715504e+000,4.3007068840e+000,2.7424262436e+000,3.8998983160e+000,3.0502560636e+000,3.2138563659e+000,
4.0031250000e+001,3.4527332729e+000,3.0930216802e+000,3.3290758300e+000,3.4298999405e+000,3.7118317645e+000,3.4888907293e+000,3.1727152257e+000,3.7296994316e+000,3.0177994253e+000,4.2855055344e+000,2.7321604111e+000,3.9102631887e+000,3.0612432781e+000,3.2153016022e+000,
4.0125000000e+001,3.5752242875e+000,3.0914944868e+000,3.4183814352e+000,3.4136386225e+000,3.7098578014e+000,3.4682289808e+000,3.2727500731e+000,3.6521371511e+000,3.0440068723e+000,4.2492938863e+000,2.6873580300e+000,3.8410828183e+000,3.0819641591e+000,3.2582108384e+000,
4.0218750000e+001,3.4870950801e+000,3.0531484714e+000,3.3312751890e+000,3.3331817783e+000,3.5354902409e+000,3.3966308018e+000,3.0874863362e+000,3.6585948425e+000,2.8238627701e+000,4.1410420868e+000,2.6310955960e+000,3.8075187469e+000,3.0764191496e+000,3.2043889593e+000,
4.0312500000e+001,3.3228121421e+000,2.9636353916e+000,3.2280924262e+000,3.3347291454e+000,3.5109687551e+000,3.2729139483e+000,2.9337990809e+000,3.6637876347e+000,2.6980909511e+000,4.0754780878e+000,2.5909345639e+000,3.7758663475e+000,2.9895687392e+000,3.0463729562e+000,
4.0406250000e+001,3.2805022981e+000,2.9213083582e+000,3.1561175082e+000,3.2945482141e+000,3.4048009728e+000,3.2292535969e+000,2.8727575712e+000,3.6400539577e+000,2.6760861735e+000,4.0905703597e+000,2.5849890581e+000,3.7339414354e+000,3.0438123418e+000,2.9071781396e+000,
4.0500000000e+001,3.2979473068e+000,2.8928734605e+000,3.1058143381e+000,3.2790735339e+000,3.3141810180e+000,3.1708599213e+000,2.9352926439e+000,3.5755888281e+000,2.6862643921e+000,3.9821583290e+000,2.6239017975e+000,3.5109890911e+000,3.1233412306e+000,2.9211651250e+000,
4.0593750000e+001,3.1806888928e+000,2.7456170510e+000,2.9783768956e+000,3.1524364475e+000,3.0727665808e+000,3.0182378706e+000,2.8821835778e+000,3.4247217095e+000,2.6060288480e+000,3.7855325161e+000,2.4888019253e+000,3.5133699455e+000,3.0802807919e+000,2.8053436240e+000,
4.0687500000e+001,3.2304905048e+000,2.7786939125e+000,2.9678123013e+000,3.0993727866e+000,3.0601116457e+000,3.0934518709e+000,2.9948404448e+000,3.4618239950e+000,2.6330746978e+000,3.6717899123e+000,2.5395796377e+000,3.5402696859e+000,2.9811856788e+000,2.8059096489e+000,
4.0781250000e+001,3.2190874345e+000,2.7415176379e+000,2.9558842273e+000,3.0838630445e+000,3.0371872266e+000,3.0932624102e+000,3.0011898950e+000,3.5060964165e+000,2.6261601813e+000,3.8303705014e+000,2.6003631966e+000,3.5108557053e+000,2.8712058794e+000,2.5790521601e+000,
4.0875000000e+001,3.2494141841e+000,2.7147282511e+000,2.9750329111e+000,2.9778951284e+000,3.0729167294e+000,3.0268512784e+000,3.0576395671e+000,3.5413009609e+000,2.5986542806e+000,3.8821255759e+000,2.4903485258e+000,3.4461765119e+000,2.8191244445e+000,2.5855297324e+000,
4.0968750000e+001,3.2524674861e+000,2.6796641895e+000,2.9942841056e+000,2.9826761351e+000,3.0581197648e+000,3.1047372691e+000,2.9589925593e+000,3.5339162537e+000,2.5400485829e+000,4.0057242289e+000,2.3978431677e+000,3.4735359099e+000,2.9102524330e+000,2.8329675783e+000,
4.1062500000e+001,3.2013260480e+000,2.5114288214e+000,3.0159762236e+000,2.8972440067e+000,3.0807217400e+000,3.1809976395e+000,3.0543807164e+000,3.5844328070e+000,2.6223329195e+000,4.0722896309e+000,2.4916623179e+000,3.4791310554e+000,2.9942440067e+000,2.7016680206e+000,
4.1156250000e+001,3.1241256285e+000,2.4531581729e+000,2.9554518906e+000,2.9134271525e+000,3.0673360900e+000,3.2183763735e+000,2.9764349212e+000,3.6712550467e+000,2.4832982762e+000,4.0718855165e+000,2.4994554887e+000,3.3608334788e+000,2.9535082351e+000,2.7163265480e+000,
