Time (s),AF3,AF4,F3,F4,F7,F8,FC5,FC6,T7,T8,P7,P8,O1,O2,Sampling Rate
0.0000000000e+000,3.6388641825e+000,4.2618221101e+000,3.5479197890e+000,3.7877704906e+000,3.7800523282e+000,3.6645207913e+000,4.8229773937e+000,5.5595135236e+000,2.8442503629e+000,3.4692761153e+000,1.6814614684e+000,2.9866235121e+000,2.8148543055e+000,3.3363463297e+000,1
9.3750000000e-002,3.6166195599e+000,4.2056954668e+000,3.4936421208e+000,3.7226470902e+000,3.7576322593e+000,3.6422605137e+000,4.8922432290e+000,5.5743832427e+000,2.8338731084e+000,3.4691147629e+000,1.7338167893e+000,2.9863340634e+000,2.8006081252e+000,3.3061749197e+000,
1.8750000000e-001,3.5424780233e+000,4.1014212542e+000,3.4515767033e+000,3.6611689637e+000,3.6385064143e+000,3.6681618891e+000,4.9901177309e+000,5.5467967606e+000,2.7478121595e+000,3.4583690078e+000,1.7354809151e+000,2.9291767488e+000,2.8035779786e+000,3.2052932545e+000,
2.8125000000e-001,3.5101776606e+000,4.1174819009e+000,3.4090537537e+000,3.7324217131e+000,3.5923440640e+000,3.7992820321e+000,4.8935410128e+000,5.5600686173e+000,2.7636592171e+000,3.7082630241e+000,1.7726916283e+000,3.2607448294e+000,3.0295773641e+000,3.4192353409e+000,
3.7500000000e-001,3.4279869330e+000,4.0854508963e+000,3.3255714153e+000,3.7793236215e+000,3.5057089940e+000,3.7250513369e+000,5.1107409610e+000,5.4682107463e+000,2.8224101809e+000,3.7495082600e+000,1.8040206348e+000,3.3286443043e+000,3.0054970558e+000,3.4582745040e+000,
4.6875000000e-001,3.5421078704e+000,4.0783882786e+000,3.4061629159e+000,3.9809109342e+000,3.4634853339e+000,3.6785891898e+000,5.1216063609e+000,5.4720522853e+000,2.8407375360e+000,3.7413821677e+000,1.9250248538e+000,3.3514666850e+000,3.0765727673e+000,3.5095290915e+000,
5.6250000000e-001,3.6169655731e+000,4.1186011866e+000,3.3995332344e+000,4.0538085237e+000,3.5068997390e+000,3.8384890657e+000,5.2471820673e+000,5.4304690654e+000,2.8698541167e+000,3.8379149805e+000,2.0595367291e+000,3.3915481868e+000,3.1601939464e+000,3.5169066236e+000,
6.5625000000e-001,3.7769488864e+000,4.2119477818e+000,3.4704404835e+000,4.0966276770e+000,3.5490479241e+000,3.8566368658e+000,5.2492371462e+000,5.4823402630e+000,2.8217597622e+000,3.8461745011e+000,2.1306460767e+000,3.3722826328e+000,3.2004531183e+000,3.5653132382e+000,
7.5000000000e-001,3.8239614280e+000,4.2636074661e+000,3.5725797025e+000,4.2154895420e+000,3.6076654100e+000,4.0366100131e+000,5.2059652198e+000,5.3936234472e+000,2.9002049670e+000,4.0356181858e+000,2.2308511370e+000,3.3794980560e+000,3.2320921357e+000,3.6133137726e+000,
8.4375000000e-001,3.8059129707e+000,4.2280070714e+000,3.5495633926e+000,4.2304710077e+000,3.5747559910e+000,4.0788816020e+000,5.1135516399e+000,5.2779424708e+000,2.8833760657e+000,4.0828511439e+000,2.2566870662e+000,3.4910807376e+000,3.2195512733e+000,3.5006097977e+000,
9.3750000000e-001,3.8661230572e+000,4.2984583379e+000,3.6280165948e+000,4.3508601032e+000,3.6312667256e+000,4.1919211480e+000,5.2863011331e+000,5.1691972896e+000,2.9088153930e+000,4.1238172218e+000,2.2925669789e+000,3.5756796291e+000,3.2953421583e+000,3.4710851490e+000,
1.0312500000e+000,3.9017180872e+000,4.2684335271e+000,3.6311189228e+000,4.5086890996e+000,3.5996191894e+000,4.1587878924e+000,5.2946218387e+000,5.1977216588e+000,2.9024054215e+000,4.0992235469e+000,2.3132682694e+000,3.6310651129e+000,3.3080385037e+000,3.4680585298e+000,
1.1250000000e+000,3.8623126048e+000,4.2717613791e+000,3.6168040654e+000,4.5927796253e+000,3.4937166780e+000,4.1739125430e+000,5.3392096695e+000,5.1290480329e+000,2.9385766582e+000,4.1508438754e+000,2.3404474547e+000,3.6569643157e+000,3.2962117451e+000,3.4946893933e+000,
1.2187500000e+000,3.7861771333e+000,4.0662632843e+000,3.5048555799e+000,4.6835829505e+000,3.3584498354e+000,4.0310338924e+000,5.3359530822e+000,5.0339509356e+000,2.9606922169e+000,4.0551089232e+000,2.3599873745e+000,3.5841370401e+000,3.2133913898e+000,3.3390742327e+000,
1.3125000000e+000,3.8129126635e+000,4.1048951472e+000,3.5535136611e+000,4.7126496002e+000,3.3876463055e+000,4.0348549563e+000,5.3290646896e+000,5.1141170435e+000,2.8751985370e+000,3.9526665185e+000,2.3472459123e+000,3.4125313744e+000,3.1479470020e+000,3.3102757188e+000,
1.4062500000e+000,3.6788554929e+000,4.1131515071e+000,3.4452797513e+000,4.7180930721e+000,3.3450890477e+000,4.0758589870e+000,5.1437762548e+000,5.0747783473e+000,2.7905828658e+000,3.9223634674e+000,2.3405488276e+000,3.3966966942e+000,3.1109307497e+000,3.2035272026e+000,
1.5000000000e+000,3.6676681138e+000,4.1361077240e+000,3.4466863788e+000,4.6529985277e+000,3.3473212718e+000,4.1310801916e+000,5.3383149306e+000,4.9851434500e+000,2.7457316020e+000,3.9633531683e+000,2.2557063667e+000,3.4204360339e+000,3.0912274350e+000,3.2173796019e+000,
1.5937500000e+000,3.4696895180e+000,4.2821788232e+000,3.3489083880e+000,4.6135707796e+000,3.3575478872e+000,4.1747285178e+000,5.3080770956e+000,4.9380666613e+000,2.7299702161e+000,4.0169516630e+000,2.2362140691e+000,3.4884403396e+000,2.8408036171e+000,3.1859292736e+000,
1.6875000000e+000,3.6949002046e+000,4.2426254388e+000,3.4463801661e+000,4.6335020760e+000,3.3448848965e+000,4.1167719819e+000,5.3711758715e+000,4.8888091399e+000,2.6659075486e+000,3.8338197422e+000,2.2424470840e+000,3.3307124285e+000,2.8945695139e+000,3.0993116838e+000,
1.7812500000e+000,3.6284181229e+000,4.1400533191e+000,3.3475814444e+000,4.5891671686e+000,3.2628795036e+000,3.9125505524e+000,5.3495438659e+000,5.0526565990e+000,2.6234036489e+000,3.6297571513e+000,2.2354298994e+000,3.4083921198e+000,2.7626082087e+000,2.9668969251e+000,
1.8750000000e+000,3.7747081069e+000,4.3416236705e+000,3.5010587191e+000,4.6849654172e+000,3.5967940740e+000,3.9903759011e+000,5.2709239479e+000,5.3173221441e+000,2.8182079564e+000,3.7265107176e+000,2.2275114842e+000,3.3635345242e+000,2.9360219987e+000,2.9782147725e+000,
1.9687500000e+000,3.9059766025e+000,4.4235965599e+000,3.5795529517e+000,4.5441159565e+000,3.7969270698e+000,3.9528685734e+000,5.1434144835e+000,5.3419967823e+000,2.8163034335e+000,3.7544465943e+000,2.2702020175e+000,3.3873199902e+000,2.7621203190e+000,2.9168893265e+000,
2.0625000000e+000,3.8983413367e+000,4.4503607176e+000,3.5816190755e+000,4.5237390094e+000,3.8090252254e+000,3.9467744243e+000,5.1426379428e+000,5.3637593243e+000,2.9596475709e+000,3.7237505854e+000,2.3589384873e+000,3.4483681300e+000,2.8796044404e+000,3.0807108204e+000,
2.1562500000e+000,3.9373165914e+000,4.4786829648e+000,3.6270868724e+000,4.4589288885e+000,3.9193877677e+000,4.0216544668e+000,5.1878594411e+000,5.3584840080e+000,3.0291546333e+000,3.7108267538e+000,2.4583128478e+000,3.6212187275e+000,2.8969323548e+000,3.3074065222e+000,
2.2500000000e+000,3.9515745364e+000,4.5029237565e+000,3.6780827981e+000,4.4006812516e+000,3.9442496539e+000,4.0201982700e+000,5.2789588752e+000,5.2286688753e+000,3.0475913701e+000,3.7786395621e+000,2.5066070487e+000,3.6833341284e+000,2.8324486230e+000,3.3750605266e+000,
2.3437500000e+000,3.9579336230e+000,4.5750698762e+000,3.6768023611e+000,4.3920318668e+000,3.9782849398e+000,4.0127679583e+000,5.5815255719e+000,5.2909057131e+000,3.2684663547e+000,3.8260110407e+000,2.4879711398e+000,3.7164652132e+000,2.8482039095e+000,3.3863986781e+000,
2.4375000000e+000,3.9595074552e+000,4.5514521285e+000,3.6572446327e+000,4.3541085868e+000,3.9819472222e+000,3.9918864311e+000,5.6198084617e+000,5.2933037643e+000,3.3094252893e+000,3.8720846388e+000,2.5075638190e+000,3.7486562871e+000,2.8255477091e+000,3.4382698759e+000,
2.5312500000e+000,3.9975962769e+000,4.5577054667e+000,3.6881797366e+000,4.4135841596e+000,4.0241042787e+000,4.0960551274e+000,5.4372786973e+000,5.2744568193e+000,3.3758106763e+000,3.9055485059e+000,2.5119558060e+000,3.7409501172e+000,2.8069271235e+000,3.3179393266e+000,
2.6250000000e+000,4.0094653434e+000,4.4561051840e+000,3.7538224025e+000,4.4293516511e+000,4.0727777120e+000,4.0177204261e+000,5.4770390615e+000,5.3410196352e+000,3.3935992041e+000,3.9118452615e+000,2.5049094227e+000,3.7821196724e+000,2.8537592680e+000,3.4124197178e+000,
2.7187500000e+000,3.7678104284e+000,4.4398946756e+000,3.6107882395e+000,4.3488851788e+000,4.0054153311e+000,3.9886657865e+000,5.4627766000e+000,5.4218315671e+000,3.4220465358e+000,3.9378929248e+000,2.4055548647e+000,3.7823037712e+000,2.8893701985e+000,3.4030598234e+000,
2.8125000000e+000,3.7935073362e+000,4.4143382200e+000,3.6294001686e+000,4.2988269858e+000,4.0296635546e+000,4.0482867510e+000,5.4685542741e+000,5.2440524215e+000,3.4125468708e+000,3.9243402940e+000,2.3809390554e+000,3.7006643873e+000,2.8828554371e+000,3.4132915658e+000,
2.9062500000e+000,3.6294549288e+000,4.2256297078e+000,3.5264827718e+000,4.1951010894e+000,3.8894664527e+000,3.9549748983e+000,5.5168925838e+000,5.2132840152e+000,3.3413723118e+000,3.7954599917e+000,2.3100654617e+000,3.5968929996e+000,2.8166361546e+000,3.4671265689e+000,
3.0000000000e+000,3.4892165124e+000,4.0686454213e+000,3.4571891063e+000,4.1992036781e+000,3.7220470409e+000,3.9799372609e+000,5.5467174960e+000,5.2431338176e+000,3.2552119362e+000,3.8291114096e+000,2.3077825360e+000,3.5973499629e+000,3.0203506468e+000,3.5497584381e+000,
3.0937500000e+000,3.4627712323e+000,4.0464208672e+000,3.4465312676e+000,4.0699440895e+000,3.7601893752e+000,3.9863855992e+000,5.5073743260e+000,5.2055349809e+000,3.1545896422e+000,3.8382123318e+000,2.2632184511e+000,3.5530599188e+000,2.9041294032e+000,3.4552945640e+000,
3.1875000000e+000,3.4903556917e+000,3.9712998519e+000,3.4246561609e+000,4.0380550478e+000,3.6678858907e+000,3.9065254306e+000,5.5055301861e+000,5.1970457655e+000,3.1546006668e+000,3.7796777362e+000,2.1381075714e+000,3.4871472988e+000,2.9743776765e+000,3.3224781664e+000,
3.2812500000e+000,3.4244950911e+000,3.9097354974e+000,3.3314955405e+000,4.4992816217e+000,3.5938620391e+000,3.8347051873e+000,5.1898675667e+000,5.0998090166e+000,3.0483068935e+000,3.6947299559e+000,2.0798158509e+000,3.4552821980e+000,3.0163703415e+000,3.2524248628e+000,
3.3750000000e+000,3.3840915111e+000,3.7170527040e+000,3.3042134730e+000,5.1776642956e+000,3.5916599576e+000,3.8349489857e+000,4.9988305008e+000,5.0499807615e+000,2.9780069142e+000,3.6651976606e+000,2.1231273542e+000,3.4305920503e+000,2.9878705978e+000,3.1943960284e+000,
3.4687500000e+000,3.4340019839e+000,3.6088957525e+000,3.3126852029e+000,7.0483821833e+000,3.5687682816e+000,3.6324110111e+000,4.9409539075e+000,5.0707584091e+000,2.8944051438e+000,3.4731004613e+000,2.0957399805e+000,3.3775899913e+000,3.0150660405e+000,3.2901590094e+000,
3.5625000000e+000,3.3641748708e+000,3.6973902853e+000,3.2820879290e+000,8.1000631843e+000,3.5009389668e+000,3.4275059411e+000,4.8190276894e+000,5.1351533851e+000,2.7676946331e+000,3.3831792090e+000,1.9850283246e+000,3.3067580777e+000,3.1201260722e+000,3.2745866026e+000,
3.6562500000e+000,3.4404814915e+000,4.3748514972e+000,3.3194712632e+000,9.9178627106e+000,3.4562025807e+000,3.4423955814e+000,4.7359057369e+000,5.2945558620e+000,2.8325081998e+000,3.2902345182e+000,2.0764037864e+000,3.2480304697e+000,3.1168883721e+000,3.3088240320e+000,
3.7500000000e+000,3.4398091249e+000,4.5748208522e+000,3.3310822121e+000,1.0117698156e+001,3.4776576334e+000,3.4802426818e+000,5.0256117726e+000,5.2481388067e+000,2.7749980861e+000,3.4136311157e+000,2.1485412798e+000,3.3979092953e+000,3.1103314585e+000,3.3674237959e+000,
3.8437500000e+000,3.4546218174e+000,4.7039291344e+000,3.3695751068e+000,1.0129106260e+001,3.4111205908e+000,3.6281117105e+000,5.0438665032e+000,5.1180463990e+000,2.6931083222e+000,3.5288087566e+000,2.1177315590e+000,3.4330560390e+000,3.1615396765e+000,3.4626432481e+000,
3.9375000000e+000,3.5439991976e+000,4.7658946201e+000,3.4094011821e+000,1.0155512616e+001,3.3627924287e+000,3.6002426240e+000,5.0588259727e+000,5.0567013124e+000,2.8830972938e+000,3.6354055975e+000,2.1005688952e+000,3.5559379102e+000,3.0205982098e+000,3.4177681711e+000,
4.0312500000e+000,3.4524272605e+000,4.7746716403e+000,3.2639028183e+000,1.0173667756e+001,3.3485653876e+000,3.6258574716e+000,4.8735917572e+000,5.1362605787e+000,2.9005708224e+000,3.6661759588e+000,2.0362036166e+000,3.6166939407e+000,2.9187104991e+000,3.3813356133e+000,
4.1250000000e+000,1.0678238885e+001,1.0568621964e+001,1.0888160841e+001,1.0614354829e+001,1.0911896739e+001,1.0713491636e+001,1.0700302776e+001,1.0724185154e+001,1.0598338299e+001,1.0683242835e+001,1.0800249366e+001,1.0501873416e+001,1.0755266297e+001,1.0513090502e+001,
4.2187500000e+000,1.0805892537e+001,1.0687267468e+001,1.1002217866e+001,1.1025724560e+001,1.1031923136e+001,1.0818444657e+001,1.0792334999e+001,1.0838071076e+001,1.0713533730e+001,1.0797897409e+001,1.0923989441e+001,1.0585371371e+001,1.0860626047e+001,1.0604635307e+001,
4.3125000000e+000,1.0809018059e+001,1.0691970637e+001,1.1005578560e+001,1.2009971777e+001,1.1034977073e+001,1.0822273002e+001,1.0796134666e+001,1.0841325160e+001,1.0716692649e+001,1.0802275261e+001,1.0926990299e+001,1.0588522222e+001,1.0863422489e+001,1.0607809256e+001,
4.4062500000e+000,1.0809214091e+001,1.0692747826e+001,1.1005753060e+001,1.2044323311e+001,1.1035137456e+001,1.0822422051e+001,1.0796261402e+001,1.0841801071e+001,1.0716770735e+001,1.0802396633e+001,1.0927118423e+001,1.0588624896e+001,1.0863630526e+001,1.0607945279e+001,
4.5000000000e+000,1.0809229526e+001,1.0692942408e+001,1.1005765701e+001,1.2037935407e+001,1.1035127825e+001,1.0822462402e+001,1.0796682570e+001,1.0841468766e+001,1.0716788037e+001,1.0802416331e+001,1.0927109672e+001,1.0588618245e+001,1.0863598264e+001,1.0607884756e+001,
4.5937500000e+000,1.0809192067e+001,1.0692352185e+001,1.1005713478e+001,1.1970620325e+001,1.1035106804e+001,1.0822499544e+001,1.0797658614e+001,1.0841101153e+001,1.0716825114e+001,1.0802420962e+001,1.0927130070e+001,1.0588576183e+001,1.0863577588e+001,1.0607843358e+001,
4.6875000000e+000,1.0809145895e+001,1.0691935696e+001,1.1005698068e+001,1.1915573107e+001,1.1035097819e+001,1.0822551427e+001,1.0797365667e+001,1.0840555307e+001,1.0716781059e+001,1.0802464510e+001,1.0927114377e+001,1.0588590655e+001,1.0863577155e+001,1.0607822231e+001,
4.7812500000e+000,1.0809157996e+001,1.0691510755e+001,1.1005674215e+001,1.1889232443e+001,1.1035089773e+001,1.0822436045e+001,1.0796916200e+001,1.0840640099e+001,1.0716810174e+001,1.0802386785e+001,1.0927113086e+001,1.0588525488e+001,1.0863579182e+001,1.0607768323e+001,
4.8750000000e+000,1.0809106066e+001,1.0691227945e+001,1.1005619893e+001,1.1886527709e+001,1.1035059151e+001,1.0822366336e+001,1.0796891630e+001,1.0840549550e+001,1.0716756526e+001,1.0802381187e+001,1.0927119488e+001,1.0588541023e+001,1.0863588188e+001,1.0607759639e+001,
4.9687500000e+000,1.0809056871e+001,1.0691233185e+001,1.1005631291e+001,1.1883205658e+001,1.1035042855e+001,1.0822375655e+001,1.0796777396e+001,1.0840323980e+001,1.0716754164e+001,1.0802296770e+001,1.0927106346e+001,1.0588475621e+001,1.0863587509e+001,1.0607729881e+001,
5.0625000000e+000,1.0806146957e+001,1.0687836662e+001,1.1001816927e+001,1.1872192720e+001,1.1030916631e+001,1.0818745788e+001,1.0793097594e+001,1.0836958804e+001,1.0712579437e+001,1.0798646759e+001,1.0922947796e+001,1.0584563038e+001,1.0859389741e+001,1.0604093752e+001,
5.1562500000e+000,7.3254890680e+000,7.1947876030e+000,7.4728730384e+000,1.1731352707e+001,7.4392862729e+000,7.3622127970e+000,7.1824390503e+000,7.3161769144e+000,7.1345687943e+000,7.3096164952e+000,7.3627704082e+000,6.9629541443e+000,7.1981928475e+000,7.0165309987e+000,
5.2500000000e+000,5.5136861839e+000,5.5044343301e+000,5.0902635933e+000,1.0625524085e+001,4.8910177232e+000,4.7668980863e+000,5.3853443065e+000,5.6992185086e+000,4.4594210922e+000,4.7752271740e+000,4.5571664798e+000,4.2675205212e+000,4.4631083739e+000,4.2243977965e+000,
5.3437500000e+000,5.1564296330e+000,4.3194430729e+000,4.3518125991e+000,8.0768103462e+000,3.5700898151e+000,3.8444645409e+000,5.2564862209e+000,4.8870269938e+000,3.0486389594e+000,3.6951486113e+000,2.2984063215e+000,3.4044387687e+000,2.8890021867e+000,3.0937231351e+000,
5.4375000000e+000,5.1170723426e+000,4.0346509709e+000,4.2622346052e+000,4.8237734424e+000,3.3557939252e+000,3.6933314554e+000,5.2288620282e+000,4.8202683947e+000,2.9070097841e+000,3.6258020068e+000,2.1310258101e+000,3.2922937081e+000,2.6728486326e+000,3.0272491656e+000,
5.5312500000e+000,5.1129445237e+000,3.8189554534e+000,4.2856532207e+000,4.6530897046e+000,3.3877464190e+000,3.7521647241e+000,4.9166588163e+000,4.9060209504e+000,2.8761655380e+000,3.5984613763e+000,2.0111056961e+000,3.3384724236e+000,2.6761070190e+000,3.1312008864e+000,
5.6250000000e+000,5.1550714483e+000,4.0398761675e+000,4.3371427081e+000,4.7834672851e+000,3.6075276189e+000,3.9173232632e+000,4.9140734970e+000,4.8919316363e+000,3.0367459123e+000,3.6607915186e+000,2.0547655206e+000,3.3816211901e+000,2.7544645619e+000,3.2194077950e+000,
5.7187500000e+000,5.1629330384e+000,4.0976893176e+000,4.3262195587e+000,4.9281511757e+000,3.6198830248e+000,3.8475688800e+000,4.9002534193e+000,4.9146770459e+000,3.1577882023e+000,3.6158971782e+000,2.1593055264e+000,3.3873472431e+000,2.8415365534e+000,3.2709120141e+000,
5.8125000000e+000,5.1719928339e+000,4.0640802687e+000,4.3484268208e+000,4.9318760774e+000,3.6389172303e+000,3.8667430376e+000,4.8310797143e+000,4.8593788868e+000,3.1693403422e+000,3.6841296620e+000,2.1055026789e+000,3.4059595444e+000,2.9915399225e+000,3.3913015501e+000,
5.9062500000e+000,5.1686964075e+000,4.0669634875e+000,4.3502376941e+000,4.9683474029e+000,3.6553908634e+000,3.9237935406e+000,4.9718306266e+000,4.9201251550e+000,3.1843721744e+000,3.8422858403e+000,2.1006762689e+000,3.5173168362e+000,3.0608713590e+000,3.5332059424e+000,
6.0000000000e+000,5.1621174389e+000,4.1620384524e+000,4.3304590041e+000,5.0800640234e+000,3.6255682433e+000,3.8960711114e+000,5.5289286672e+000,4.9054099086e+000,3.1283613401e+000,3.9592813838e+000,2.0647503866e+000,3.6631349233e+000,3.2012524108e+000,3.5296409554e+000,
6.0937500000e+000,4.2482937305e+000,4.1749404538e+000,3.7759854867e+000,5.1108561648e+000,3.5749211670e+000,3.8164659042e+000,5.5037509232e+000,4.8503900326e+000,2.9201913922e+000,4.0892968277e+000,1.9884711079e+000,3.7193612712e+000,3.1434846957e+000,3.5123651967e+000,
6.1875000000e+000,3.6560125924e+000,4.1533555717e+000,3.4212713809e+000,5.1336043082e+000,3.5650384264e+000,3.8278062537e+000,5.4787518432e+000,4.8465911418e+000,2.9645232117e+000,4.1290391419e+000,2.0195786376e+000,3.6551082181e+000,3.1739875223e+000,3.5130146845e+000,
6.2812500000e+000,3.4975103904e+000,4.1902404266e+000,3.3258648547e+000,5.1203654655e+000,3.5598227084e+000,3.8486304409e+000,5.3322407864e+000,4.9734407116e+000,2.9857482937e+000,4.1573187937e+000,2.0001614433e+000,3.6456336474e+000,3.1695493398e+000,3.4803046753e+000,
6.3750000000e+000,3.4675040662e+000,4.1568510682e+000,3.2799857128e+000,5.0106339311e+000,3.5308086156e+000,3.8300884082e+000,5.2895727493e+000,5.0399652173e+000,2.9463748755e+000,4.1649050094e+000,1.9354511904e+000,3.6456825088e+000,3.2040408565e+000,3.5139751211e+000,
6.4687500000e+000,3.4872916338e+000,4.1784289267e+000,3.3016844771e+000,4.9581204516e+000,3.6027311145e+000,3.8408652363e+000,5.2830334426e+000,5.0090422797e+000,3.0141098375e+000,4.1579176594e+000,2.0145211887e+000,3.5872854289e+000,3.2578580151e+000,3.4444565289e+000,
6.5625000000e+000,3.5308801298e+000,4.1905745104e+000,3.2479115385e+000,4.7835750336e+000,3.6065064408e+000,3.7969827347e+000,5.3248533084e+000,5.0229829049e+000,2.8967868189e+000,4.2197036776e+000,2.0533206564e+000,3.5943997847e+000,3.3421256508e+000,3.4731973676e+000,
6.6562500000e+000,3.3354014744e+000,4.1544782867e+000,3.2174210829e+000,4.5896700233e+000,3.5289919616e+000,3.7712585862e+000,5.2676719516e+000,4.9702082640e+000,2.7831421779e+000,4.1873045730e+000,1.9918188174e+000,3.5584419493e+000,3.2945983932e+000,3.3754430446e+000,
6.7500000000e+000,3.3012866905e+000,4.1790782182e+000,3.2085686893e+000,4.5519979657e+000,3.4562688981e+000,3.8713794108e+000,5.4266019064e+000,5.0279352622e+000,2.6266279088e+000,4.2080466410e+000,1.9394684386e+000,3.5752750365e+000,3.1907312514e+000,3.4076066884e+000,
6.8437500000e+000,3.1817299069e+000,4.1899128394e+000,3.1348438875e+000,4.5058729845e+000,3.3623330079e+000,3.7697222974e+000,5.5456847446e+000,4.9995539140e+000,2.5817648041e+000,4.1279241056e+000,2.0107671972e+000,3.5475441162e+000,3.0690606459e+000,3.3158844777e+000,
6.9375000000e+000,3.2030223380e+000,4.2160274179e+000,3.1435058213e+000,4.3555939081e+000,3.3954736133e+000,3.7429612915e+000,5.3766006467e+000,4.9396072448e+000,2.6189228948e+000,4.0433923979e+000,1.9980920118e+000,3.3643427862e+000,2.8962998939e+000,3.2440637338e+000,
7.0312500000e+000,3.1948218039e+000,4.0595456443e+000,3.1669895763e+000,4.1703686623e+000,3.4933122100e+000,3.7639705888e+000,4.9341988379e+000,4.8790236317e+000,2.6543236729e+000,3.9638782086e+000,1.9878675831e+000,3.3273632972e+000,2.8484108462e+000,3.2531094973e+000,
7.1250000000e+000,3.0701447573e+000,4.1254860312e+000,2.9754012794e+000,3.8616291809e+000,3.4670548663e+000,3.7453543880e+000,5.0310114085e+000,4.7842411392e+000,2.6379559013e+000,3.6627991093e+000,2.0437676153e+000,3.2256032309e+000,2.8876765335e+000,3.2614266589e+000,
7.2187500000e+000,3.0773068049e+000,4.2135652416e+000,3.0122813430e+000,3.8984257462e+000,3.4888192514e+000,3.7972308886e+000,5.1834706198e+000,4.6732215648e+000,2.7130788618e+000,3.6957179655e+000,1.9886915259e+000,3.2524552849e+000,2.9592980266e+000,3.3335812212e+000,
7.3125000000e+000,5.4715965897e+000,5.8380250620e+000,5.4603867929e+000,1.0641094266e+001,4.5720402823e+000,4.6619687716e+000,6.2839507293e+000,5.5975276391e+000,4.4283468806e+000,4.5444745750e+000,4.5149353850e+000,4.2347453947e+000,4.5265304755e+000,4.4133706194e+000,
7.4062500000e+000,5.6193469562e+000,6.0990181333e+000,5.6060192097e+000,1.1079454878e+001,4.6779728987e+000,4.7662265289e+000,7.1472747157e+000,5.7988348250e+000,4.4965006365e+000,4.5907568897e+000,4.5798033969e+000,4.3107387171e+000,4.5741870196e+000,4.4871546632e+000,
7.5000000000e+000,5.6229916386e+000,6.1688655386e+000,5.6088366049e+000,1.1136962519e+001,4.7054346083e+000,4.8878073532e+000,7.9890330726e+000,5.8395072958e+000,4.5024210835e+000,4.6286746806e+000,4.5734009404e+000,4.3299253447e+000,4.5929567091e+000,4.4865606618e+000,
7.5937500000e+000,5.6204808058e+000,6.1724398891e+000,5.6065655482e+000,1.1145145168e+001,4.6998229870e+000,4.9410263505e+000,8.0227943102e+000,5.8226282694e+000,4.5169561926e+000,4.6196389660e+000,4.5736019151e+000,4.3316958311e+000,4.5728737834e+000,4.4698501433e+000,
7.6875000000e+000,5.6233672360e+000,6.1547603275e+000,5.6046502076e+000,1.1145487844e+001,4.6687337108e+000,4.8536098918e+000,8.0376857914e+000,5.7869544918e+000,4.5120917892e+000,4.6036540943e+000,4.5681724872e+000,4.3319957570e+000,4.5860700721e+000,4.5213767654e+000,
7.7812500000e+000,5.6224906372e+000,6.1466160479e+000,5.6076192459e+000,1.1145482672e+001,4.6793278225e+000,4.8667613724e+000,8.0276646946e+000,5.8199038015e+000,4.5267395068e+000,4.6006308217e+000,4.5640069602e+000,4.3576563476e+000,4.6029414645e+000,4.5614062872e+000,
7.8750000000e+000,5.6346201726e+000,6.1513795763e+000,5.6105249629e+000,1.1145576861e+001,4.7058825937e+000,4.8944833476e+000,8.0201046731e+000,5.8424391125e+000,4.5470397698e+000,4.6343626458e+000,4.5642706798e+000,4.4201402228e+000,4.6104455338e+000,4.5846835169e+000,
7.9687500000e+000,5.6497157951e+000,6.1802917910e+000,5.6213930251e+000,1.1145644062e+001,4.7226027031e+000,4.9830725371e+000,8.0192491361e+000,5.8687385711e+000,4.5522806836e+000,4.7169192329e+000,4.5621071872e+000,4.4789758956e+000,4.6038838880e+000,4.5911167722e+000,
8.0625000000e+000,5.6789240036e+000,6.1915900970e+000,5.6430718026e+000,1.1145707592e+001,4.7328811607e+000,5.0138695804e+000,8.0580905771e+000,5.8945089655e+000,4.5660423261e+000,4.7760688775e+000,4.5615896746e+000,4.4885033471e+000,4.6023646653e+000,4.6044768484e+000,
8.1562500000e+000,5.6785530166e+000,6.1874033887e+000,5.6446802526e+000,1.1145712079e+001,4.7305167379e+000,5.0148411235e+000,8.0779752189e+000,5.9117155336e+000,4.5727224987e+000,4.7780277911e+000,4.5616778227e+000,4.4881431122e+000,4.5987928465e+000,4.5951396714e+000,
8.2500000000e+000,5.6754978402e+000,6.1733891486e+000,5.6421572884e+000,1.1145233825e+001,4.7052131737e+000,4.9781137768e+000,8.0703974297e+000,5.8928325012e+000,4.5326844358e+000,4.7556296165e+000,4.5545790314e+000,4.4802836504e+000,4.5837945208e+000,4.5787414447e+000,
8.3437500000e+000,3.9700790322e+000,4.9936221612e+000,3.7135049068e+000,9.7614288481e+000,3.8345188871e+000,4.3565411561e+000,7.8315698982e+000,5.2153741936e+000,3.2570222761e+000,4.1229593922e+000,2.2279046830e+000,3.8263587184e+000,3.1519022679e+000,3.7105191221e+000,
8.4375000000e+000,3.8148612996e+000,4.6139153029e+000,3.5756970377e+000,7.9031437545e+000,3.6426535131e+000,4.2669457337e+000,7.3044424873e+000,4.9631740427e+000,3.0393007682e+000,4.0055935686e+000,1.6871340484e+000,3.7169635705e+000,3.0130402315e+000,3.6165641458e+000,
8.5312500000e+000,3.9706083936e+000,4.5163707751e+000,3.7626623228e+000,6.0818704419e+000,3.7381476334e+000,4.1201125051e+000,5.9397945249e+000,4.9982720691e+000,3.1265574243e+000,4.1130135726e+000,1.7286358944e+000,3.9125491124e+000,3.0565226990e+000,3.7232957167e+000,
8.6250000000e+000,3.9983304804e+000,4.4781738510e+000,3.7672697587e+000,4.2231290741e+000,3.7344238356e+000,4.0803470922e+000,5.7864015938e+000,5.0596337173e+000,3.0339234387e+000,4.0708795905e+000,1.8978716224e+000,3.8509161122e+000,3.0452501250e+000,3.6686408837e+000,
8.7187500000e+000,4.0394267069e+000,4.4237576160e+000,3.8094196326e+000,4.0340454602e+000,3.7426226502e+000,4.0604880618e+000,6.0623026312e+000,5.0761557962e+000,2.9936092874e+000,4.0060231194e+000,1.8993192105e+000,3.8254609762e+000,3.0311219667e+000,3.4228983484e+000,
8.8125000000e+000,4.0654222748e+000,4.3942361278e+000,3.8047677556e+000,3.9661537891e+000,3.7385354871e+000,4.0496790915e+000,6.1187580599e+000,5.0170252854e+000,2.9524963046e+000,3.9974041990e+000,1.9196490986e+000,3.8045290449e+000,2.9087749800e+000,3.3262353024e+000,
8.9062500000e+000,3.9721962723e+000,4.2212695220e+000,3.7287791990e+000,3.6889185335e+000,3.6195672265e+000,3.7832772783e+000,6.1196771261e+000,4.9556295450e+000,2.8102894824e+000,3.7814052445e+000,2.0043795086e+000,3.5517426867e+000,2.9021804591e+000,3.1876536212e+000,
9.0000000000e+000,3.8604614692e+000,4.0529718632e+000,3.6322018218e+000,3.6220727898e+000,3.5268550276e+000,3.5265999999e+000,6.1289199650e+000,4.9312040666e+000,2.8655802680e+000,3.6198395405e+000,2.0469319805e+000,3.4578893864e+000,2.9020695133e+000,3.1109360359e+000,
9.0937500000e+000,3.6917690851e+000,3.9791923949e+000,3.5442245513e+000,3.4772099370e+000,3.3963453567e+000,3.3714429167e+000,5.6035777659e+000,4.9682428926e+000,2.8246608055e+000,3.5496661149e+000,2.1028587527e+000,3.4746493890e+000,2.8868474839e+000,3.2724943393e+000,
9.1875000000e+000,3.7139434490e+000,4.0203629327e+000,3.5534959926e+000,3.5056149682e+000,3.3885456081e+000,3.4756268896e+000,5.5464110478e+000,4.9869742316e+000,2.8355519431e+000,3.6126919868e+000,2.1501521748e+000,3.4671782162e+000,2.9444743894e+000,3.3460108890e+000,
9.2812500000e+000,3.6231901298e+000,4.0235685516e+000,3.4099638459e+000,3.5023932587e+000,3.3570042999e+000,3.4739224713e+000,5.5356146345e+000,5.0225834015e+000,2.8825044491e+000,3.5187428854e+000,2.1327346939e+000,3.3800559970e+000,2.9761197999e+000,3.3205870889e+000,
9.3750000000e+000,3.5912490378e+000,3.9623531989e+000,3.4465534314e+000,3.5001592003e+000,3.3819424506e+000,3.5277084815e+000,5.4734012832e+000,4.9860857824e+000,2.8842334728e+000,3.5268821748e+000,2.1468585148e+000,3.3964837232e+000,3.0344246694e+000,3.4273756571e+000,
9.4687500000e+000,3.5691021355e+000,3.9857112790e+000,3.4278069725e+000,3.5410258083e+000,3.3505471017e+000,3.5464662277e+000,5.4610387290e+000,5.0049465470e+000,2.9219672156e+000,3.5354316363e+000,2.2153898547e+000,3.3943353427e+000,2.9932078882e+000,3.4380198085e+000,
9.5625000000e+000,3.3389125930e+000,3.6769409175e+000,3.1454894782e+000,3.2140525019e+000,3.0466575705e+000,3.2103300129e+000,5.4851748514e+000,5.0568183453e+000,2.8345018361e+000,3.2446647350e+000,2.1470851265e+000,3.0578980387e+000,2.9136096873e+000,3.2739173924e+000,
9.6562500000e+000,3.2052467440e+000,3.7652759132e+000,3.1068433232e+000,3.2350508460e+000,3.0671537761e+000,3.2727911602e+000,5.3397179766e+000,5.0220466012e+000,2.8611618080e+000,3.2062166640e+000,2.0930343871e+000,3.0539220123e+000,2.9637444446e+000,3.2805186714e+000,
9.7500000000e+000,3.0089044356e+000,3.8522321396e+000,2.9169325988e+000,3.4713082814e+000,3.1077503865e+000,3.3198644862e+000,4.5344948532e+000,5.0397392273e+000,2.8994012558e+000,3.3581192312e+000,2.0535991110e+000,3.0479588068e+000,2.9254553697e+000,3.2514702137e+000,
9.8437500000e+000,2.9433929772e+000,3.8481832392e+000,2.8743891232e+000,3.5276635846e+000,3.1216589765e+000,3.3191928250e+000,4.4083966209e+000,5.1197298937e+000,2.9087653810e+000,3.4613035211e+000,2.0162547880e+000,2.9872339666e+000,2.8918528079e+000,3.1435393908e+000,
9.9375000000e+000,3.0716385832e+000,3.8567628428e+000,2.9410927921e+000,3.5648186319e+000,3.1333746077e+000,3.4120629722e+000,4.6596358573e+000,5.1029719778e+000,2.9776498774e+000,3.4781449582e+000,1.9436272790e+000,3.1311366983e+000,2.9053732659e+000,3.0766083469e+000,
1.0031250000e+001,3.1185418217e+000,3.8826376714e+000,2.9147283369e+000,3.6174370444e+000,3.1057815898e+000,3.4194486333e+000,4.6203137940e+000,5.0902907817e+000,2.8210454251e+000,3.4537414262e+000,1.9147802465e+000,3.1495960694e+000,2.9553776994e+000,3.0144097781e+000,
1.0125000000e+001,3.0871540597e+000,3.9050209429e+000,2.8383773561e+000,3.6094906341e+000,3.1457060969e+000,3.4010210618e+000,4.6394378738e+000,5.1678729714e+000,2.8651482045e+000,3.3238008719e+000,1.8096794499e+000,3.0103291774e+000,2.8870376267e+000,2.7639828474e+000,
1.0218750000e+001,3.1529356051e+000,3.9140332424e+000,2.8428338383e+000,3.6285449233e+000,3.2014180059e+000,3.3716132066e+000,4.6353622116e+000,5.1545441115e+000,2.8038055122e+000,3.3659881470e+000,1.8472782159e+000,3.1963838069e+000,3.0232337880e+000,2.8475462208e+000,
1.0312500000e+001,3.4337653767e+000,4.0166762230e+000,3.0959260260e+000,3.6958607048e+000,3.3039113053e+000,3.4940927928e+000,4.6438794178e+000,5.1640330802e+000,2.8388680735e+000,3.5078897431e+000,2.0288833850e+000,3.3777570678e+000,3.0648466303e+000,2.9248109569e+000,
1.0406250000e+001,3.7159808078e+000,4.0857350606e+000,3.2970947685e+000,3.6920866221e+000,3.5229914683e+000,3.6758880629e+000,4.5929666689e+000,5.1027692530e+000,2.9071590749e+000,3.6148048314e+000,2.0320463939e+000,3.4564085716e+000,2.9936334376e+000,2.7099585108e+000,
1.0500000000e+001,3.7795488619e+000,4.0929446066e+000,3.3630068119e+000,3.7503630373e+000,3.5833247328e+000,3.7249633182e+000,4.4906712241e+000,4.9935487060e+000,2.8639476802e+000,3.6811695988e+000,1.9871646841e+000,3.5250763889e+000,2.9033797049e+000,2.8082815492e+000,
1.0593750000e+001,3.8763736358e+000,4.1750074101e+000,3.5014079363e+000,3.9362124852e+000,3.6429029358e+000,3.8654299079e+000,4.4503715340e+000,4.8513956697e+000,2.8044498209e+000,4.0203003482e+000,2.0458525789e+000,3.8259474516e+000,2.8968152107e+000,3.0387063657e+000,
1.0687500000e+001,3.9302675000e+000,4.3022466643e+000,3.5983364200e+000,3.9996185378e+000,3.6994793178e+000,4.0103342702e+000,4.4516896539e+000,4.8919575225e+000,2.9286506544e+000,4.4209746287e+000,2.0936278625e+000,4.0819662038e+000,2.9787874676e+000,3.4912821316e+000,
1.0781250000e+001,3.9586181343e+000,4.3573258941e+000,3.6127128829e+000,4.0413031509e+000,3.6903558082e+000,4.0557876126e+000,4.3518414098e+000,4.9007742357e+000,2.9087690403e+000,4.3462555027e+000,2.1871192286e+000,4.0753267575e+000,2.9439783814e+000,3.5743264462e+000,
1.0875000000e+001,3.9730533790e+000,4.3380834904e+000,3.6447330525e+000,4.0351952006e+000,3.6923337929e+000,4.0466119657e+000,4.2458344898e+000,5.0770172501e+000,2.9536828743e+000,4.3749609220e+000,2.2183452303e+000,4.0966155060e+000,2.9347772517e+000,3.6083312109e+000,
1.0968750000e+001,4.0563900106e+000,4.3533380121e+000,3.7308343396e+000,4.0813989217e+000,3.8938226314e+000,4.0800386304e+000,3.9157335861e+000,5.1390925813e+000,3.0647317292e+000,4.4428066236e+000,2.3262135383e+000,4.1179202222e+000,2.9302155414e+000,3.6490051136e+000,
1.1062500000e+001,4.1300575793e+000,4.3294397046e+000,3.8177780569e+000,4.0519141566e+000,3.9275300767e+000,4.0877452528e+000,3.9436135983e+000,5.1600124446e+000,3.1691259018e+000,4.4499460149e+000,2.3637277569e+000,4.0763581427e+000,2.8949053839e+000,3.7024694538e+000,
1.1156250000e+001,4.1643635334e+000,4.3209394395e+000,3.8450100171e+000,4.0698139032e+000,4.0196965965e+000,4.0961924365e+000,4.5601409217e+000,5.0412547652e+000,3.2013389017e+000,4.4382935820e+000,2.3659779508e+000,4.0587223683e+000,2.8935861350e+000,3.6382733463e+000,
1.1250000000e+001,4.1248654917e+000,4.3037259808e+000,3.8140281704e+000,4.0784463517e+000,4.0050206817e+000,4.0735872025e+000,4.7844910563e+000,4.9418258092e+000,3.2059763819e+000,4.4414400143e+000,2.3315722935e+000,4.0485924158e+000,2.7790331636e+000,3.6578442158e+000,
1.1343750000e+001,3.9584552942e+000,4.2237173938e+000,3.6677077371e+000,4.0713740669e+000,3.9324311742e+000,3.9240069839e+000,4.7491155908e+000,4.9205890403e+000,3.1121989322e+000,4.3832213635e+000,2.1763852327e+000,3.9483975076e+000,2.7227906891e+000,3.6798387730e+000,
1.1437500000e+001,3.7666455740e+000,4.1617987046e+000,3.5439824567e+000,4.0312095411e+000,3.8608535414e+000,3.8203174309e+000,4.7419416998e+000,4.9703048455e+000,3.1024246447e+000,4.3562339853e+000,2.1483829346e+000,3.9350461455e+000,2.7903078272e+000,3.7132719235e+000,
1.1531250000e+001,3.6944498276e+000,4.1573139127e+000,3.4921517941e+000,3.9831813874e+000,3.8260976542e+000,3.7570822969e+000,4.7320190842e+000,5.0207389439e+000,3.1957188139e+000,4.3049545901e+000,2.1601026797e+000,3.8790473571e+000,2.8088758909e+000,3.7087527178e+000,
1.1625000000e+001,3.6052072058e+000,3.9726901556e+000,3.3496635255e+000,3.7180818599e+000,3.7908816757e+000,3.4806659338e+000,4.7256190979e+000,5.0805289102e+000,3.2793512178e+000,3.9860445198e+000,2.1626699762e+000,3.5844770047e+000,2.9555282885e+000,3.6240835979e+000,
1.1718750000e+001,3.5573168329e+000,3.8497628469e+000,3.3028522695e+000,3.5184776696e+000,3.7575960040e+000,3.3976725317e+000,4.7008285500e+000,5.0536502738e+000,3.1378082608e+000,3.5413986186e+000,2.1333019132e+000,3.1664038762e+000,2.8319563410e+000,3.3016392052e+000,
1.1812500000e+001,3.5812891199e+000,3.7551484736e+000,3.3276531797e+000,3.4166902545e+000,3.7875470178e+000,3.3266728679e+000,4.8134760343e+000,4.9328870392e+000,3.1098836704e+000,3.6195697563e+000,2.2248724872e+000,3.1751645828e+000,2.8351369524e+000,3.3000039039e+000,
1.1906250000e+001,3.5186931268e+000,3.8479729508e+000,3.2596153921e+000,3.4591051568e+000,3.7875683809e+000,3.3214402322e+000,4.8771888283e+000,4.7985330208e+000,3.0994736421e+000,3.4992631533e+000,2.2407212962e+000,3.0415302868e+000,2.8584238288e+000,3.3154393005e+000,
1.2000000000e+001,3.4119357664e+000,3.8180437951e+000,3.1877010034e+000,3.4506261082e+000,3.6888772444e+000,3.2570027571e+000,5.0884432221e+000,4.8846467890e+000,2.8754427271e+000,3.3149273843e+000,2.1833583841e+000,2.9583295438e+000,2.9347835505e+000,3.3591916322e+000,
1.2093750000e+001,3.2068268922e+000,3.8056720366e+000,2.9574096804e+000,3.3930275647e+000,3.6110907280e+000,3.2064359398e+000,5.0731763826e+000,4.8628121878e+000,2.8775932905e+000,3.2081244106e+000,2.1177130278e+000,3.0123003056e+000,2.9556446611e+000,3.2824261183e+000,
1.2187500000e+001,3.1656901793e+000,3.7934434024e+000,2.9529043279e+000,3.3397891320e+000,3.5173049311e+000,3.2181839433e+000,4.7620122535e+000,4.9351377054e+000,2.8066691076e+000,3.1151584491e+000,2.0890113563e+000,2.8625852571e+000,2.9073724125e+000,3.2139136466e+000,
1.2281250000e+001,3.2496790914e+000,3.7822576358e+000,3.0700469766e+000,3.4039763196e+000,3.5339636749e+000,3.3618908907e+000,4.6792426808e+000,4.9817334279e+000,2.8401610081e+000,3.0777241510e+000,2.0398460231e+000,2.8892351858e+000,3.0816731274e+000,3.2391215958e+000,
1.2375000000e+001,3.2726072571e+000,3.7995430706e+000,3.0962523618e+000,3.3854466147e+000,3.4626287506e+000,3.4144759506e+000,4.6989309623e+000,4.9633795181e+000,2.9324790104e+000,3.1130900902e+000,2.0749960193e+000,2.8200116530e+000,3.0612585691e+000,3.0727725343e+000,
1.2468750000e+001,3.2449097371e+000,3.6785525276e+000,3.0329863050e+000,3.2858406040e+000,3.3470143105e+000,3.3657184160e+000,4.7340350621e+000,5.2698966467e+000,2.7679677875e+000,3.0809091533e+000,2.1532511807e+000,2.8223384563e+000,2.9463254550e+000,2.9662847142e+000,
1.2562500000e+001,3.2337160672e+000,3.6806710085e+000,3.0211906899e+000,3.2805657807e+000,3.3476962820e+000,3.3257027858e+000,4.7524764962e+000,5.2463445359e+000,2.7650548168e+000,3.0625055684e+000,2.0592901445e+000,2.7354210585e+000,2.9426926790e+000,2.8330401874e+000,
1.2656250000e+001,3.1104151665e+000,3.6336952161e+000,2.9658170194e+000,3.2401492377e+000,3.2961024219e+000,3.2622881999e+000,4.7998833248e+000,5.2970550148e+000,2.7261252621e+000,3.0180404895e+000,2.0067645495e+000,2.7766737134e+000,2.7722219834e+000,2.8384087450e+000,
1.2750000000e+001,3.0711214887e+000,3.6416212010e+000,2.9461072149e+000,3.2901599252e+000,3.2984580028e+000,3.1075173216e+000,4.8026603758e+000,5.3255012438e+000,2.7846865786e+000,2.8198511975e+000,1.9418891242e+000,2.7521935192e+000,2.6377082748e+000,2.8264386768e+000,
1.2843750000e+001,3.0765806124e+000,3.7058294996e+000,2.9618260479e+000,3.3002541178e+000,3.3255987798e+000,3.1563677986e+000,4.7102816505e+000,5.2886924742e+000,2.7868664762e+000,2.8028525951e+000,1.8945269200e+000,2.7461570032e+000,2.5782397048e+000,2.8150195700e+000,
1.2937500000e+001,3.1299683212e+000,3.7969697581e+000,3.0881524381e+000,3.3495455602e+000,3.2616507810e+000,3.4710080677e+000,4.5401123926e+000,5.2811421431e+000,2.8081777477e+000,3.0541534135e+000,1.8585915249e+000,2.9428688832e+000,2.4992542625e+000,2.9271402629e+000,
1.3031250000e+001,3.0890929910e+000,3.7446507120e+000,3.0266019373e+000,3.2525754248e+000,3.2553045936e+000,3.4029976841e+000,4.4598000584e+000,5.1953087302e+000,2.8210638329e+000,3.0004406393e+000,1.7354578062e+000,2.9008262530e+000,2.4960172911e+000,2.7747174859e+000,
1.3125000000e+001,3.3098713384e+000,3.8365392320e+000,3.2256810234e+000,3.3795824335e+000,3.3682835153e+000,3.4420771168e+000,4.6387289796e+000,5.1898865682e+000,2.8831806765e+000,3.0672046376e+000,1.8167423264e+000,2.9261990100e+000,2.5299409297e+000,2.8503435987e+000,
1.3218750000e+001,3.4367947513e+000,3.9664327179e+000,3.3332335228e+000,3.5406162338e+000,3.4061869225e+000,3.5123912164e+000,4.6519642690e+000,5.1594474313e+000,3.0179741378e+000,3.2421706176e+000,1.8907185461e+000,2.9475808784e+000,2.4512084595e+000,3.0145092902e+000,
1.3312500000e+001,3.5367064764e+000,3.9644247252e+000,3.4366594007e+000,3.5900093929e+000,3.4269058805e+000,3.4807854495e+000,4.7073067322e+000,5.1657361557e+000,3.1327754838e+000,3.3625054139e+000,2.0496281016e+000,3.1065332902e+000,2.3593849871e+000,3.1346184308e+000,
1.3406250000e+001,3.5178317963e+000,3.9748941135e+000,3.4487056974e+000,3.5361005549e+000,3.5209094657e+000,3.4361401297e+000,4.7186004041e+000,5.1049301232e+000,3.0876073696e+000,3.4126893438e+000,2.0870730778e+000,3.2238626468e+000,2.7015725313e+000,3.2986641936e+000,
1.3500000000e+001,3.4779757371e+000,4.0299097604e+000,3.4157275916e+000,3.5791782691e+000,3.5512564339e+000,3.4482436563e+000,4.6558737744e+000,4.8788322747e+000,3.0462685071e+000,3.4016548481e+000,2.0847795919e+000,3.1916632019e+000,2.7760914058e+000,3.2944322410e+000,
1.3593750000e+001,3.6614512070e+000,4.1660192215e+000,3.5321666754e+000,3.7441329623e+000,3.7191091258e+000,3.6979381956e+000,4.6043636519e+000,4.9977685488e+000,3.0932765501e+000,3.7295719787e+000,2.1862715604e+000,3.3794669122e+000,3.0619133254e+000,3.4571143799e+000,
1.3687500000e+001,3.7465565312e+000,4.2436377760e+000,3.5252978321e+000,3.8221921358e+000,3.7419404877e+000,3.7926943746e+000,4.7278590286e+000,5.0132018188e+000,3.0606022243e+000,3.8783860213e+000,2.1811752256e+000,3.4792794995e+000,3.0691329165e+000,3.5052924040e+000,
1.3781250000e+001,3.7880941901e+000,4.2353266761e+000,3.5896071353e+000,3.8267091349e+000,3.8152319730e+000,3.8478169721e+000,5.1306068432e+000,4.9862420382e+000,3.0747504350e+000,3.9027315390e+000,2.1648450449e+000,3.5114285976e+000,3.1471020482e+000,3.5414836791e+000,
1.3875000000e+001,3.6932516295e+000,4.1305985599e+000,3.4937340439e+000,3.7787964370e+000,3.7110996677e+000,3.7156076417e+000,5.3013666623e+000,5.0064022950e+000,3.0687155761e+000,3.9184784218e+000,2.1368192190e+000,3.5491649225e+000,3.1745897610e+000,3.5749304388e+000,
1.3968750000e+001,3.7848957785e+000,4.1267779758e+000,3.5199015506e+000,3.8147869674e+000,3.7413768232e+000,3.6783809451e+000,5.3880926707e+000,5.0129207176e+000,3.0866355240e+000,3.9110276212e+000,2.2079394710e+000,3.5112205072e+000,3.2098122602e+000,3.5026352968e+000,
1.4062500000e+001,3.8643319556e+000,4.1609831525e+000,3.5567410259e+000,3.9024299694e+000,3.8426454567e+000,3.8077260234e+000,5.2673678895e+000,5.0042578821e+000,3.0626334967e+000,4.0280949539e+000,2.2110795479e+000,3.5341786455e+000,3.1586692959e+000,3.5103930286e+000,
1.4156250000e+001,3.8399687167e+000,4.3421809255e+000,3.4958402523e+000,3.9681564350e+000,3.8703783321e+000,3.9765354811e+000,5.1301922431e+000,4.9301193555e+000,3.1396274483e+000,4.2081981925e+000,2.1778580910e+000,3.6341100530e+000,3.2232002829e+000,3.4341530661e+000,
1.4250000000e+001,3.7916747067e+000,4.2964547285e+000,3.4261396342e+000,3.8982991612e+000,3.8672771865e+000,3.9881712881e+000,5.1115060441e+000,5.0201237377e+000,3.0181371302e+000,4.1485291595e+000,2.1083707626e+000,3.6134421606e+000,3.2601660102e+000,3.3542093270e+000,
1.4343750000e+001,3.7668650199e+000,4.3133319930e+000,3.3846300071e+000,3.9020451955e+000,3.8416566922e+000,4.0142451713e+000,5.0739948563e+000,5.0901841958e+000,2.9481037991e+000,4.1934528301e+000,2.0251224926e+000,3.6101723300e+000,3.1381805308e+000,3.2528711777e+000,
1.4437500000e+001,3.7575473663e+000,4.3067148796e+000,3.3640002263e+000,3.9036232642e+000,3.8468758302e+000,4.0485065567e+000,5.1486480814e+000,5.1302287123e+000,2.8992133116e+000,4.1882707021e+000,1.8967577033e+000,3.6023825845e+000,3.0613649992e+000,3.1877298932e+000,
1.4531250000e+001,3.7320607028e+000,4.2414939046e+000,3.3575647994e+000,3.8458081147e+000,3.8600347768e+000,4.0389475412e+000,5.2737176997e+000,5.2136795571e+000,2.9801496730e+000,4.1841746017e+000,1.8565181333e+000,3.6367716168e+000,3.0663934649e+000,3.0922215022e+000,
1.4625000000e+001,3.6428058112e+000,4.0858816362e+000,3.2585535982e+000,3.6751484115e+000,3.7194649990e+000,3.8382922446e+000,5.2626151692e+000,5.1162142307e+000,2.8877560027e+000,3.9593174479e+000,1.7078821921e+000,3.5703139459e+000,2.7958643281e+000,2.7994873685e+000,
1.4718750000e+001,3.6052216691e+000,4.0750455585e+000,3.2572890003e+000,3.6714898147e+000,3.7165101764e+000,3.8265359245e+000,5.1301223586e+000,5.1353771436e+000,2.9048345755e+000,3.9344957995e+000,1.7139152039e+000,3.4873249773e+000,2.8114937517e+000,2.7546546239e+000,
1.4812500000e+001,3.7146023264e+000,4.2631973307e+000,3.4378228072e+000,3.9754801811e+000,3.7803890716e+000,4.0901272533e+000,4.8277028507e+000,5.2228106571e+000,2.8892103330e+000,4.1091052580e+000,1.7152660157e+000,3.6657586038e+000,2.8118609307e+000,3.1277711248e+000,
1.4906250000e+001,3.8678320778e+000,4.3462145138e+000,3.5706812145e+000,4.0922668018e+000,3.7543276595e+000,4.1236529048e+000,4.3456728058e+000,5.2160351472e+000,2.8540873310e+000,4.0903100410e+000,1.6549544486e+000,3.6036256795e+000,2.7985552926e+000,3.0932048527e+000,
1.5000000000e+001,3.7708765242e+000,4.3132687956e+000,3.4818134625e+000,4.0573053972e+000,3.6827931023e+000,4.1382927612e+000,4.3433990259e+000,5.2131603566e+000,2.9141681602e+000,4.1039354901e+000,1.7463984350e+000,3.6092140050e+000,2.9517698237e+000,3.0853796688e+000,
1.5093750000e+001,3.6673520510e+000,4.2464058518e+000,3.4253217990e+000,3.9326590399e+000,3.4872422744e+000,4.0273816899e+000,4.3785775880e+000,5.2501071032e+000,2.9346703128e+000,3.9165661976e+000,1.8049572113e+000,3.4572750615e+000,2.8879466143e+000,3.0721352516e+000,
1.5187500000e+001,3.4551726162e+000,4.0378277005e+000,3.2838884795e+000,3.7764066017e+000,3.3418273175e+000,3.8233486926e+000,4.5148379547e+000,5.2731366962e+000,2.8134038786e+000,3.7437288107e+000,1.6858617265e+000,3.4758545468e+000,2.8477576919e+000,3.1306363532e+000,
1.5281250000e+001,3.5073296716e+000,4.0732668226e+000,3.2967895517e+000,3.7803130211e+000,3.4393196837e+000,3.8187122024e+000,4.5303166595e+000,5.1722344349e+000,2.8848992539e+000,3.7321991689e+000,1.7304185512e+000,3.5890773119e+000,2.9021159011e+000,3.2180851439e+000,
1.5375000000e+001,3.4408891395e+000,4.0590588368e+000,3.2520319745e+000,3.7776250915e+000,3.3612475890e+000,3.7643691855e+000,4.5519984526e+000,5.1549579181e+000,2.9062566231e+000,3.6920568488e+000,1.7658539281e+000,3.5617830665e+000,2.9398395676e+000,3.1916550971e+000,
1.5468750000e+001,3.4354096903e+000,4.0924275870e+000,3.2550235445e+000,3.7990737461e+000,3.3361312519e+000,3.7351685849e+000,4.3889969046e+000,5.1152179148e+000,2.8944728082e+000,3.7392155002e+000,1.8144484684e+000,3.5323535490e+000,2.8492598865e+000,3.2777446845e+000,
1.5562500000e+001,3.4651399652e+000,4.0454877188e+000,3.2645117324e+000,3.8278813390e+000,3.2586251715e+000,3.7638113712e+000,4.1440284755e+000,5.0304710200e+000,2.8847681507e+000,3.7219439695e+000,1.9191738780e+000,3.4255986662e+000,2.8703690967e+000,3.2845226046e+000,
1.5656250000e+001,3.4339828371e+000,4.0617075132e+000,3.2713506043e+000,3.9251792149e+000,3.3396294663e+000,3.8471208534e+000,4.0395126215e+000,4.9938364060e+000,3.0014868353e+000,3.7129462142e+000,2.0050609628e+000,3.4945204932e+000,2.8515485888e+000,3.2775431151e+000,
1.5750000000e+001,3.4155286407e+000,4.0324171627e+000,3.2414824978e+000,3.8388608150e+000,3.3969870710e+000,3.7971141138e+000,4.0636313383e+000,4.9602744135e+000,3.0813790070e+000,3.6755894125e+000,2.0895357695e+000,3.4905399924e+000,2.7834091883e+000,3.1659876302e+000,
1.5843750000e+001,3.1246760673e+000,3.7595488596e+000,2.9087091530e+000,3.4929316953e+000,3.2300079406e+000,3.4663622366e+000,4.1974860745e+000,4.9963260815e+000,3.0785452360e+000,3.4254849678e+000,2.0648032314e+000,3.3632663647e+000,2.7178439356e+000,2.8495793375e+000,
1.5937500000e+001,2.9325953137e+000,3.6619483140e+000,2.8300538024e+000,3.3368144313e+000,3.3310327273e+000,3.4025146957e+000,4.3903371335e+000,5.0318481813e+000,2.9553882079e+000,3.3516886025e+000,2.0377195703e+000,3.4451849317e+000,2.7367946977e+000,2.7941081585e+000,
1.6031250000e+001,3.0968767555e+000,3.6652730557e+000,2.9619466985e+000,3.3114739194e+000,3.4221090689e+000,3.3198314186e+000,4.3816188984e+000,5.0747659465e+000,2.9681793594e+000,3.2002486537e+000,1.9212471543e+000,3.3867235989e+000,2.5357139552e+000,2.7200219519e+000,
1.6125000000e+001,3.1067953188e+000,3.6440498514e+000,2.9965115086e+000,3.2976700992e+000,3.4622710659e+000,3.2953670233e+000,4.3224047683e+000,5.0649002135e+000,3.0259881936e+000,3.2530972259e+000,1.9297088624e+000,3.3743846281e+000,2.4818454702e+000,2.7528047142e+000,
1.6218750000e+001,3.1539332022e+000,3.6455607808e+000,3.0204991016e+000,3.3730104048e+000,3.4802913106e+000,3.3755091982e+000,4.2361362720e+000,5.0185367378e+000,2.9795276179e+000,3.2188355725e+000,1.9512469422e+000,3.2492213832e+000,2.5152266631e+000,2.7252950481e+000,
1.6312500000e+001,3.1870388755e+000,3.6272525480e+000,3.0963546671e+000,3.4959553574e+000,3.4399667922e+000,3.4149686457e+000,4.3630874096e+000,4.9945936640e+000,2.9601290008e+000,3.1985081757e+000,1.9945600619e+000,3.1404375063e+000,2.4551147850e+000,2.6941940500e+000,
1.6406250000e+001,3.1740412302e+000,3.5780845270e+000,3.0880636247e+000,3.4138659584e+000,3.4187038611e+000,3.4627366193e+000,4.4275654071e+000,4.9963609153e+000,2.9840039501e+000,3.2650998574e+000,2.0140502750e+000,3.1032811891e+000,2.4033284708e+000,2.6956645508e+000,
1.6500000000e+001,3.4163285984e+000,3.8572924500e+000,3.2925017237e+000,3.7043094556e+000,3.5548675313e+000,3.8147799715e+000,4.5510676920e+000,5.0304001492e+000,3.0544281210e+000,3.5024290584e+000,1.9948528833e+000,3.3534193756e+000,2.3056468812e+000,2.6430839709e+000,
1.6593750000e+001,3.4554611426e+000,3.9853772285e+000,3.3125525005e+000,3.7357671804e+000,3.5647175602e+000,3.8616351552e+000,4.7540027379e+000,5.0663381065e+000,2.9825681621e+000,3.5386916440e+000,1.9530340164e+000,3.4521200320e+000,2.4139073284e+000,2.6673660217e+000,
1.6687500000e+001,3.6500168900e+000,4.3991281166e+000,3.5139128729e+000,3.9540388414e+000,3.7799899123e+000,4.0849192754e+000,4.9322867175e+000,5.0649115681e+000,2.9511441182e+000,3.8107880609e+000,1.8662566709e+000,3.6271703054e+000,2.4247288726e+000,2.8814269876e+000,
1.6781250000e+001,3.7209374491e+000,4.4497925299e+000,3.6183698851e+000,4.0087299217e+000,3.8328388826e+000,4.1071089582e+000,4.9276217960e+000,5.0824502223e+000,2.9929132622e+000,3.8064560985e+000,1.8051142603e+000,3.7292940969e+000,2.4507641210e+000,2.9296866706e+000,
1.6875000000e+001,3.8496179153e+000,4.6027668188e+000,3.7171506032e+000,4.2613165309e+000,3.8787680629e+000,4.2173393505e+000,4.9715694366e+000,4.9696426334e+000,3.2341439323e+000,3.8025180897e+000,1.8031129754e+000,3.7430794256e+000,2.5085707383e+000,3.0014122772e+000,
1.6968750000e+001,4.0043763724e+000,4.7196671816e+000,3.8741350247e+000,4.4209218635e+000,3.8706236461e+000,4.3114910927e+000,5.0106354393e+000,4.9399392250e+000,3.2747667077e+000,3.9688403193e+000,1.8943598450e+000,3.7510027078e+000,2.6295197667e+000,3.1243041430e+000,
1.7062500000e+001,3.9889944454e+000,4.7410522968e+000,3.8875687310e+000,4.4350312095e+000,3.8262259631e+000,4.3316478465e+000,5.0396708821e+000,4.8966586987e+000,3.3340757485e+000,4.0538229501e+000,1.9031041942e+000,3.8268429636e+000,2.7042556538e+000,3.2006138624e+000,
1.7156250000e+001,4.0030155812e+000,4.7539673415e+000,3.9034324149e+000,4.4383235365e+000,3.8166944860e+000,4.3812022763e+000,5.0478505108e+000,4.9848893038e+000,3.3043645261e+000,4.0230066849e+000,1.8693743930e+000,3.8967862723e+000,2.9717044561e+000,3.2004307199e+000,
1.7250000000e+001,4.1130996181e+000,4.7554721510e+000,3.9146180499e+000,4.4008012801e+000,3.7983409215e+000,4.3501549253e+000,5.0371073530e+000,4.9940070465e+000,3.3616590132e+000,4.0232378820e+000,1.9548006973e+000,3.8991060911e+000,2.9483159780e+000,3.1575482000e+000,
1.7343750000e+001,4.2256682942e+000,4.8525392522e+000,3.9986955809e+000,4.4673005698e+000,3.9280607632e+000,4.4670372930e+000,4.9375843364e+000,5.1228567010e+000,3.4494938072e+000,4.0031748804e+000,1.8714845347e+000,3.9398343078e+000,3.0965318877e+000,3.2596229523e+000,
1.7437500000e+001,4.2551359263e+000,4.9060252730e+000,3.9972416527e+000,4.5317767834e+000,3.9573519072e+000,4.4278663844e+000,4.8696386378e+000,5.2016437846e+000,3.4167592154e+000,3.9685714446e+000,1.8144480570e+000,3.9087671533e+000,3.3179044041e+000,3.3729699450e+000,
1.7531250000e+001,4.2265418961e+000,4.8523089732e+000,4.0187731582e+000,4.4476480719e+000,4.0357597793e+000,4.3302295744e+000,4.8863002584e+000,5.2948916423e+000,3.5013338977e+000,3.7757449438e+000,1.9049917142e+000,3.7970036563e+000,3.3670686705e+000,3.3554410709e+000,
1.7625000000e+001,4.2069194420e+000,4.8780323567e+000,4.0245717287e+000,4.5133060111e+000,4.0377749947e+000,4.3168736488e+000,4.7080057477e+000,5.1974108477e+000,3.5903682769e+000,3.7195343338e+000,1.9504380343e+000,3.6777698505e+000,3.3753453111e+000,3.4350784079e+000,
1.7718750000e+001,4.1717401224e+000,4.7417060799e+000,3.9845751284e+000,4.4415514687e+000,3.9626909874e+000,4.2082872077e+000,4.6115664185e+000,5.1674458180e+000,3.5416569518e+000,3.5988065778e+000,2.0243982365e+000,3.5261367460e+000,3.4640190957e+000,3.4387447357e+000,
1.7812500000e+001,4.1744204048e+000,4.7266000242e+000,3.9872384209e+000,4.4682904559e+000,3.9732693840e+000,4.3405022713e+000,4.5544818626e+000,5.1312042073e+000,3.5312723230e+000,4.3750610682e+000,2.0289634998e+000,3.8042198441e+000,3.6234392452e+000,3.5331476276e+000,
1.7906250000e+001,4.1172169693e+000,4.8011498188e+000,3.9695413187e+000,4.4611803309e+000,3.9640519553e+000,4.3784202134e+000,4.4854322622e+000,5.2466024321e+000,3.4186037476e+000,4.5096038062e+000,1.9849754181e+000,3.8757901197e+000,3.6676713453e+000,3.5718054871e+000,
1.8000000000e+001,4.1340935239e+000,4.8175302178e+000,3.9295962941e+000,4.4664932937e+000,4.0552382063e+000,4.4531575892e+000,4.3885741340e+000,5.2687269009e+000,3.4044272148e+000,4.4068891492e+000,1.9656165017e+000,3.8278645626e+000,3.7130822165e+000,3.5040096507e+000,
1.8093750000e+001,4.1578179727e+000,4.8423118741e+000,3.9151613142e+000,4.5327655872e+000,4.1171762031e+000,4.4629088694e+000,4.4525809816e+000,5.3297881873e+000,3.3444069969e+000,4.4391114865e+000,1.9426000021e+000,3.7993200780e+000,3.7750740910e+000,3.5748258299e+000,
1.8187500000e+001,4.3370540014e+000,4.8963725540e+000,4.1124670173e+000,4.6034642860e+000,4.3321389097e+000,4.4824962010e+000,4.5142250708e+000,5.3049166650e+000,3.4525909816e+000,4.4674327536e+000,1.9290986551e+000,3.7593057670e+000,3.7096884835e+000,3.5969562631e+000,
1.8281250000e+001,4.1446245356e+000,4.8570379056e+000,4.0087880297e+000,4.5841205011e+000,4.2696885408e+000,4.4477810714e+000,4.5602999290e+000,5.3296623296e+000,3.4317676948e+000,4.4824334855e+000,1.7845478493e+000,3.7737491901e+000,3.7413727014e+000,3.6386976608e+000,
1.8375000000e+001,4.1162516141e+000,4.7561820552e+000,3.9738131967e+000,4.5159758097e+000,4.2325889232e+000,4.4061471538e+000,4.5322703333e+000,5.2829796537e+000,3.2977816627e+000,4.5282361388e+000,1.8047629398e+000,3.7717454579e+000,3.7694379074e+000,3.5870055228e+000,
1.8468750000e+001,4.1488645381e+000,4.7771116053e+000,4.0281048846e+000,4.5151516593e+000,4.2879064360e+000,4.4210590487e+000,4.6759487356e+000,5.1751072027e+000,3.3589034766e+000,4.5347237310e+000,1.8186008149e+000,3.7915471178e+000,3.7049079036e+000,3.5259357482e+000,
1.8562500000e+001,4.0941214853e+000,4.7049054166e+000,3.9780390954e+000,4.4864606323e+000,4.1628981911e+000,4.3666268623e+000,4.9266905484e+000,5.1249690141e+000,3.3802155246e+000,4.5768197124e+000,1.7822343524e+000,3.8545204883e+000,3.6468551072e+000,3.4567110994e+000,
1.8656250000e+001,4.0467781093e+000,4.6339917509e+000,3.9276330376e+000,4.4131960170e+000,4.1259470838e+000,4.3376452491e+000,4.9190436352e+000,5.2458137751e+000,3.2768160479e+000,4.6423059037e+000,1.7388102274e+000,3.9429371043e+000,3.6996409579e+000,3.4442579912e+000,
1.8750000000e+001,3.9729108223e+000,4.5448944134e+000,3.8407644664e+000,4.3250060950e+000,4.0398363436e+000,4.1757692843e+000,4.9128426830e+000,5.3437475178e+000,3.3422956426e+000,4.4051974164e+000,1.6971845887e+000,3.7128515033e+000,3.6321854056e+000,3.4751204815e+000,
1.8843750000e+001,3.8723229299e+000,4.2886554797e+000,3.6611584929e+000,4.0260083146e+000,3.9473254752e+000,3.9153390378e+000,4.8383462048e+000,5.3661656513e+000,3.2743580881e+000,4.0559659058e+000,1.7448676599e+000,3.5701046332e+000,3.5741684972e+000,3.5403843550e+000,
1.8937500000e+001,3.8640493203e+000,4.1782233165e+000,3.6503591781e+000,3.9292091785e+000,3.9922505501e+000,3.7957760033e+000,4.8194303656e+000,5.3159617510e+000,3.3224472735e+000,3.9801603845e+000,1.7364926778e+000,3.6110110354e+000,3.4906419575e+000,3.6201736000e+000,
1.9031250000e+001,3.8329402717e+000,4.1153758724e+000,3.6494708714e+000,3.8832865253e+000,3.9888429570e+000,3.7989602304e+000,4.7965574787e+000,5.2377671927e+000,3.3910648747e+000,4.0590923778e+000,1.7255799556e+000,3.6371521981e+000,3.3667078004e+000,3.6870454949e+000,
1.9125000000e+001,3.8063018123e+000,4.1321182085e+000,3.6270951439e+000,3.7868925136e+000,3.8378480661e+000,3.7909534327e+000,4.6918772488e+000,5.1646906635e+000,3.3781239587e+000,4.0373425773e+000,1.7484100406e+000,3.6670025800e+000,3.2583282431e+000,3.6578195481e+000,
1.9218750000e+001,3.6208004486e+000,3.9175824556e+000,3.4103606245e+000,3.5346647007e+000,3.6885602243e+000,3.7088593392e+000,4.7240878589e+000,5.1869476201e+000,3.3670678614e+000,4.0504024420e+000,1.7726308594e+000,3.6586918541e+000,3.3132548511e+000,3.6131110457e+000,
1.9312500000e+001,3.6205834204e+000,4.0167854117e+000,3.4039313190e+000,3.6216003169e+000,3.6799728933e+000,3.7740537792e+000,4.6887265537e+000,5.0807441692e+000,3.3146733800e+000,4.0310086299e+000,1.8459110116e+000,3.6445058575e+000,3.2459528013e+000,3.5601997252e+000,
1.9406250000e+001,3.6305643468e+000,3.9973403444e+000,3.4280775012e+000,3.6525574815e+000,3.7211613432e+000,3.7615329781e+000,4.7125392771e+000,5.0980762038e+000,3.3903567358e+000,3.9829469991e+000,1.8431326132e+000,3.6334544484e+000,3.0500846180e+000,3.5545779591e+000,
1.9500000000e+001,3.4980130712e+000,3.8187778921e+000,3.1798941835e+000,3.4794420565e+000,3.4954330135e+000,3.7335475836e+000,4.3378583045e+000,5.0975597894e+000,3.2938445249e+000,3.9597832697e+000,1.7455852827e+000,3.6355984602e+000,3.0223725369e+000,3.5615782214e+000,
1.9593750000e+001,3.5227168102e+000,3.8207076239e+000,3.1540788308e+000,3.4647989805e+000,3.5119151088e+000,3.7113281783e+000,4.2006707299e+000,5.1684154947e+000,3.2372368300e+000,3.8261214829e+000,1.7561395240e+000,3.5353328659e+000,2.9801134016e+000,3.5304509746e+000,
1.9687500000e+001,3.5485428067e+000,3.7745545773e+000,3.2248091480e+000,3.4417286621e+000,3.5296064029e+000,3.7461305206e+000,4.1805401615e+000,5.0776345488e+000,3.2376123489e+000,3.7094821091e+000,1.7814833955e+000,3.3897143515e+000,2.8228399542e+000,3.5036227422e+000,
1.9781250000e+001,3.5553662462e+000,3.7981592537e+000,3.2928105739e+000,3.3876679146e+000,3.5761525992e+000,3.7920021107e+000,4.1905797613e+000,5.1426689858e+000,3.1503947868e+000,3.6550896236e+000,1.6725077157e+000,3.2291783791e+000,2.6742805941e+000,3.1926409939e+000,
1.9875000000e+001,3.6347259422e+000,3.9214820509e+000,3.3994706412e+000,3.5444045615e+000,3.6606285006e+000,3.8666497940e+000,4.2176541141e+000,5.1310514060e+000,3.1682172665e+000,3.6395444131e+000,1.6532706555e+000,3.1525175298e+000,2.6687648763e+000,3.0556807715e+000,
1.9968750000e+001,3.5907793551e+000,3.9414476894e+000,3.3795945741e+000,3.5339701335e+000,3.6056647760e+000,3.8962800420e+000,4.3249763128e+000,5.1409154935e+000,3.1116057228e+000,3.5816260043e+000,1.7268742413e+000,3.1044398962e+000,2.6828101600e+000,3.1595501765e+000,
2.0062500000e+001,3.4259002467e+000,3.6808952586e+000,3.2033368088e+000,3.3889592139e+000,3.3462209783e+000,3.6366671012e+000,4.5337701434e+000,5.1589796740e+000,2.9681226458e+000,3.3970686908e+000,1.7365020969e+000,2.9914520641e+000,2.8250711693e+000,3.0891258521e+000,
2.0156250000e+001,3.3117970945e+000,3.7215345538e+000,3.1296665576e+000,3.4045020707e+000,3.3218891101e+000,3.6841784355e+000,4.7073723660e+000,5.1893605380e+000,2.8616968141e+000,3.3675301301e+000,1.6945456830e+000,2.9337431673e+000,2.7121167448e+000,3.0590409193e+000,
2.0250000000e+001,3.3323884202e+000,3.7697947581e+000,3.1354926298e+000,3.4473515026e+000,3.2581546596e+000,3.6311676820e+000,4.7741665348e+000,5.1928363750e+000,2.8792941616e+000,3.3510094025e+000,1.6477968116e+000,2.8511763044e+000,2.5781372487e+000,3.0122297767e+000,
2.0343750000e+001,3.4940370630e+000,3.7279043050e+000,3.2703009077e+000,3.5343309910e+000,3.2867299468e+000,3.5275599416e+000,4.8433574714e+000,5.2311499475e+000,2.9931343455e+000,3.3746873127e+000,1.5340985046e+000,2.8330498151e+000,2.6207852122e+000,3.0701269423e+000,
2.0437500000e+001,3.5560471052e+000,3.7559126254e+000,3.2736088893e+000,3.6291906315e+000,3.2470085010e+000,3.5362970769e+000,4.8314249194e+000,5.1608110724e+000,2.8907640009e+000,3.4270244599e+000,1.5719926166e+000,2.8076859163e+000,2.5437613969e+000,3.0765624458e+000,
2.0531250000e+001,3.6523081428e+000,3.9432479063e+000,3.4616341765e+000,3.9139979241e+000,3.3186641004e+000,3.6850269671e+000,4.8062613547e+000,5.2942130290e+000,2.9817572364e+000,3.4834721677e+000,1.7870841416e+000,2.6556469835e+000,2.4381522309e+000,3.1162851504e+000,
2.0625000000e+001,3.6831104780e+000,3.9403035173e+000,3.4689200808e+000,3.9782944642e+000,3.2640786064e+000,3.6567028061e+000,4.7209057340e+000,5.1122470240e+000,3.0947571491e+000,3.4897454812e+000,1.7553763461e+000,2.6712134129e+000,2.5090151642e+000,3.1245696357e+000,
2.0718750000e+001,3.7900948390e+000,3.9896090097e+000,3.4851439849e+000,4.0340292240e+000,3.3168655132e+000,3.6298738894e+000,4.6866285055e+000,5.1418645254e+000,3.1354563619e+000,3.5598152635e+000,1.7026368640e+000,3.0322090259e+000,2.5961295832e+000,3.1643546980e+000,
2.0812500000e+001,3.7866424267e+000,4.0217416868e+000,3.5085568480e+000,4.0292778832e+000,3.3247095596e+000,3.5937596493e+000,4.7364089474e+000,5.0782717935e+000,3.2292290304e+000,3.5697715639e+000,1.7309230004e+000,2.9685210918e+000,2.6139758503e+000,3.1787962062e+000,
2.0906250000e+001,3.8512690944e+000,4.1050115917e+000,3.5811362672e+000,4.0579011037e+000,3.2758301313e+000,3.6853368877e+000,4.7749930428e+000,5.1787147886e+000,3.2097707119e+000,3.5423248043e+000,1.7206990490e+000,2.8385414103e+000,2.5063397579e+000,3.2051487880e+000,
2.1000000000e+001,3.8683091434e+000,4.2157543731e+000,3.6438208277e+000,4.1750380643e+000,3.3840781944e+000,3.7875577411e+000,4.6782745723e+000,5.3057317526e+000,3.1866021011e+000,3.5928595665e+000,1.7813094450e+000,2.7931182569e+000,2.6199095309e+000,3.1442335682e+000,
2.1093750000e+001,3.8800215187e+000,4.3017352003e+000,3.6956631584e+000,4.2819801582e+000,3.4913292285e+000,3.8789263258e+000,4.5265311874e+000,5.3133479815e+000,3.2166304711e+000,3.7602333445e+000,1.8535574804e+000,2.9785958022e+000,2.4326828946e+000,3.0787279830e+000,
2.1187500000e+001,3.9381850654e+000,4.3382486594e+000,3.7150578593e+000,4.2914139506e+000,3.6754648641e+000,3.8831342304e+000,4.3391416836e+000,5.4128055429e+000,3.2380360136e+000,3.7972861224e+000,1.8936636915e+000,3.0037485716e+000,2.5517627074e+000,3.2058663897e+000,
2.1281250000e+001,4.0091596807e+000,4.3698498989e+000,3.7888183243e+000,4.2668666269e+000,3.8345263509e+000,3.9484413495e+000,4.4431056392e+000,5.5093019874e+000,3.2531199058e+000,3.7779174869e+000,1.8834981273e+000,3.1491372837e+000,2.8555558178e+000,3.3063974338e+000,
2.1375000000e+001,3.9844852890e+000,4.4270411884e+000,3.7631700566e+000,4.1999918738e+000,3.8758077328e+000,4.0281220244e+000,4.4077649715e+000,5.5650501203e+000,3.2083242356e+000,3.8300078239e+000,1.9016182580e+000,3.1259550558e+000,2.8501963845e+000,3.3071221821e+000,
2.1468750000e+001,3.9216439231e+000,4.3987456256e+000,3.7062384419e+000,4.0966294507e+000,3.8514406315e+000,3.9928670138e+000,4.6091165602e+000,5.5941515552e+000,3.2553890806e+000,3.8752928325e+000,1.8808894736e+000,3.2020942027e+000,3.0470763461e+000,3.3745279527e+000,
2.1562500000e+001,3.8761241102e+000,4.4010595998e+000,3.6364305512e+000,4.0009372729e+000,3.8283681597e+000,3.9184372789e+000,4.7080602418e+000,5.5530945829e+000,3.2520367522e+000,3.8783750885e+000,1.8409665659e+000,3.1883236305e+000,3.1846418819e+000,3.4436635196e+000,
2.1656250000e+001,3.8744374524e+000,4.5454351720e+000,3.6866729880e+000,4.0697202656e+000,3.8396844668e+000,4.0538049426e+000,4.7465610189e+000,5.5215610193e+000,3.0617099827e+000,4.0007500178e+000,1.8745246175e+000,3.2554344880e+000,3.1860099757e+000,3.5073871631e+000,
2.1750000000e+001,3.8391752662e+000,4.5604645832e+000,3.6431098218e+000,4.0446008257e+000,3.8354618121e+000,4.0874364584e+000,4.8156156285e+000,5.5323294698e+000,3.0492059911e+000,4.0037222707e+000,1.8627025448e+000,3.1970504785e+000,3.1648026922e+000,3.4597282616e+000,
2.1843750000e+001,3.8267535775e+000,4.5206658259e+000,3.6380575876e+000,4.0127353264e+000,3.8740251701e+000,4.0663463009e+000,4.9530860917e+000,5.5009853293e+000,3.0686676464e+000,4.0060906559e+000,1.8710966325e+000,3.2520393243e+000,3.1898919609e+000,3.4963898706e+000,
2.1937500000e+001,3.7335601369e+000,4.3656553204e+000,3.5204583743e+000,3.8580150721e+000,3.8304277128e+000,3.9646794001e+000,4.9767533866e+000,5.4673934828e+000,3.0765839183e+000,3.9844030670e+000,1.9229237290e+000,3.2691054543e+000,3.3014296218e+000,3.4167929457e+000,
2.2031250000e+001,3.7956267050e+000,4.3262857884e+000,3.5610743667e+000,3.7459974051e+000,3.8161085004e+000,3.9089224394e+000,4.9610299393e+000,5.3815254698e+000,3.0783617516e+000,3.9439894452e+000,1.8646884272e+000,3.2713348146e+000,3.2644483658e+000,3.3984462016e+000,
2.2125000000e+001,3.7841775341e+000,4.3096344214e+000,3.5229986394e+000,3.7163727808e+000,3.7808302446e+000,3.8693202366e+000,4.9085341593e+000,5.3481224893e+000,3.0798124669e+000,3.7801986661e+000,1.8777163363e+000,3.1853229101e+000,3.3107461314e+000,3.3209367940e+000,
2.2218750000e+001,3.7007170077e+000,4.3133528596e+000,3.5161851224e+000,3.7034398464e+000,3.6373691926e+000,3.8773707091e+000,4.9622318870e+000,5.2436168533e+000,3.0521427722e+000,3.7951576998e+000,1.8625260700e+000,3.1170165302e+000,3.2083973680e+000,3.2823384951e+000,
2.2312500000e+001,3.5920282541e+000,4.2059791737e+000,3.4347722753e+000,3.6544888701e+000,3.5132262990e+000,3.7619220131e+000,4.8265142472e+000,5.1310205260e+000,3.0423345626e+000,3.7501437288e+000,1.8313783959e+000,3.1379391099e+000,3.1513531866e+000,3.3148134909e+000,
2.2406250000e+001,3.5331542081e+000,4.1436445699e+000,3.4429381297e+000,3.6084490002e+000,3.4704119898e+000,3.6713478580e+000,4.8327072199e+000,4.9825490558e+000,2.8897837930e+000,3.7360371343e+000,1.8772447438e+000,3.1804607760e+000,3.1427517779e+000,3.3451644767e+000,
2.2500000000e+001,3.5544061346e+000,4.2364853744e+000,3.4232368242e+000,3.6301082305e+000,3.4771620256e+000,3.6883189383e+000,4.8896768516e+000,4.9478496811e+000,2.7844731839e+000,3.6474003993e+000,1.9097909807e+000,3.1591837180e+000,3.0334144315e+000,3.3182234419e+000,
2.2593750000e+001,3.4873535642e+000,4.1340298052e+000,3.3834441794e+000,3.5490374267e+000,3.4582083169e+000,3.6631443951e+000,4.9706229154e+000,4.8587900116e+000,2.9091708227e+000,3.6901120968e+000,1.8088323932e+000,3.2420788972e+000,2.9461839069e+000,3.2791400075e+000,
2.2687500000e+001,3.3249583824e+000,3.8782244686e+000,3.2243401946e+000,3.2903224605e+000,3.4304550589e+000,3.3612278736e+000,4.9796908985e+000,4.8698481509e+000,2.9476463669e+000,3.4562964265e+000,1.8310378363e+000,3.0842799237e+000,2.9309364234e+000,3.1552409797e+000,
2.2781250000e+001,3.3948222406e+000,3.9416648831e+000,3.3503434734e+000,3.3537885154e+000,3.5243447892e+000,3.4902688168e+000,4.9040712399e+000,4.8992568445e+000,2.9640202417e+000,3.5891130849e+000,1.8503810545e+000,3.0540268919e+000,2.9750551909e+000,3.1421741775e+000,
2.2875000000e+001,3.4632346858e+000,3.8910422952e+000,3.3645552743e+000,3.4033093661e+000,3.4689216029e+000,3.5847784178e+000,4.7613951006e+000,4.9048259836e+000,2.9936254148e+000,3.6082782871e+000,1.9426349336e+000,3.0591652060e+000,2.9170278286e+000,2.9849914122e+000,
2.2968750000e+001,3.4805088870e+000,4.0251791723e+000,3.4096401607e+000,3.4691927035e+000,3.4267707746e+000,3.6312115204e+000,4.8065485873e+000,4.8156739475e+000,3.0409659306e+000,3.5923393595e+000,1.9433452080e+000,3.1245212573e+000,2.8243148836e+000,2.9747614224e+000,
2.3062500000e+001,3.4898568904e+000,4.0318091896e+000,3.4333181648e+000,3.3832009635e+000,3.4479416011e+000,3.6238207555e+000,4.9287173380e+000,4.7521705975e+000,2.9757717631e+000,3.5806780127e+000,1.8562711787e+000,3.1226312837e+000,2.7327691416e+000,2.9090641857e+000,
2.3156250000e+001,3.4756309058e+000,3.9424370735e+000,3.4476156459e+000,3.3766018193e+000,3.4211283842e+000,3.4828623572e+000,5.0280462608e+000,4.7889604232e+000,3.0121766050e+000,3.5536314262e+000,1.7941589266e+000,3.1060944969e+000,2.7261500357e+000,2.9521568192e+000,
2.3250000000e+001,3.5372582902e+000,3.9101609409e+000,3.4619871127e+000,3.4286072070e+000,3.4157293430e+000,3.5047270755e+000,5.0642008589e+000,4.7549368066e+000,2.9762555580e+000,3.5316155034e+000,1.8969198573e+000,3.1144858663e+000,2.6998759376e+000,2.8355140164e+000,
2.3343750000e+001,3.5205216914e+000,4.0450962182e+000,3.4919236352e+000,3.5703080309e+000,3.4965211861e+000,3.7653738378e+000,5.0481778732e+000,4.7684238016e+000,2.9783529749e+000,3.5734583573e+000,1.9228905100e+000,3.0691589007e+000,2.6846439328e+000,2.8237444100e+000,
2.3437500000e+001,3.6560719773e+000,4.1315874360e+000,3.6173752300e+000,3.7598673036e+000,3.6463445307e+000,3.8733868851e+000,4.8999725307e+000,4.8022137533e+000,3.1092093380e+000,3.6796931675e+000,2.0249003844e+000,3.1832411817e+000,2.7037321988e+000,2.7970684054e+000,
2.3531250000e+001,3.7300944848e+000,4.0806820486e+000,3.6512042753e+000,3.7625858677e+000,3.6192513820e+000,3.9285467329e+000,4.8025471391e+000,4.8091602960e+000,3.1020082917e+000,3.7341199808e+000,2.0269554307e+000,3.2476133437e+000,2.6540939188e+000,2.6872283935e+000,
2.3625000000e+001,3.6998132404e+000,4.0756346307e+000,3.6337597738e+000,3.7466345730e+000,3.5741144698e+000,3.9641522541e+000,4.8432499169e+000,4.8353128183e+000,3.0581840804e+000,3.6751078223e+000,2.0820442587e+000,3.1348621837e+000,2.6086634196e+000,2.7837010332e+000,
2.3718750000e+001,3.7296223038e+000,4.0968069964e+000,3.6446409474e+000,3.7596654101e+000,3.5367873574e+000,3.9946966243e+000,4.8749197331e+000,4.7488071935e+000,3.0341493038e+000,3.5925534608e+000,2.0363609667e+000,3.1840700452e+000,2.6734132290e+000,2.8791965053e+000,
2.3812500000e+001,3.6909581209e+000,4.0942247328e+000,3.5647140727e+000,3.8290438643e+000,3.4544020138e+000,3.9986274955e+000,4.8790614283e+000,4.8376634628e+000,3.0223321440e+000,3.5289993103e+000,2.0168714375e+000,3.5261653058e+000,2.8758610247e+000,3.0352695747e+000,
2.3906250000e+001,3.6208587800e+000,4.0658081166e+000,3.5463537979e+000,3.7734433047e+000,3.4477746688e+000,3.9150126390e+000,4.9070278051e+000,4.8240754096e+000,3.0332660480e+000,3.4917226258e+000,2.0172409161e+000,3.4901648681e+000,2.9794677800e+000,3.1567103767e+000,
2.4000000000e+001,3.6404733198e+000,3.9366305233e+000,3.4434773791e+000,3.7798970848e+000,3.4356188171e+000,3.8709964114e+000,4.8158654979e+000,4.9437948000e+000,3.0502641990e+000,3.5107589279e+000,2.0117311033e+000,3.5338637215e+000,2.9326994321e+000,3.2742915369e+000,
2.4093750000e+001,3.6663616838e+000,3.9693366450e+000,3.4955598738e+000,3.8200695589e+000,3.5079087278e+000,3.9194443148e+000,4.6948618373e+000,4.9736156604e+000,3.0571048588e+000,3.5676324176e+000,2.0041321924e+000,3.5948440641e+000,2.9936331423e+000,3.3488692482e+000,
2.4187500000e+001,3.6733579650e+000,3.9644887997e+000,3.5203857291e+000,3.8343990505e+000,3.5698970498e+000,3.9391584126e+000,4.5373040751e+000,5.0062380511e+000,3.0993919616e+000,3.5427540560e+000,2.0888643469e+000,3.5957730146e+000,3.0293176752e+000,3.3102163398e+000,
2.4281250000e+001,3.6917843043e+000,4.0174149685e+000,3.5290189864e+000,3.8707153467e+000,3.5741052596e+000,4.0140006233e+000,4.5560077184e+000,4.9758538587e+000,3.0754753211e+000,3.5792609552e+000,2.0551296631e+000,3.5462725908e+000,3.0842356808e+000,3.2890335314e+000,
2.4375000000e+001,3.7191231181e+000,3.9060502740e+000,3.5323116202e+000,3.8019088400e+000,3.5870405615e+000,3.8930631062e+000,4.6352843142e+000,5.0743134839e+000,3.1812032637e+000,3.5748956997e+000,2.0574264554e+000,3.5774900470e+000,3.1020932657e+000,3.3575805527e+000,
2.4468750000e+001,3.5961283509e+000,3.7472279451e+000,3.3680574859e+000,3.5844456053e+000,3.4539069230e+000,3.8071351442e+000,4.7336762995e+000,5.0598329572e+000,3.1436834724e+000,3.3686746947e+000,2.0039350782e+000,3.4579034552e+000,3.0855891377e+000,3.3809172979e+000,
2.4562500000e+001,3.5887642976e+000,3.7490450596e+000,3.3537972745e+000,3.5427748292e+000,3.5106389720e+000,3.7601671924e+000,4.5418552188e+000,5.0192776271e+000,3.1241825600e+000,3.2896217519e+000,2.0208222114e+000,3.4342819557e+000,3.1089967547e+000,3.4053740971e+000,
2.4656250000e+001,3.6093975919e+000,3.7489418727e+000,3.3939087376e+000,3.5691771940e+000,3.5353845378e+000,3.7743493945e+000,4.5888799826e+000,4.9864154310e+000,3.2033409869e+000,3.3484254804e+000,2.0439539564e+000,3.4840549552e+000,3.2306025380e+000,3.3001578420e+000,
2.4750000000e+001,3.5828792954e+000,3.7585233725e+000,3.3414413682e+000,3.5781086121e+000,3.5566004826e+000,3.7565721285e+000,4.6126596681e+000,5.0395561515e+000,3.2631938485e+000,3.4952706148e+000,2.1057681695e+000,3.1987889779e+000,3.2350486163e+000,3.2480443961e+000,
2.4843750000e+001,3.5807793351e+000,3.7458979762e+000,3.3523883306e+000,3.5226260441e+000,3.5844211401e+000,3.7016715265e+000,4.5890362642e+000,4.9812353119e+000,3.3336903470e+000,3.5263092339e+000,2.1576666840e+000,3.1058211347e+000,3.1460723109e+000,3.1318211034e+000,
2.4937500000e+001,3.5719227692e+000,3.9034785056e+000,3.3764473730e+000,3.5601429409e+000,3.6610456263e+000,3.7343785750e+000,4.5679635814e+000,5.0271063088e+000,3.2130139240e+000,3.5220717973e+000,2.2177122663e+000,3.1542541997e+000,3.0500516000e+000,3.0302147199e+000,
2.5031250000e+001,3.7938704269e+000,4.1789918897e+000,3.5728842381e+000,3.7471627450e+000,3.7452650076e+000,3.8401499649e+000,4.6773411312e+000,5.0738810895e+000,3.2029575455e+000,3.5488836749e+000,2.2318205779e+000,3.0122430760e+000,3.1443837768e+000,2.9644740765e+000,
2.5125000000e+001,3.7640367504e+000,4.2086263803e+000,3.5362861103e+000,3.7336002408e+000,3.6794274542e+000,3.8192678401e+000,4.8237590849e+000,5.1817053292e+000,3.2614358265e+000,3.5804106895e+000,2.2374403931e+000,3.0314004306e+000,3.1900683215e+000,2.9880061471e+000,
2.5218750000e+001,3.8151947479e+000,4.2824386002e+000,3.5774600501e+000,3.7766754723e+000,3.6949374930e+000,3.8727841257e+000,4.9033451312e+000,5.4963283399e+000,3.2674569571e+000,3.6589022870e+000,2.1602089184e+000,3.1876251014e+000,3.1539799568e+000,2.9888644322e+000,
2.5312500000e+001,3.8784913767e+000,4.3182666688e+000,3.5832836645e+000,3.6968430388e+000,3.6896475901e+000,3.8494813008e+000,4.9020508562e+000,5.4877920077e+000,3.3172250508e+000,3.6390757039e+000,2.2929296557e+000,3.2749925461e+000,3.1278449857e+000,2.9222910288e+000,
2.5406250000e+001,3.9298734434e+000,4.3334994727e+000,3.6644079645e+000,3.8143436970e+000,3.6933553583e+000,3.8825531867e+000,4.8169284783e+000,5.5186298284e+000,3.2870385716e+000,3.5694195484e+000,2.1921201412e+000,3.2846121876e+000,3.1771972918e+000,2.8981351994e+000,
2.5500000000e+001,3.9035369782e+000,4.3594537945e+000,3.6683031362e+000,3.8151510406e+000,3.7039643648e+000,3.8747082367e+000,4.8695894357e+000,5.5492177822e+000,3.2360509172e+000,3.6353411925e+000,2.2205720134e+000,3.2865161618e+000,3.2190143241e+000,2.8050241029e+000,
2.5593750000e+001,3.8803049081e+000,4.3760632084e+000,3.6463650232e+000,3.8604623467e+000,3.6752784484e+000,3.8616634759e+000,4.8512099916e+000,5.5776277535e+000,3.1634923474e+000,3.6462986885e+000,2.2576663284e+000,3.2910958122e+000,3.1696264190e+000,2.7821285235e+000,
2.5687500000e+001,4.0757401086e+000,4.7334731714e+000,3.8084683117e+000,4.0411170718e+000,3.9570168833e+000,4.0589478853e+000,4.9034122099e+000,5.7077497906e+000,3.2549224904e+000,3.6931487102e+000,2.2435966342e+000,3.3827316772e+000,3.1226040902e+000,3.0065509996e+000,
2.5781250000e+001,4.1731001021e+000,4.7605201478e+000,3.8935419586e+000,4.0412506068e+000,4.0191697284e+000,4.0867272725e+000,4.8807223362e+000,5.6913741090e+000,3.2178818891e+000,3.6907182470e+000,2.1311181789e+000,3.5079070344e+000,3.0363803639e+000,2.9614664720e+000,
2.5875000000e+001,4.2205217788e+000,4.7891804119e+000,3.9207125179e+000,4.0481639166e+000,4.0655679815e+000,4.1868061042e+000,5.0220733529e+000,5.6654675676e+000,3.2357059257e+000,3.8201544237e+000,2.2728870946e+000,3.6090873808e+000,3.0389597113e+000,2.9625473797e+000,
2.5968750000e+001,4.3029813026e+000,4.7964258628e+000,3.9935502459e+000,4.1427491162e+000,4.1196662581e+000,4.2955218943e+000,5.0481361542e+000,5.6331519307e+000,3.2590043006e+000,3.8722032828e+000,2.2061794803e+000,3.7176346832e+000,3.0096232512e+000,3.1713679032e+000,
2.6062500000e+001,4.1146591085e+000,4.6353146963e+000,3.8124465958e+000,3.9626778356e+000,4.0494581244e+000,4.2219487482e+000,4.9646884347e+000,5.5542374225e+000,3.2471128460e+000,3.8109239042e+000,2.2024413864e+000,3.7121737579e+000,2.9025989024e+000,3.2081221214e+000,
2.6156250000e+001,4.1975200312e+000,4.7274638731e+000,3.9188179235e+000,4.1118847463e+000,4.1424973593e+000,4.3022096126e+000,4.8377004591e+000,5.4268481237e+000,3.2595687429e+000,3.8177392071e+000,2.1643668813e+000,3.7371804717e+000,2.6901587750e+000,3.2360299234e+000,
2.6250000000e+001,4.1424123731e+000,4.7067900249e+000,3.8760257606e+000,4.1148663732e+000,4.1059233470e+000,4.2990660611e+000,4.7558345430e+000,5.2903106717e+000,3.2052167755e+000,3.9177493072e+000,2.1110269078e+000,3.6964015344e+000,2.7715173539e+000,3.3182636319e+000,
2.6343750000e+001,4.1572491512e+000,4.7051689554e+000,3.8971484567e+000,4.1993881410e+000,4.1896552414e+000,4.3533281064e+000,4.7732941970e+000,5.2903104650e+000,3.1893901793e+000,4.0417406162e+000,2.0253928663e+000,3.6512070827e+000,2.7339395928e+000,3.3389759223e+000,
2.6437500000e+001,4.1758032929e+000,4.7629982677e+000,3.9334291476e+000,4.2210634380e+000,4.2945084103e+000,4.3791183479e+000,4.7300590703e+000,5.2550186731e+000,3.2336490227e+000,4.0783857111e+000,2.0553568863e+000,3.6482292572e+000,2.6086217961e+000,3.2366677899e+000,
2.6531250000e+001,4.2194420626e+000,4.7676076235e+000,3.9957391272e+000,4.2241898335e+000,4.3490461734e+000,4.4510060608e+000,4.9065221817e+000,5.1911823020e+000,3.4291048178e+000,4.1673150041e+000,2.4830098532e+000,3.7944917263e+000,2.8223906576e+000,3.3658602378e+000,
2.6625000000e+001,4.2238129985e+000,4.7066946000e+000,3.9804528964e+000,4.2295718337e+000,4.3559049544e+000,4.4372675171e+000,4.9674437675e+000,5.2623731300e+000,3.3504781281e+000,4.1882040543e+000,2.5863740539e+000,3.7419354389e+000,2.8814641058e+000,3.3586703518e+000,
2.6718750000e+001,4.1336807049e+000,4.3947479647e+000,3.9771579274e+000,4.2059492849e+000,4.2156545008e+000,4.3482863010e+000,5.2036738427e+000,5.1126872209e+000,3.3924808033e+000,4.1009123270e+000,2.6500138967e+000,3.6947059087e+000,2.9766166126e+000,3.3122455695e+000,
2.6812500000e+001,4.0970419195e+000,4.3408498414e+000,3.9225848090e+000,4.1981120932e+000,4.1965273872e+000,4.3267217081e+000,5.1927272909e+000,5.1234428425e+000,3.4561928534e+000,4.0421432082e+000,2.6506407234e+000,3.5478132278e+000,3.0535503298e+000,3.3279792124e+000,
2.6906250000e+001,4.0697541230e+000,4.2325197003e+000,3.9148801069e+000,4.2366624793e+000,4.1478598667e+000,4.2123933823e+000,5.0780746317e+000,5.1754324991e+000,3.4558246051e+000,3.9248324528e+000,2.5318514838e+000,3.4617088898e+000,3.0939128585e+000,3.3863498061e+000,
2.7000000000e+001,4.1479906854e+000,4.3787368757e+000,4.0105371304e+000,4.5123540252e+000,4.1312611845e+000,4.3798174589e+000,5.1106224537e+000,5.1743170709e+000,3.4256586175e+000,4.0576487730e+000,2.6139347548e+000,3.4191891444e+000,3.2592045268e+000,3.3609337563e+000,
2.7093750000e+001,4.1501613950e+000,4.3417316094e+000,4.0073508380e+000,4.5161235772e+000,4.0901165607e+000,4.3136385173e+000,5.1210141680e+000,5.2066516612e+000,3.3507666988e+000,4.0410980633e+000,2.7083207815e+000,3.3108911368e+000,3.2603883911e+000,3.3028166097e+000,
2.7187500000e+001,4.0340915277e+000,4.1948396609e+000,3.8604499489e+000,4.4163657951e+000,3.9831138483e+000,4.2145173927e+000,5.1814551916e+000,5.1782329032e+000,3.2870593548e+000,3.9510593498e+000,2.7134111233e+000,3.2464271812e+000,3.2359305066e+000,3.2262033800e+000,
2.7281250000e+001,4.0136785392e+000,4.1738801044e+000,3.8533246385e+000,4.3670096094e+000,3.9212788991e+000,4.2022999036e+000,5.1621741872e+000,5.2112901699e+000,3.2619514048e+000,3.8629139177e+000,2.7680252430e+000,3.2209242242e+000,3.1675320356e+000,3.0961337404e+000,
2.7375000000e+001,4.1332038652e+000,4.5590067246e+000,3.9111080087e+000,4.3315583296e+000,3.9176776826e+000,4.1861477551e+000,5.1461759894e+000,5.1683231768e+000,3.2717732798e+000,3.6783929453e+000,2.7752650975e+000,3.2584379320e+000,3.1661647735e+000,3.1843671583e+000,
2.7468750000e+001,4.1199903101e+000,4.6289260170e+000,3.8784041032e+000,4.3889668367e+000,3.9131306117e+000,4.1827694588e+000,5.1343037096e+000,5.1695142788e+000,3.1533525936e+000,3.7223627819e+000,2.7525872696e+000,3.2172224084e+000,3.1436391215e+000,3.3068808494e+000,
2.7562500000e+001,4.1147008911e+000,4.6125382935e+000,3.8494078793e+000,4.3850219324e+000,3.8760295183e+000,4.0902873693e+000,4.9442464846e+000,5.1907893651e+000,3.0336685840e+000,3.6303389471e+000,2.3384569224e+000,3.1200859608e+000,2.8309582117e+000,3.2621179395e+000,
2.7656250000e+001,3.9987881361e+000,4.5807729495e+000,3.7366366610e+000,4.2899377586e+000,3.7284023492e+000,4.0132929624e+000,4.7838641691e+000,5.2590813926e+000,2.9775274251e+000,3.6159103753e+000,2.2986010568e+000,3.0909537063e+000,2.8590843178e+000,3.2188914194e+000,
2.7750000000e+001,3.9993971036e+000,4.5924548476e+000,3.7016974814e+000,4.3011077259e+000,3.7972650789e+000,3.9799130527e+000,4.5572867674e+000,5.2350830407e+000,2.9353849020e+000,3.6950285073e+000,2.2105369120e+000,3.1543885350e+000,2.7351871452e+000,3.2722037205e+000,
2.7843750000e+001,4.0064736046e+000,4.6075834496e+000,3.7238359239e+000,4.4016099650e+000,3.8176665439e+000,4.0566450919e+000,4.5423121963e+000,5.2278270103e+000,2.7294205394e+000,3.7821926035e+000,2.1951626935e+000,3.1957991454e+000,2.9002202472e+000,3.3738643155e+000,
2.7937500000e+001,4.0578397595e+000,4.6471940871e+000,3.7232258800e+000,4.3547683937e+000,3.8925427646e+000,4.1176729917e+000,4.6010566375e+000,5.2650219711e+000,2.8063239368e+000,3.8517504163e+000,2.1446656302e+000,3.2905320679e+000,2.7784042500e+000,3.2522917216e+000,
2.8031250000e+001,3.8696013417e+000,4.5172382172e+000,3.4876411655e+000,4.0591010892e+000,3.8394872626e+000,3.7645622824e+000,4.5098754352e+000,5.2163963034e+000,2.8026049779e+000,3.6783499766e+000,2.0295955278e+000,3.2116383583e+000,2.8058520894e+000,3.2650841294e+000,
2.8125000000e+001,3.9125623253e+000,4.5590414867e+000,3.5237578340e+000,4.0593605855e+000,3.8471622574e+000,3.8002302781e+000,4.3539936861e+000,5.2454080133e+000,2.8742434339e+000,3.7589528080e+000,1.9083059022e+000,3.3305619107e+000,3.0506249916e+000,3.3866167081e+000,
2.8218750000e+001,3.8778617182e+000,4.5965579787e+000,3.4900031438e+000,4.1543481986e+000,3.8545581368e+000,3.8943048512e+000,4.3009833230e+000,5.2088628619e+000,2.9138994182e+000,3.9122019221e+000,1.8364812798e+000,3.5275762171e+000,3.0778801832e+000,3.4479997783e+000,
2.8312500000e+001,3.6986927186e+000,4.3528234517e+000,3.3160130058e+000,4.1313588041e+000,3.7316422911e+000,3.8199814642e+000,4.2997157817e+000,5.1624252989e+000,2.9382368236e+000,3.9060172322e+000,1.8459700781e+000,3.5006466525e+000,3.1986821776e+000,3.4119301863e+000,
2.8406250000e+001,3.7046744328e+000,4.0416127651e+000,3.3698662487e+000,4.0497625360e+000,3.8162565220e+000,3.7882336547e+000,4.4304300554e+000,5.1999704810e+000,3.0267620752e+000,3.9097298446e+000,1.8055015423e+000,3.5143995459e+000,3.2783083811e+000,3.4358638886e+000,
2.8500000000e+001,3.8185272421e+000,4.1192241959e+000,3.5251490062e+000,4.0513144965e+000,3.9883779154e+000,3.9727824412e+000,4.6305881610e+000,5.2305492561e+000,3.0705410324e+000,4.0917053734e+000,1.7984884740e+000,3.6816419640e+000,3.3638044883e+000,3.4444134754e+000,
2.8593750000e+001,3.8182918211e+000,4.1369113339e+000,3.5697370681e+000,4.0735634512e+000,3.9824564108e+000,4.0277087906e+000,4.7322565917e+000,5.3963028094e+000,2.9967680129e+000,4.0814021574e+000,1.7963733181e+000,3.6641753898e+000,3.3372224551e+000,3.4508536838e+000,
2.8687500000e+001,3.8342462045e+000,4.1587450368e+000,3.5930732388e+000,4.1054827737e+000,3.9860900929e+000,4.0876034563e+000,4.7873864222e+000,5.3895904344e+000,2.9535888221e+000,4.1038227432e+000,1.8365015654e+000,3.7394819151e+000,3.2843739097e+000,3.5371257875e+000,
2.8781250000e+001,3.7976068029e+000,4.2312757288e+000,3.5783127989e+000,4.0001730748e+000,3.9479675236e+000,4.0483519106e+000,4.8613067892e+000,5.3637057093e+000,3.0607927121e+000,4.0901970081e+000,1.8683586665e+000,3.7507164023e+000,3.2747168871e+000,3.4884659714e+000,
2.8875000000e+001,3.7304227320e+000,4.2162228376e+000,3.5487852422e+000,3.8888669996e+000,3.9179891808e+000,4.0606496791e+000,4.8856823637e+000,5.3661275046e+000,3.0932088717e+000,4.0592561780e+000,1.8485899586e+000,3.6658423075e+000,3.2366506644e+000,3.4744126414e+000,
2.8968750000e+001,3.6665235412e+000,4.1389839351e+000,3.5706934834e+000,3.7581857351e+000,3.8239659629e+000,3.9743939390e+000,4.8817581226e+000,5.4188355267e+000,3.1476500843e+000,4.0220981602e+000,1.8668171857e+000,3.6718151867e+000,3.3146195823e+000,3.5626773191e+000,
2.9062500000e+001,3.6946007786e+000,4.1065108586e+000,3.6046989914e+000,3.6674247535e+000,3.7674407526e+000,3.9402299956e+000,4.8543920678e+000,5.5668963202e+000,3.1037189828e+000,4.0000613942e+000,1.9165957205e+000,3.6790199576e+000,3.3677642818e+000,3.4828029979e+000,
2.9156250000e+001,3.7452862474e+000,4.1200508649e+000,3.6791036921e+000,3.7489164911e+000,3.8712020802e+000,3.9814366391e+000,4.8438278229e+000,5.5133485787e+000,3.0447076603e+000,4.0029147080e+000,1.9682664116e+000,3.6411702333e+000,3.4525867399e+000,3.4138140146e+000,
2.9250000000e+001,3.8183707808e+000,4.2082802581e+000,3.7153644844e+000,3.7697973930e+000,3.9052963802e+000,3.9766570226e+000,4.8542780914e+000,5.5718235245e+000,3.0557202090e+000,3.9562708963e+000,1.9994502010e+000,3.5454541953e+000,3.4401011683e+000,3.4817783715e+000,
2.9343750000e+001,3.8935721222e+000,4.2081622832e+000,3.7689337630e+000,3.7761516211e+000,3.8612994708e+000,3.9702908389e+000,5.0017088933e+000,5.5634185374e+000,3.1046465647e+000,4.0153649852e+000,2.0634094339e+000,3.6160369044e+000,3.3843544742e+000,3.4560710053e+000,
2.9437500000e+001,3.8399621711e+000,4.2073148029e+000,3.6550301568e+000,3.8350134677e+000,3.6375502957e+000,3.9423362812e+000,4.9246008336e+000,5.5445548958e+000,2.9642296951e+000,3.9476376900e+000,2.1997356619e+000,3.5703145595e+000,3.3187656671e+000,3.4006052016e+000,
2.9531250000e+001,3.7993882416e+000,4.2242662540e+000,3.5884751050e+000,3.8096385955e+000,3.6392489136e+000,3.8903746050e+000,4.9057012888e+000,5.4335997990e+000,2.9887908033e+000,3.8684933994e+000,2.1682927659e+000,3.4863641450e+000,3.2772021742e+000,3.3533453164e+000,
2.9625000000e+001,3.8023526179e+000,4.2117572449e+000,3.6027050197e+000,3.7531115212e+000,3.6877815523e+000,3.8280314075e+000,4.8106212675e+000,5.2951941481e+000,3.0342463540e+000,3.8727664486e+000,2.2024959619e+000,3.4101831958e+000,3.3032559829e+000,3.2609010017e+000,
2.9718750000e+001,3.8284652147e+000,4.1893755090e+000,3.6100618703e+000,3.7215925540e+000,3.7705265740e+000,3.7981307713e+000,4.8059299159e+000,5.3382761171e+000,3.0900858821e+000,3.8090715516e+000,2.2414313227e+000,3.4480462891e+000,3.3235243895e+000,3.2528155485e+000,
2.9812500000e+001,3.8901799616e+000,4.1666981115e+000,3.6750326274e+000,3.7740233436e+000,3.7997635720e+000,3.8912855030e+000,4.6764303639e+000,5.4526371963e+000,3.0036441591e+000,3.7978959390e+000,2.2537211364e+000,3.4520302001e+000,3.2725233838e+000,3.2856010935e+000,
2.9906250000e+001,3.9769182755e+000,4.3227707204e+000,3.7186182508e+000,3.9021438009e+000,3.8295575836e+000,4.0557365665e+000,4.6449393767e+000,5.5107382169e+000,3.0199152149e+000,3.8545083912e+000,2.3315402988e+000,3.5366116758e+000,3.2574921785e+000,3.3433212822e+000,
3.0000000000e+001,3.9018080043e+000,4.2757220560e+000,3.6065536867e+000,3.8352163984e+000,3.8067219379e+000,4.0067041033e+000,4.6309505511e+000,5.4934141573e+000,3.0346800373e+000,3.7739263147e+000,2.3341514282e+000,3.4695416036e+000,3.1441943226e+000,3.1826707267e+000,
3.0093750000e+001,3.8716675968e+000,4.2744191650e+000,3.5781568591e+000,3.8433395245e+000,3.7664979469e+000,4.0165873206e+000,4.6826555930e+000,5.3777433415e+000,3.0876364409e+000,3.7406737457e+000,2.2743230291e+000,3.3823112710e+000,2.8905630592e+000,3.1157631232e+000,
3.0187500000e+001,3.9454958779e+000,4.3662303559e+000,3.5785219941e+000,3.6737526632e+000,3.7108669829e+000,3.9604458123e+000,4.6776231348e+000,5.3115319185e+000,3.1798226753e+000,3.5676153510e+000,2.2500208221e+000,3.2992846783e+000,2.6955986608e+000,3.0927459018e+000,
3.0281250000e+001,3.9647741754e+000,4.4609371672e+000,3.5601667581e+000,3.5870003665e+000,3.7861070299e+000,4.0240713127e+000,4.7300332943e+000,5.2379223597e+000,3.1896403383e+000,3.4816912624e+000,2.2621739599e+000,3.2645917038e+000,2.6432713754e+000,3.0242332118e+000,
3.0375000000e+001,3.8001827421e+000,4.4210990962e+000,3.4063668382e+000,3.5868035560e+000,3.6931500906e+000,3.9864933727e+000,4.5174569165e+000,5.3841597781e+000,3.1939368062e+000,3.2308212539e+000,2.1965732335e+000,3.0118024621e+000,2.6288390577e+000,3.0656295234e+000,
3.0468750000e+001,3.7507484270e+000,4.2954231859e+000,3.3805257108e+000,3.4890571514e+000,3.6877657505e+000,3.9107112609e+000,4.4578310307e+000,5.4989936011e+000,3.2706762218e+000,3.0651150427e+000,2.1800016551e+000,2.9229216398e+000,2.6617408764e+000,3.0529240186e+000,
3.0562500000e+001,3.7715090155e+000,4.2884205532e+000,3.3973806668e+000,3.5692243084e+000,3.7093788866e+000,3.9290323897e+000,4.4625827686e+000,5.4798524141e+000,3.2034080977e+000,3.1600087032e+000,2.1312210707e+000,2.9536262015e+000,2.6323720047e+000,3.0358729361e+000,
3.0656250000e+001,3.7262852568e+000,4.3170703634e+000,3.3484011574e+000,3.6785646231e+000,3.5823344049e+000,3.9621251546e+000,4.4446062044e+000,5.5388017390e+000,3.1843706511e+000,3.1744269673e+000,2.1046719957e+000,2.8862025709e+000,2.7275628828e+000,2.9433175275e+000,
3.0750000000e+001,3.6843640833e+000,4.3081291511e+000,3.2998115056e+000,3.7192022772e+000,3.4577892943e+000,3.8898750097e+000,4.3878359491e+000,5.4313502430e+000,3.0815050600e+000,3.3281648550e+000,2.0067016323e+000,2.7837230239e+000,2.8004084384e+000,2.9126470469e+000,
3.0843750000e+001,3.6658740779e+000,4.3877778657e+000,3.2740176132e+000,3.7079188537e+000,3.5102926066e+000,3.8168651801e+000,4.4088504338e+000,5.4401343300e+000,3.0871262194e+000,3.3622886793e+000,1.9519563387e+000,2.8161342679e+000,2.8366623124e+000,2.8988009101e+000,
3.0937500000e+001,3.7390911143e+000,4.4981409358e+000,3.4002792576e+000,3.7646164360e+000,3.5629738527e+000,3.8958390206e+000,4.3604587529e+000,5.4876846702e+000,3.0273359584e+000,3.4360607449e+000,2.0191075212e+000,2.9146364632e+000,2.7788736760e+000,2.9613593201e+000,
3.1031250000e+001,3.8040152293e+000,4.4958563087e+000,3.4718351333e+000,3.7939981462e+000,3.6071480610e+000,3.9055552196e+000,4.3671530015e+000,5.4428270249e+000,3.0363304475e+000,3.4822398636e+000,2.0743713761e+000,3.0384520095e+000,2.7419302836e+000,2.9646321431e+000,
3.1125000000e+001,3.7859454924e+000,4.4922991710e+000,3.4955581861e+000,3.8623307166e+000,3.5906217121e+000,3.9822452533e+000,4.3524814485e+000,5.4694765737e+000,3.0592541822e+000,3.6063425943e+000,2.1189877070e+000,3.2452563547e+000,2.7148633543e+000,2.9310408174e+000,
3.1218750000e+001,3.6477379267e+000,4.3887777796e+000,3.4491776083e+000,3.9121846773e+000,3.5153970057e+000,3.9268067636e+000,4.3127687120e+000,5.4711908455e+000,3.0024602895e+000,3.6179283520e+000,2.0854244184e+000,3.3020322129e+000,2.8100668305e+000,2.9012504935e+000,
3.1312500000e+001,3.6779588887e+000,4.3947878165e+000,3.5749097572e+000,3.9020396577e+000,3.6250060136e+000,3.9268196267e+000,4.3781571382e+000,5.4794078289e+000,3.0153705288e+000,3.7811604708e+000,2.0023250720e+000,3.4562073504e+000,3.0060053415e+000,3.1136620569e+000,
3.1406250000e+001,3.7092807719e+000,4.4104384074e+000,3.6227812317e+000,3.9256965960e+000,3.6850305049e+000,3.9015644198e+000,4.3979518644e+000,5.3531642599e+000,2.9855577779e+000,3.7992331232e+000,1.9505197145e+000,3.4276570498e+000,3.0353129729e+000,3.1027387214e+000,
3.1500000000e+001,3.7694063858e+000,4.3938361216e+000,3.6387654739e+000,4.0011105472e+000,3.6733452380e+000,3.9008642388e+000,4.4881757292e+000,5.5458791439e+000,3.0124162847e+000,3.8218079713e+000,1.9054416649e+000,3.4468681286e+000,3.0452416766e+000,3.1089034332e+000,
3.1593750000e+001,3.7166034232e+000,4.4222258154e+000,3.6049865797e+000,3.9722945798e+000,3.6169041135e+000,3.9153746469e+000,4.4051371891e+000,5.5926254783e+000,3.0270827878e+000,3.7782709710e+000,1.9644328371e+000,3.4329455888e+000,3.0973334346e+000,3.1104960451e+000,
3.1687500000e+001,3.6968469356e+000,4.4296190400e+000,3.6242014216e+000,3.9978275315e+000,3.6105200524e+000,3.9099447147e+000,4.3628546766e+000,5.6057374572e+000,3.0915931512e+000,3.7237400212e+000,1.9560678447e+000,3.4766400366e+000,3.0618480343e+000,3.2058012848e+000,
3.1781250000e+001,3.6811603978e+000,4.4177206753e+000,3.6314228332e+000,3.9457432076e+000,3.6074509257e+000,3.9116866875e+000,4.2369745178e+000,5.6291697995e+000,3.0904339135e+000,3.7199538297e+000,2.0519587599e+000,3.4763848457e+000,3.0427267526e+000,3.1826961273e+000,
3.1875000000e+001,3.5766004980e+000,4.2284486379e+000,3.5100779898e+000,3.8081247393e+000,3.5179302509e+000,3.8036123906e+000,4.3981538997e+000,5.6080627788e+000,3.0453625166e+000,3.6545146338e+000,2.0409427736e+000,3.3605153766e+000,3.0243876912e+000,3.1573877647e+000,
3.1968750000e+001,3.4677981679e+000,4.0788713768e+000,3.4052920199e+000,3.7012056998e+000,3.4637071720e+000,3.6255847728e+000,4.3572083538e+000,5.5342107201e+000,3.0545909842e+000,3.5918892839e+000,1.9167425562e+000,3.1944777210e+000,3.0889248049e+000,3.1229151517e+000,
3.2062500000e+001,3.5373585955e+000,4.1239128993e+000,3.5007647020e+000,3.7569969327e+000,3.5573032791e+000,3.6703682884e+000,4.4179085898e+000,5.5363112843e+000,3.1126427462e+000,3.6055067816e+000,1.8842254274e+000,3.0464068034e+000,3.1465992841e+000,3.1470691422e+000,
3.2156250000e+001,3.8157047234e+000,4.3487443170e+000,3.7249557429e+000,3.9866235719e+000,3.9152691847e+000,3.8906980393e+000,4.4292616597e+000,5.7156291698e+000,3.2452103834e+000,3.7714026916e+000,1.9137383206e+000,3.2792867320e+000,3.1288920659e+000,3.3961895406e+000,
3.2250000000e+001,4.2132025547e+000,4.5693052299e+000,4.0035502584e+000,4.3202070007e+000,4.2099101456e+000,4.1979236250e+000,4.3936482062e+000,5.7478696840e+000,3.3402291175e+000,3.8927724725e+000,1.9033394909e+000,3.2679939824e+000,3.1890083973e+000,3.6137567693e+000,
3.2343750000e+001,4.2946429493e+000,4.7339152089e+000,4.1068459740e+000,4.5135326591e+000,4.3315991628e+000,4.3555320962e+000,4.2255700806e+000,5.7347226327e+000,3.3621594535e+000,3.8667189006e+000,1.9735962277e+000,3.2476064514e+000,3.2523964765e+000,3.6715763362e+000,
3.2437500000e+001,4.3738267935e+000,4.7786151236e+000,4.1809348254e+000,4.5587416668e+000,4.3550246791e+000,4.3923106789e+000,4.2583114022e+000,5.6760660605e+000,3.4567642876e+000,3.9868095988e+000,2.0034634478e+000,3.3871266836e+000,3.3144360853e+000,3.7677555427e+000,
3.2531250000e+001,4.4688058275e+000,4.8777621015e+000,4.3005213478e+000,4.8333155201e+000,4.4611820116e+000,4.6253756227e+000,4.3757480560e+000,5.5608651777e+000,3.5997423003e+000,4.4254318382e+000,2.1834071126e+000,3.7636051313e+000,3.3347077231e+000,4.0168777038e+000,
3.2625000000e+001,4.6159221565e+000,4.9850687544e+000,4.4767690578e+000,5.0487058909e+000,4.5711201077e+000,4.7765922762e+000,4.4350322657e+000,5.5808526674e+000,3.6053534637e+000,4.4928746425e+000,2.2275578985e+000,3.8293384979e+000,3.4418920940e+000,4.1591149856e+000,
3.2718750000e+001,4.6613347312e+000,4.9990928945e+000,4.5000003506e+000,5.0789429138e+000,4.5968152156e+000,4.8021175965e+000,4.4709550435e+000,5.5862060054e+000,3.5656437633e+000,4.4636080925e+000,2.2209886751e+000,3.8357700042e+000,3.4155066301e+000,4.2066212813e+000,
3.2812500000e+001,4.6906135252e+000,5.0644401752e+000,4.5286163838e+000,5.1154769147e+000,4.6098774860e+000,4.8740581611e+000,4.5057498127e+000,5.5684220401e+000,3.5759515732e+000,4.4611710667e+000,2.1288243155e+000,3.8769486679e+000,3.3625339293e+000,4.2131694623e+000,
3.2906250000e+001,4.6942822587e+000,5.0611880819e+000,4.5293170914e+000,5.1324727602e+000,4.6097489318e+000,4.8645750874e+000,4.4736717347e+000,5.5353539481e+000,3.6886833382e+000,4.4514409083e+000,2.0863770699e+000,3.9181694772e+000,3.3117853386e+000,4.2148917060e+000,
3.3000000000e+001,4.6953434256e+000,5.0670883152e+000,4.5345426122e+000,5.1331751774e+000,4.6097304393e+000,4.8634298684e+000,4.5441830931e+000,5.5835832203e+000,3.6525304683e+000,4.4498650986e+000,2.0747084811e+000,3.9376868442e+000,3.2922485427e+000,4.2082287809e+000,
3.3093750000e+001,4.6243500496e+000,5.0226443576e+000,4.4553066326e+000,5.1037244121e+000,4.5418746518e+000,4.8181475451e+000,4.5329519603e+000,5.6876911126e+000,3.5853194154e+000,4.3641825869e+000,2.0266075637e+000,3.8933835027e+000,3.2401172748e+000,4.1752241500e+000,
3.3187500000e+001,4.3886841910e+000,4.7689566840e+000,4.2626747711e+000,4.9531692037e+000,4.2681633362e+000,4.6260098572e+000,4.5601872527e+000,5.5742531133e+000,3.3845923475e+000,4.2296611477e+000,1.9762389831e+000,3.8109056698e+000,3.1806019010e+000,4.0022903725e+000,
3.3281250000e+001,4.1567136024e+000,4.7469593807e+000,4.0946544118e+000,4.8362907083e+000,4.0755090884e+000,4.4572983094e+000,4.5247665499e+000,5.5181564798e+000,3.3015268976e+000,4.1550516526e+000,1.9519762988e+000,3.8096116717e+000,3.0139205647e+000,3.8606858938e+000,
3.3375000000e+001,4.1495360353e+000,4.7825202845e+000,4.0637184504e+000,4.7825368022e+000,3.9506743380e+000,4.4435002096e+000,4.5298049986e+000,5.5399247999e+000,3.2170678848e+000,4.1719108279e+000,1.8163595957e+000,3.8070221938e+000,2.8250976875e+000,3.8088527758e+000,
3.3468750000e+001,3.9926112039e+000,4.7630066656e+000,3.9102077305e+000,4.6046968226e+000,3.8771430639e+000,4.3433057680e+000,4.3559771214e+000,5.5292234147e+000,3.0842531810e+000,3.8104658175e+000,1.6453996800e+000,3.6392065989e+000,2.7982478523e+000,3.5623321114e+000,
3.3562500000e+001,3.7548091688e+000,4.6161980359e+000,3.6352902652e+000,4.2483140205e+000,3.5946692718e+000,4.0129456197e+000,4.2745723229e+000,5.5495510232e+000,3.0707166847e+000,3.3449636601e+000,1.4929417344e+000,3.4721888786e+000,2.7039307283e+000,3.3987013263e+000,
3.3656250000e+001,3.6055526691e+000,4.5227161355e+000,3.3974880855e+000,3.8693571642e+000,3.4963044587e+000,3.8482422850e+000,4.2142354732e+000,5.4569264841e+000,3.0781766945e+000,3.3131531020e+000,1.4454325465e+000,3.3938651886e+000,2.4637119628e+000,3.1532904520e+000,
3.3750000000e+001,3.5468340355e+000,4.5735879557e+000,3.3500858076e+000,3.9062125121e+000,3.5011674125e+000,3.9081016625e+000,4.2575785086e+000,5.4147632966e+000,3.1112848594e+000,3.4413500679e+000,1.5384346888e+000,3.3778749944e+000,2.4482110328e+000,3.0603870536e+000,
3.3843750000e+001,3.4703608793e+000,4.4642672698e+000,3.2627485384e+000,3.7670274307e+000,3.5317873884e+000,3.7390280101e+000,4.1722136426e+000,5.4171400989e+000,3.0364052464e+000,3.4423862552e+000,1.5396668681e+000,3.3228307604e+000,2.5142742458e+000,3.0342138747e+000,
3.3937500000e+001,3.5092058140e+000,4.5508511898e+000,3.3818551538e+000,3.8048609153e+000,3.6295285175e+000,3.8018810996e+000,4.0850674885e+000,5.4366051035e+000,2.9644432905e+000,3.5298753752e+000,1.7004481921e+000,3.3102527547e+000,2.5773236616e+000,3.0979541870e+000,
3.4031250000e+001,3.4521726412e+000,4.5341984601e+000,3.3534231018e+000,3.8109468526e+000,3.6420422573e+000,3.8356874893e+000,3.9607361651e+000,5.4700977579e+000,3.0631513938e+000,3.5605776077e+000,1.7553798432e+000,3.4035433946e+000,2.5391770597e+000,3.1619793550e+000,
3.4125000000e+001,3.5254810664e+000,4.5297896220e+000,3.3903540289e+000,3.7776279568e+000,3.6718403972e+000,3.8873737390e+000,3.8368849811e+000,5.3475027273e+000,3.0519053991e+000,3.6249783286e+000,1.9018653476e+000,3.4358968295e+000,2.7050213432e+000,3.1647828826e+000,
3.4218750000e+001,3.5538295070e+000,4.5329199526e+000,3.3625721500e+000,3.8298127086e+000,3.6899293811e+000,3.9930702105e+000,3.8326048958e+000,5.3541468951e+000,3.1151245643e+000,3.7844334001e+000,2.1517531409e+000,3.5043209104e+000,2.7793696796e+000,3.1836573399e+000,
3.4312500000e+001,3.3915330501e+000,4.1664342510e+000,3.2152909163e+000,3.7270268451e+000,3.5682654685e+000,3.8775914692e+000,3.8245732516e+000,5.4807837068e+000,3.0625878269e+000,3.7830175159e+000,2.2193427507e+000,3.4667324090e+000,2.8267000196e+000,3.1390551652e+000,
3.4406250000e+001,3.3639474304e+000,4.0415601338e+000,3.1368208162e+000,3.6609528565e+000,3.5684375391e+000,3.8455934810e+000,3.9367157121e+000,5.4615530584e+000,3.0173921678e+000,3.8074149254e+000,2.2506869661e+000,3.4517311223e+000,2.8710095226e+000,3.1951432041e+000,
3.4500000000e+001,3.3653995551e+000,4.0451600463e+000,3.1606947648e+000,3.6198716313e+000,3.5944465606e+000,3.7741127283e+000,3.8706120535e+000,5.5266914115e+000,3.0897557964e+000,3.7730571167e+000,2.2103547936e+000,3.3622302527e+000,2.8105201251e+000,3.0813212615e+000,
3.4593750000e+001,3.2869944709e+000,4.0766428223e+000,3.1618945590e+000,3.5490858094e+000,3.5428921910e+000,3.7708321361e+000,3.9047706723e+000,5.5902852458e+000,3.0005202479e+000,3.8023347131e+000,2.2031399603e+000,3.3812210804e+000,2.8948722018e+000,3.0811453469e+000,
3.4687500000e+001,3.3326979486e+000,4.0740498675e+000,3.2373912994e+000,3.6336033281e+000,3.6485719074e+000,3.8165008253e+000,3.9837556667e+000,5.6149083543e+000,3.0248409565e+000,3.8402119942e+000,2.1173956547e+000,3.4152219856e+000,2.8510321144e+000,3.0658111775e+000,
3.4781250000e+001,3.2914873814e+000,4.0061746277e+000,3.2164636106e+000,3.5600447018e+000,3.5871536520e+000,3.7794603729e+000,3.9815426802e+000,5.6058376770e+000,3.0651981147e+000,3.7702668406e+000,2.0675879728e+000,3.3912391088e+000,2.8635554212e+000,3.0637651619e+000,
3.4875000000e+001,3.3331608794e+000,4.0433276696e+000,3.1878913280e+000,3.5720528344e+000,3.5687187283e+000,3.8376601975e+000,4.3598994842e+000,5.6443686164e+000,3.2132703206e+000,3.8944746829e+000,2.1445679334e+000,3.5389693021e+000,2.8674979790e+000,3.0799106154e+000,
3.4968750000e+001,3.2804906115e+000,3.9558062465e+000,3.1427527538e+000,3.4732910001e+000,3.4306177467e+000,3.8267897968e+000,4.4029179635e+000,5.6209933495e+000,3.2551870765e+000,3.8556928246e+000,2.1244580399e+000,3.5142885836e+000,2.8378854097e+000,3.0872912272e+000,
3.5062500000e+001,3.2994836287e+000,4.0439661849e+000,3.1293692150e+000,3.4665382096e+000,3.3867449884e+000,3.8315254578e+000,4.4379192930e+000,5.6408493449e+000,3.2591394647e+000,3.8507861082e+000,2.2304334879e+000,3.4813240447e+000,2.9184602700e+000,3.0408904973e+000,
3.5156250000e+001,3.4801467364e+000,4.1945492712e+000,3.2748311187e+000,3.5972697835e+000,3.5917873068e+000,3.8987389286e+000,4.4876586539e+000,5.6801850119e+000,3.2468539729e+000,3.7926103913e+000,2.1996561663e+000,3.4002046355e+000,2.9395761351e+000,3.1374336100e+000,
3.5250000000e+001,3.5547731484e+000,4.1997894299e+000,3.3584739711e+000,3.6033869451e+000,3.6372584287e+000,3.9422179830e+000,4.5496647326e+000,5.5762610105e+000,3.3005224811e+000,3.7932526524e+000,2.1923560861e+000,3.3882291573e+000,2.9649119073e+000,3.2050888845e+000,
3.5343750000e+001,3.5037627616e+000,4.2213116827e+000,3.3600390956e+000,3.6660833877e+000,3.6288765097e+000,3.9949125333e+000,4.5588865865e+000,5.5467840872e+000,3.3213381332e+000,3.8663863413e+000,2.1540407263e+000,3.4402810424e+000,2.9343217343e+000,3.2490557280e+000,
3.5437500000e+001,3.7936366944e+000,4.2835921617e+000,3.6152520190e+000,3.8863253687e+000,3.7122206786e+000,4.0326613099e+000,4.5068024799e+000,5.5566868881e+000,3.2871655825e+000,3.8059990013e+000,2.1594287304e+000,3.3605732410e+000,2.9581185472e+000,3.2278211329e+000,
3.5531250000e+001,3.9696968070e+000,4.4551213465e+000,3.7790268384e+000,4.1816060098e+000,3.9065787477e+000,4.2377529018e+000,4.7672538121e+000,5.4926040526e+000,3.3821435846e+000,3.8344393719e+000,2.1449967217e+000,3.3528058876e+000,2.9010634503e+000,3.3399730001e+000,
3.5625000000e+001,3.9362244155e+000,4.4032130860e+000,3.7398649899e+000,4.1370754154e+000,3.8487357703e+000,4.2146644529e+000,4.7733595047e+000,5.4808174789e+000,3.4893808962e+000,3.7673338911e+000,2.1896514320e+000,3.3447148479e+000,2.9816674754e+000,3.2600565642e+000,
3.5718750000e+001,3.9509675737e+000,4.4852994178e+000,3.7650687174e+000,4.1841197909e+000,3.8526929587e+000,4.1951995750e+000,4.7427706967e+000,5.4683323490e+000,3.4830240946e+000,3.7855756275e+000,2.1899582466e+000,3.4179794746e+000,3.1218920852e+000,3.2066894989e+000,
3.5812500000e+001,4.0520357579e+000,4.5262543645e+000,3.9008784791e+000,4.3001105903e+000,3.9181738133e+000,4.2058982292e+000,4.7416185260e+000,5.3475040539e+000,3.5495523786e+000,3.8005288656e+000,2.2093388416e+000,3.3562820653e+000,3.0741101271e+000,3.2294912307e+000,
3.5906250000e+001,4.0748150917e+000,4.5694844178e+000,3.8914965347e+000,4.3555292613e+000,3.9379657531e+000,4.2155793986e+000,4.4817051360e+000,5.5908660234e+000,3.5149180536e+000,3.8191533205e+000,2.2092303971e+000,3.3693857020e+000,3.1857940368e+000,3.2118489835e+000,
3.6000000000e+001,4.1421167039e+000,4.6157078388e+000,3.9396894883e+000,4.4082799653e+000,4.0292517837e+000,4.3282127916e+000,4.5161096671e+000,5.5311393222e+000,3.4708153442e+000,3.9273477868e+000,2.1983630381e+000,3.5281439621e+000,3.1764741860e+000,3.2400201063e+000,
3.6093750000e+001,4.2347872400e+000,4.5592524753e+000,3.9970829545e+000,4.4261018640e+000,4.0336444761e+000,4.2922349658e+000,4.6980875392e+000,5.4314158521e+000,3.4275286085e+000,3.9908360810e+000,2.1203796221e+000,3.5906196696e+000,3.1022240562e+000,3.3574102062e+000,
3.6187500000e+001,4.1508793998e+000,4.5317013234e+000,3.9279109392e+000,4.3595622994e+000,3.9942081786e+000,4.1989003558e+000,4.7922361790e+000,5.4252586786e+000,3.4539813873e+000,3.9505849841e+000,2.1583143981e+000,3.5328611690e+000,3.2564562821e+000,3.2704071869e+000,
3.6281250000e+001,4.1777021543e+000,4.5683991446e+000,3.9836504022e+000,4.3779683446e+000,4.0626587408e+000,4.2227876920e+000,4.9689601495e+000,5.4265320096e+000,3.5049144738e+000,3.9142671899e+000,2.0525089484e+000,3.4708550607e+000,3.2230387259e+000,3.2064005854e+000,
3.6375000000e+001,4.1650402621e+000,4.5833819049e+000,3.9743842200e+000,4.4140891888e+000,4.0772024691e+000,4.2547829085e+000,4.9858630108e+000,5.4204921528e+000,3.5327681916e+000,3.8940148304e+000,2.0960449109e+000,3.5067469045e+000,3.2622151832e+000,3.1934733446e+000,
3.6468750000e+001,3.9176304712e+000,4.5118323254e+000,3.7408839014e+000,4.2564097502e+000,3.9325795492e+000,4.1847953982e+000,4.9517692200e+000,5.4246456310e+000,3.4031874554e+000,3.9192631070e+000,2.1439541670e+000,3.5675847208e+000,3.2455887079e+000,3.1128350353e+000,
3.6562500000e+001,3.9521931088e+000,4.7129439893e+000,3.7936881125e+000,4.3381448601e+000,3.8832054744e+000,4.1935109510e+000,4.8370990170e+000,5.4314396318e+000,3.3949966753e+000,3.9183821952e+000,2.1345659573e+000,3.5268415061e+000,3.2400849850e+000,3.0137781761e+000,
3.6656250000e+001,4.0944157421e+000,5.0463812590e+000,3.9439182450e+000,4.5439646631e+000,3.9070069379e+000,4.3264083528e+000,4.9610313746e+000,5.3613771904e+000,3.3047401032e+000,3.9282270591e+000,2.1477049239e+000,3.4670559895e+000,3.1020351323e+000,2.9998817074e+000,
3.6750000000e+001,4.2197926849e+000,5.0267967565e+000,4.0536962830e+000,4.6073462708e+000,4.0692757729e+000,4.4181821477e+000,5.0391138678e+000,5.4938751956e+000,3.2623563104e+000,4.1350504993e+000,2.1803158956e+000,3.7053686946e+000,2.9554906878e+000,3.2727971708e+000,
3.6843750000e+001,4.3063626723e+000,5.1057696171e+000,4.1231661888e+000,4.6405547156e+000,4.2976410318e+000,4.5430064255e+000,5.0089453800e+000,5.5596731556e+000,3.1638876633e+000,4.4430841817e+000,2.2204423510e+000,3.9153317170e+000,2.8878369510e+000,3.3599930587e+000,
3.6937500000e+001,4.3563274872e+000,5.1649776523e+000,4.1893514133e+000,4.7363301710e+000,4.3255977785e+000,4.6261182602e+000,5.0030029432e+000,5.5551976822e+000,3.1834658066e+000,4.4426990294e+000,2.2629076238e+000,3.9354847239e+000,2.8193742345e+000,3.4772321425e+000,
3.7031250000e+001,4.3349449164e+000,5.2070569571e+000,4.1875346894e+000,4.7881206959e+000,4.3457345835e+000,4.6988177502e+000,4.9618403700e+000,5.5608608865e+000,3.1548881861e+000,4.4952024882e+000,2.2043946930e+000,3.9112702825e+000,2.8484448685e+000,3.3794285224e+000,
3.7125000000e+001,4.2362344479e+000,5.3037109063e+000,4.1374864193e+000,4.8398094694e+000,4.3464594361e+000,4.7924433454e+000,4.8811505219e+000,5.6068970862e+000,3.2008126067e+000,4.6351777861e+000,2.1712562889e+000,4.0323062520e+000,2.7704989900e+000,3.4039862784e+000,
3.7218750000e+001,4.2312716736e+000,5.3737422390e+000,4.1257198725e+000,4.8844481536e+000,4.2919077609e+000,4.8787785244e+000,4.8483010217e+000,5.7372410144e+000,3.0998559660e+000,4.7839651888e+000,2.1958649352e+000,4.1923341353e+000,2.4218816940e+000,3.5714637140e+000,
3.7312500000e+001,4.1813668872e+000,5.3599652811e+000,4.0738158407e+000,4.8715928726e+000,4.2604531592e+000,4.8564182473e+000,4.8767725597e+000,5.8164496724e+000,3.0974834714e+000,4.8060748194e+000,2.0973827534e+000,4.2749451967e+000,2.3629741480e+000,3.7270319012e+000,
3.7406250000e+001,4.1963815123e+000,5.3752688777e+000,4.0448689929e+000,4.8895543968e+000,4.2855761807e+000,4.8839353020e+000,4.9078226973e+000,5.8467161680e+000,3.2416554798e+000,4.8634078931e+000,2.0179561368e+000,4.2954130311e+000,2.3123623586e+000,3.7068343584e+000,
3.7500000000e+001,4.3015516703e+000,5.3795852453e+000,4.1265830711e+000,4.8241929694e+000,4.3435413205e+000,4.8567588207e+000,4.8538370031e+000,5.8382944724e+000,3.3476657054e+000,4.9013715726e+000,2.0357683601e+000,4.3551336222e+000,2.6812514003e+000,3.7894073106e+000,
3.7593750000e+001,4.3462236774e+000,5.2649499596e+000,4.1328023798e+000,4.7874097257e+000,4.3838981398e+000,4.8755443623e+000,4.8413953595e+000,5.9245279656e+000,3.3477445572e+000,4.9474629527e+000,2.1051566955e+000,4.3882370088e+000,2.8281990183e+000,3.8454285628e+000,
3.7687500000e+001,4.2956764823e+000,5.1432479222e+000,4.1010920823e+000,4.7108268616e+000,4.4422587776e+000,4.9008285806e+000,4.8059093992e+000,6.0100606911e+000,3.3381706986e+000,4.9290556970e+000,2.0909217081e+000,4.3937393713e+000,3.0417870351e+000,3.8453712869e+000,
3.7781250000e+001,4.2502385829e+000,5.1166044444e+000,3.9680138199e+000,4.6612206010e+000,4.3496403480e+000,4.8687119272e+000,4.8768283682e+000,5.9294605082e+000,3.4625688450e+000,4.7880598447e+000,2.0941714654e+000,4.1994177651e+000,3.0713640363e+000,3.7544009544e+000,
3.7875000000e+001,4.0835883409e+000,4.9656939081e+000,3.8075298226e+000,4.5310788115e+000,4.1076697484e+000,4.7096257677e+000,4.8828652229e+000,5.9069852627e+000,3.4225859522e+000,4.5985547182e+000,2.0731706183e+000,4.1038347176e+000,3.1143125682e+000,3.6701551128e+000,
3.7968750000e+001,4.0260302757e+000,4.9125394319e+000,3.7240306423e+000,4.4074282052e+000,4.0797914410e+000,4.6046522114e+000,4.8826884411e+000,5.7697798316e+000,3.3256093713e+000,4.5283001732e+000,1.9321809409e+000,3.9881112769e+000,3.1869825840e+000,3.5570359360e+000,
3.8062500000e+001,4.0575137011e+000,4.8402079959e+000,3.7696834631e+000,4.3733919485e+000,4.0918165357e+000,4.5094632425e+000,4.8588932073e+000,5.7933149325e+000,3.2935610739e+000,4.4082164037e+000,1.9260941419e+000,3.9197007727e+000,3.2498138574e+000,3.5705716297e+000,
3.8156250000e+001,4.1439651866e+000,4.6906182613e+000,3.8661843147e+000,4.4177410070e+000,4.0963101503e+000,4.3675012369e+000,4.7711910274e+000,5.6892383025e+000,3.1741387633e+000,4.2548742922e+000,2.0114428681e+000,3.7923584362e+000,3.3667832065e+000,3.5122607355e+000,
3.8250000000e+001,4.2374546064e+000,4.6483722074e+000,3.9949676632e+000,4.5056341399e+000,4.1251947652e+000,4.3163974522e+000,4.6657935509e+000,5.5583554711e+000,3.1520037456e+000,4.0900313471e+000,2.0725515333e+000,3.6661115412e+000,3.4275608505e+000,3.3661848087e+000,
3.8343750000e+001,4.2783959661e+000,4.6590820437e+000,4.0378698207e+000,4.5240121535e+000,4.1309948265e+000,4.2859398769e+000,4.8282578835e+000,5.4603862618e+000,3.2742278435e+000,4.0274759054e+000,2.1118488131e+000,3.5976653299e+000,3.4277754095e+000,3.1402434566e+000,
3.8437500000e+001,4.2603189336e+000,4.7017972397e+000,4.0485511951e+000,4.5120663241e+000,4.1035668673e+000,4.2229882475e+000,4.7837249977e+000,5.3841175863e+000,3.2462887534e+000,3.7957967411e+000,2.1277668445e+000,3.3433975471e+000,3.3687736519e+000,3.0086372278e+000,
3.8531250000e+001,4.1654290687e+000,4.5266754686e+000,3.9474127724e+000,4.4661764888e+000,3.9996682093e+000,4.1998119619e+000,4.7906564641e+000,5.2806410679e+000,3.2001404098e+000,3.6820041347e+000,2.1893891948e+000,3.3478027403e+000,3.2092204198e+000,2.9048113229e+000,
3.8625000000e+001,4.1192268492e+000,4.4161267258e+000,3.9561229688e+000,4.4660256020e+000,3.9717930255e+000,4.0737565907e+000,4.8278119436e+000,5.2174345987e+000,3.3026749689e+000,3.6458609861e+000,2.1912674791e+000,3.5100559270e+000,3.0808266817e+000,3.0808327317e+000,
3.8718750000e+001,4.1284515044e+000,4.5176511487e+000,3.9875029259e+000,4.4461626734e+000,3.9666347934e+000,4.1139661042e+000,4.5903237935e+000,5.2251214343e+000,3.4634839761e+000,3.8134174991e+000,2.1877508798e+000,3.5972242444e+000,2.9699635626e+000,2.9825396899e+000,
3.8812500000e+001,4.2118946660e+000,4.6678049923e+000,4.1144775055e+000,4.4856456711e+000,4.1302733373e+000,4.1876335222e+000,4.5973313315e+000,5.2480339589e+000,3.4052480825e+000,4.0689791013e+000,2.3025822453e+000,3.7333405444e+000,2.9276557636e+000,3.1506044539e+000,
3.8906250000e+001,4.3826865957e+000,4.7145740790e+000,4.2514972446e+000,4.5495656595e+000,4.2778981190e+000,4.2845603787e+000,4.7287233682e+000,5.3773659739e+000,3.4410411889e+000,4.1347326078e+000,2.3433253626e+000,3.7796152332e+000,2.9247460349e+000,3.3362286893e+000,
3.9000000000e+001,4.4369310568e+000,4.6987872606e+000,4.2917245189e+000,4.5801630385e+000,4.3204629514e+000,4.3061522973e+000,4.8125208114e+000,5.5573900264e+000,3.5368133113e+000,4.2289103904e+000,2.3644250357e+000,3.9221465747e+000,2.9195709554e+000,3.5939885889e+000,
3.9093750000e+001,4.4222451562e+000,4.6733184576e+000,4.2604538038e+000,4.4608357660e+000,4.3156285055e+000,4.3395445883e+000,4.8272048234e+000,5.7633821476e+000,3.5269806875e+000,4.3481264849e+000,2.3892899917e+000,3.9605681906e+000,3.0058608630e+000,3.6157129192e+000,
3.9187500000e+001,4.4689421259e+000,4.8732632734e+000,4.2799656825e+000,4.4601805951e+000,4.4825372071e+000,4.5711065856e+000,4.7820032818e+000,5.7917753784e+000,3.6226286922e+000,4.5557296233e+000,2.3599708752e+000,4.1025344977e+000,3.1097924634e+000,3.6435829509e+000,
3.9281250000e+001,4.5653114405e+000,5.0043302344e+000,4.3448147107e+000,4.5199866989e+000,4.6243554949e+000,4.6573420754e+000,4.6566108522e+000,5.8498551803e+000,3.6835714144e+000,4.5611157816e+000,2.3092680887e+000,4.0888130911e+000,3.2642133767e+000,3.6437357883e+000,
3.9375000000e+001,4.5970142931e+000,5.0897261797e+000,4.3795940351e+000,4.5516015413e+000,4.6904498414e+000,4.7420397796e+000,4.7105738175e+000,5.8887834832e+000,3.7103209132e+000,4.5804798882e+000,2.4409616165e+000,4.0731502624e+000,3.2808498098e+000,3.6772040006e+000,
3.9468750000e+001,4.5961809329e+000,5.0391241854e+000,4.3720902749e+000,4.5832104143e+000,4.7128871175e+000,4.7167066099e+000,4.8067895372e+000,5.9299280468e+000,3.6963579167e+000,4.5670529753e+000,2.4516822212e+000,4.0477293301e+000,3.2851438555e+000,3.6917532285e+000,
3.9562500000e+001,4.5778482735e+000,5.0510053694e+000,4.3444823154e+000,4.5579418113e+000,4.6768296099e+000,4.7012755189e+000,5.0608148797e+000,5.9584886270e+000,3.6824449888e+000,4.5603255756e+000,2.4191028524e+000,3.9951877601e+000,3.2699294808e+000,3.6526135049e+000,
3.9656250000e+001,4.5577923843e+000,5.0409689207e+000,4.2950562018e+000,4.5248455472e+000,4.6607081469e+000,4.6713692667e+000,5.1391434925e+000,5.9825312832e+000,3.6037687914e+000,4.5262114820e+000,2.4816509884e+000,3.8941426156e+000,3.2646295737e+000,3.5412588209e+000,
3.9750000000e+001,4.4217862721e+000,4.8689313557e+000,4.1329420387e+000,4.4516475696e+000,4.5394701788e+000,4.5118547962e+000,5.1194183081e+000,5.8942610360e+000,3.5234852717e+000,4.3680115943e+000,2.4679878381e+000,3.7466583946e+000,3.2159587967e+000,3.4511951474e+000,
3.9843750000e+001,4.3266663294e+000,4.8815815205e+000,4.0417537169e+000,4.4308878585e+000,4.4926355535e+000,4.5466732096e+000,5.1194376633e+000,5.8955603737e+000,3.5437894437e+000,4.3828726748e+000,2.3344574806e+000,3.7604718817e+000,3.2140845545e+000,3.3819177677e+000,
3.9937500000e+001,4.1184054943e+000,4.8520080308e+000,3.8322368792e+000,4.2902285564e+000,4.3084683618e+000,4.4696680238e+000,5.0133336050e+000,5.7617258389e+000,3.4808072546e+000,4.3324437643e+000,2.3116795082e+000,3.6092434722e+000,3.1602275389e+000,3.0558510379e+000,
4.0031250000e+001,4.1453304647e+000,4.9575328587e+000,3.9153001143e+000,4.3882385599e+000,4.3532048312e+000,4.5176855807e+000,5.0263610601e+000,5.6974333835e+000,3.5053212922e+000,4.2164663716e+000,2.3143006431e+000,3.6091842444e+000,3.0890629179e+000,2.9900589028e+000,
4.0125000000e+001,4.0754875630e+000,4.8680768887e+000,3.8337954723e+000,4.2937076253e+000,4.2369166757e+000,4.3686687536e+000,5.0200808538e+000,5.5129060801e+000,3.5094708609e+000,3.9381437793e+000,2.1989790678e+000,3.4094879098e+000,2.8669935111e+000,2.8665785977e+000,
4.0218750000e+001,3.8082523753e+000,4.6705033577e+000,3.5824031770e+000,4.1043885157e+000,3.9859319471e+000,4.1184629348e+000,5.0214043146e+000,5.5891117834e+000,3.3968111449e+000,3.7453923368e+000,2.1770380741e+000,3.2737416871e+000,2.4951036266e+000,2.8148342992e+000,
4.0312500000e+001,3.6729850897e+000,4.6541449533e+000,3.4541440485e+000,4.0551578094e+000,3.8070060624e+000,4.1235474158e+000,4.9628485523e+000,5.4492255198e+000,3.3826877397e+000,3.8843615846e+000,2.1899757313e+000,3.3751154448e+000,2.3187158295e+000,2.9136880343e+000,
4.0406250000e+001,3.7010840829e+000,4.6516593705e+000,3.4861780004e+000,4.0366796864e+000,3.8186760532e+000,4.1436120415e+000,4.7928006597e+000,5.5556415104e+000,3.2813579661e+000,4.0330835071e+000,2.1968987702e+000,3.6096117348e+000,2.4055498997e+000,2.9881677638e+000,
4.0500000000e+001,3.6674956086e+000,4.6324213496e+000,3.4613885243e+000,3.9509305456e+000,3.7148955293e+000,4.1037222046e+000,4.7497438809e+000,5.5762507358e+000,3.2316738701e+000,4.1370231589e+000,2.1381318997e+000,3.7161552767e+000,2.6226886280e+000,3.2229846818e+000,
4.0593750000e+001,3.7757623837e+000,4.5856721941e+000,3.5398795882e+000,3.8636439072e+000,3.6757681162e+000,4.0705113555e+000,4.3798821909e+000,5.5287487863e+000,3.2340576435e+000,4.1473354977e+000,2.0723632765e+000,3.7500542191e+000,2.7221589492e+000,3.3156852603e+000,
4.0687500000e+001,3.7624772013e+000,4.6073760476e+000,3.5520604807e+000,3.8192123403e+000,3.6902995027e+000,4.1451855502e+000,4.6473509909e+000,5.5477737039e+000,3.2713370834e+000,4.1755409261e+000,2.0029674296e+000,3.7866205593e+000,2.9017791397e+000,3.3217030781e+000,
4.0781250000e+001,3.8325172625e+000,4.6099705054e+000,3.6271994006e+000,3.8244566162e+000,3.6666981421e+000,4.1538881900e+000,4.8908514587e+000,5.5743278675e+000,3.2427381135e+000,4.1600290995e+000,1.9579288563e+000,3.7981756704e+000,2.9747586826e+000,3.3400257085e+000,
4.0875000000e+001,3.8475292131e+000,4.5152157466e+000,3.6552963854e+000,3.9398673928e+000,3.6114223241e+000,4.0262296344e+000,4.8610555511e+000,5.5987643441e+000,3.2143723771e+000,4.0277712473e+000,1.9399425569e+000,3.6744760281e+000,3.1907214428e+000,3.2783564213e+000,
4.0968750000e+001,3.9349203035e+000,4.4649579599e+000,3.7395325079e+000,3.9733822630e+000,3.7087250313e+000,4.0821804216e+000,4.8319333112e+000,5.6547701720e+000,3.1944768031e+000,4.1057326158e+000,2.0444457115e+000,3.7107303350e+000,3.4252698794e+000,3.2651957927e+000,
4.1062500000e+001,3.9793386170e+000,4.3681963342e+000,3.7318668494e+000,4.0672235226e+000,3.6396246734e+000,3.9802490821e+000,4.7839667926e+000,5.7737644642e+000,3.1784890928e+000,4.0702324709e+000,2.0034093726e+000,3.6385854988e+000,3.4440741627e+000,3.2320409626e+000,
4.1156250000e+001,3.9541885330e+000,4.3634081343e+000,3.7263678291e+000,4.0955724068e+000,3.6019447071e+000,3.9371248107e+000,4.8702890896e+000,5.7786485861e+000,3.1789278126e+000,4.0640844069e+000,2.0483138958e+000,3.6585673343e+000,3.4490027075e+000,3.2380010883e+000,
