Time (s),AF3,AF4,F3,F4,F7,F8,FC5,FC6,T7,T8,P7,P8,O1,O2,Sampling Rate
0.0000000000e+000,3.9859696182e+000,4.0432212965e+000,3.7285341707e+000,3.5920340791e+000,4.3667814105e+000,3.8697633349e+000,3.7338411377e+000,4.1276456257e+000,5.1865011287e+000,4.0563894460e+000,6.9991053727e+000,3.9445346402e+000,3.6441644440e+000,3.8386667120e+000,1
9.3750000000e-002,4.1406955181e+000,4.1345922030e+000,3.9517247259e+000,3.6851598926e+000,4.4135867223e+000,3.9419821932e+000,3.9950809010e+000,4.0987806576e+000,5.3018017360e+000,4.0680303949e+000,7.0003893456e+000,4.0709720178e+000,3.7498568883e+000,3.8431141061e+000,
1.8750000000e-001,4.0802944659e+000,4.0711964899e+000,3.9220753000e+000,3.6454530353e+000,4.4263744118e+000,3.9254335910e+000,4.0082818115e+000,4.0283350047e+000,5.2845454445e+000,4.0981362522e+000,6.9966590377e+000,4.1188412125e+000,3.7474687674e+000,3.9049960425e+000,
2.8125000000e-001,3.9292369649e+000,3.9463230283e+000,3.8356864904e+000,3.5331742208e+000,4.4356149784e+000,3.8106308773e+000,4.0382515980e+000,3.9488026360e+000,5.1812015853e+000,4.0651476781e+000,6.9961701168e+000,4.0431066925e+000,3.6638956321e+000,4.0222364655e+000,
3.7500000000e-001,3.8157791758e+000,3.8580424402e+000,3.7621815432e+000,3.4310560228e+000,4.3743112596e+000,3.6917996602e+000,4.0078900668e+000,3.9265037686e+000,5.1932378246e+000,4.0620794083e+000,6.9971916097e+000,4.0143387642e+000,3.6935502964e+000,4.0860909136e+000,
4.6875000000e-001,3.8054708354e+000,3.7871807752e+000,3.7611105404e+000,3.4059045545e+000,4.3915354109e+000,3.6666626793e+000,3.9856725677e+000,3.8442925363e+000,5.1635856310e+000,3.9703540340e+000,6.9995749211e+000,4.0072529278e+000,3.7035349390e+000,4.1627586441e+000,
5.6250000000e-001,3.6607682392e+000,3.7097981518e+000,3.6991766842e+000,3.3469972512e+000,4.3569047009e+000,3.6808289863e+000,3.8474400471e+000,3.8174079537e+000,5.1140626530e+000,3.9465469563e+000,7.0008748039e+000,3.9408855521e+000,3.6963634937e+000,4.1794870690e+000,
6.5625000000e-001,3.6393883834e+000,3.7163812736e+000,3.7628340271e+000,3.3535363152e+000,4.3297524894e+000,3.6906273901e+000,3.9207112406e+000,3.8108085600e+000,5.1287569598e+000,4.0650187696e+000,6.8974339270e+000,3.9262108355e+000,3.7643698573e+000,4.0904926323e+000,
7.5000000000e-001,3.6225217374e+000,3.6958835183e+000,3.7233254985e+000,3.3913980835e+000,4.2923408979e+000,3.6704915537e+000,3.9321119830e+000,3.8302164608e+000,5.1301157826e+000,4.0226024431e+000,3.8754560019e+000,3.9142643025e+000,3.7534860090e+000,4.1080892321e+000,
8.4375000000e-001,3.7174648189e+000,3.7314731568e+000,3.7475949699e+000,3.4445875559e+000,4.3037500372e+000,3.7494761395e+000,4.0175780416e+000,3.7718437284e+000,5.1215426986e+000,4.0680394230e+000,3.7545654640e+000,3.9262927815e+000,3.6949576019e+000,4.1503201843e+000,
9.3750000000e-001,3.8209582417e+000,3.7937448109e+000,3.8190377498e+000,3.4698956938e+000,4.3011142358e+000,3.8684711080e+000,4.0121233584e+000,3.8117904494e+000,5.1793254085e+000,4.1316565878e+000,3.8167688734e+000,3.9834600638e+000,3.6879421702e+000,4.1468972904e+000,
1.0312500000e+000,3.8936263819e+000,3.8202551236e+000,3.7502049271e+000,3.5052893680e+000,4.2309410366e+000,3.9546573873e+000,3.9491166928e+000,3.9312008644e+000,5.1548155519e+000,4.1686528219e+000,3.8747274174e+000,3.9608685733e+000,3.6910206395e+000,4.1752203118e+000,
1.1250000000e+000,3.7420026721e+000,3.7089321244e+000,3.5705687991e+000,3.4812328550e+000,4.2538153521e+000,3.8445550731e+000,3.8500384986e+000,3.8861448718e+000,5.0473898174e+000,4.1310190458e+000,4.2178654905e+000,3.8418023981e+000,3.6290563596e+000,4.1539373631e+000,
1.2187500000e+000,3.8392174360e+000,3.7385901291e+000,3.7217191323e+000,3.6179936871e+000,4.3416769980e+000,3.9234633582e+000,3.9667207330e+000,3.9719979252e+000,5.1061000044e+000,4.1341316191e+000,6.7561605727e+000,3.8747096501e+000,3.6901709686e+000,4.1421216420e+000,
1.3125000000e+000,3.9181861515e+000,3.7617524300e+000,3.8029805250e+000,3.7071422832e+000,4.3672624688e+000,3.9452790342e+000,4.1249713549e+000,4.0377931428e+000,5.2683117728e+000,4.1317956991e+000,6.8377406781e+000,3.9664744591e+000,3.8266643602e+000,4.0882967305e+000,
1.4062500000e+000,4.0049873198e+000,3.8635748620e+000,3.9239050505e+000,3.7954321259e+000,4.4408127015e+000,4.0223894275e+000,4.2209646026e+000,4.1380781052e+000,5.3086181106e+000,4.2020381872e+000,6.8438792076e+000,4.0688686306e+000,3.9434141400e+000,3.9905734032e+000,
1.5000000000e+000,4.0332162921e+000,3.9164879237e+000,3.9278963751e+000,3.8041930908e+000,4.4441645739e+000,4.0578680377e+000,4.2926097999e+000,4.1841412896e+000,5.3205491499e+000,4.2415824385e+000,6.8421691274e+000,4.1048525049e+000,3.9613221412e+000,3.9986415669e+000,
1.5937500000e+000,4.0481668322e+000,3.9039820438e+000,3.9124751477e+000,3.8442605088e+000,4.4326047172e+000,4.0862476616e+000,4.2953195355e+000,4.1567734415e+000,5.2394427661e+000,4.2948217092e+000,6.8415676673e+000,4.1187732010e+000,3.9240367693e+000,4.0901239114e+000,
1.6875000000e+000,4.0579760282e+000,3.8889102631e+000,3.8462227991e+000,3.7590544063e+000,4.4363912148e+000,4.0689351216e+000,4.3007143223e+000,4.1117979413e+000,5.2577009327e+000,4.2039709833e+000,6.8412320332e+000,4.0759608969e+000,3.8729920542e+000,4.1617407204e+000,
1.7812500000e+000,4.0587073484e+000,3.8925447997e+000,3.8544942992e+000,3.7657360277e+000,4.4559977625e+000,4.0946051965e+000,4.2327252692e+000,4.1376663089e+000,5.2709744816e+000,4.2047134708e+000,6.8408889724e+000,4.1185921709e+000,3.8976249993e+000,4.1911716439e+000,
1.8750000000e+000,4.0231669758e+000,3.8615428366e+000,3.8803741736e+000,3.7508454119e+000,4.4397166717e+000,4.0243821585e+000,4.2469617414e+000,4.1226676008e+000,5.1795965735e+000,4.0384447421e+000,6.8385761933e+000,4.0647593542e+000,3.8792879378e+000,4.1880195404e+000,
1.9687500000e+000,4.0328003048e+000,3.9577923991e+000,3.9253816565e+000,3.7377455595e+000,4.4635941103e+000,4.0054766267e+000,4.2717853966e+000,4.0888225316e+000,5.1861155157e+000,3.9713444647e+000,6.8410775552e+000,4.0055377643e+000,3.9157285602e+000,4.1810402905e+000,
2.0625000000e+000,4.0111978703e+000,4.0487095409e+000,3.9957320561e+000,3.8175880350e+000,4.4511820799e+000,4.0083007365e+000,4.3076385778e+000,4.0360178842e+000,5.1653958217e+000,3.9215940443e+000,6.8377874799e+000,3.9802369972e+000,3.8568128823e+000,4.1784786203e+000,
2.1562500000e+000,4.1241793020e+000,4.1758924389e+000,4.0476694391e+000,3.9159995094e+000,4.3864323407e+000,4.2247539389e+000,4.2594165936e+000,4.1927855134e+000,5.2495570117e+000,4.0976676161e+000,6.5208910431e+000,4.0740816260e+000,3.8574205825e+000,4.2605817079e+000,
2.2500000000e+000,4.0417618833e+000,4.1141042520e+000,3.9019199103e+000,3.7962187802e+000,4.3349986470e+000,4.1786051942e+000,4.2124651234e+000,4.1293998555e+000,5.0822738708e+000,4.1301977092e+000,4.3413099051e+000,4.0073463300e+000,3.6130929105e+000,4.3184351477e+000,
2.3437500000e+000,3.9800169733e+000,4.1170646941e+000,3.8545111567e+000,3.7423514061e+000,4.2158580272e+000,4.1642555252e+000,4.0949387987e+000,4.1140826952e+000,4.9257524719e+000,4.1058110402e+000,3.7775081652e+000,3.9037424671e+000,3.5372614019e+000,4.2865361577e+000,
2.4375000000e+000,3.9285081361e+000,4.0458981024e+000,3.8241350738e+000,3.6932452486e+000,4.1575895564e+000,4.1057570695e+000,4.0353709191e+000,4.0134194791e+000,4.8092550615e+000,4.0317059631e+000,3.6296141150e+000,3.8616751889e+000,3.3279949086e+000,4.2692410542e+000,
2.5312500000e+000,4.0276526955e+000,4.0238524674e+000,3.9606459251e+000,3.7260705374e+000,4.2837584157e+000,4.0442440624e+000,4.2454097886e+000,4.0283701315e+000,4.9171350553e+000,4.0151819861e+000,6.6887247067e+000,3.9042404366e+000,3.2879621949e+000,4.2371792476e+000,
2.6250000000e+000,4.0288471412e+000,4.0242573589e+000,3.9517831850e+000,3.6582115214e+000,4.3372030133e+000,4.0308737810e+000,4.2351086218e+000,3.9505596705e+000,4.9590382151e+000,3.9199748314e+000,6.8634997927e+000,3.8579862566e+000,3.2825143949e+000,4.1520376676e+000,
2.7187500000e+000,4.0169603379e+000,4.0598694825e+000,3.9414449430e+000,3.6249071026e+000,4.2996716633e+000,4.0272804064e+000,4.2235025371e+000,3.9482601057e+000,4.9864772394e+000,3.8751044422e+000,6.8640635369e+000,3.8905985879e+000,3.2762664161e+000,4.0872860557e+000,
2.8125000000e+000,4.0221065053e+000,4.0953754276e+000,3.9785417947e+000,3.6299368170e+000,4.3077942508e+000,4.0795793393e+000,4.2521284454e+000,4.0177745439e+000,4.9595519598e+000,3.8725060676e+000,6.8637886066e+000,3.8279881798e+000,3.2408774553e+000,4.0850907674e+000,
2.9062500000e+000,3.9707086280e+000,4.0566045578e+000,3.9254307290e+000,3.5832828589e+000,4.3152379113e+000,4.0139033951e+000,4.2291110923e+000,3.9808182863e+000,4.9656337671e+000,3.8642452175e+000,6.8670608550e+000,3.8676879531e+000,3.3138047065e+000,4.2349198862e+000,
3.0000000000e+000,3.9160322639e+000,3.9355535721e+000,3.8988945986e+000,3.5969812372e+000,4.3095121637e+000,4.0031852072e+000,4.2060424507e+000,3.9412988778e+000,4.9684755885e+000,3.9194166988e+000,6.8670819173e+000,3.9396637770e+000,3.3564159930e+000,4.4548008245e+000,
3.0937500000e+000,3.8416840903e+000,3.7429651620e+000,3.8393742462e+000,3.4284380823e+000,4.2787570987e+000,3.9321754553e+000,4.2188438880e+000,3.8519369084e+000,4.9319357451e+000,3.8098845214e+000,6.8678641038e+000,4.0474228173e+000,3.4349820636e+000,4.4413253330e+000,
3.1875000000e+000,3.6935117289e+000,3.5868980000e+000,3.8937488145e+000,3.3071567147e+000,4.2511603486e+000,3.6690480669e+000,4.2465843002e+000,3.7099623409e+000,4.9206632302e+000,3.5794243401e+000,6.8683697584e+000,3.9929752808e+000,3.5315437855e+000,4.4050311257e+000,
3.2812500000e+000,3.6856150736e+000,3.6487440611e+000,3.8890354455e+000,3.2898093427e+000,4.2131162539e+000,3.7494844236e+000,4.2095271534e+000,3.7391495769e+000,4.9924488761e+000,3.6008812040e+000,6.8662990597e+000,3.9391456826e+000,3.5344129368e+000,4.2984962528e+000,
3.3750000000e+000,3.7217429591e+000,3.7592626879e+000,3.9094970312e+000,3.4150258923e+000,4.2527623167e+000,3.7559839858e+000,4.2219540063e+000,3.8036197331e+000,5.0012961059e+000,3.6833499372e+000,6.8693335640e+000,3.9982407868e+000,3.6162024249e+000,4.3360169612e+000,
3.4687500000e+000,3.6779681571e+000,3.8561912076e+000,3.8920707710e+000,3.4391544273e+000,4.3690790298e+000,3.8778931606e+000,4.2172042666e+000,3.8791470136e+000,5.0543831106e+000,3.7135596188e+000,6.8345567362e+000,3.9476341092e+000,3.6364623304e+000,4.3037030779e+000,
3.5625000000e+000,3.4808047305e+000,3.8440108405e+000,3.7308000741e+000,3.3887405983e+000,4.2418961512e+000,3.8710406775e+000,3.9916154199e+000,3.8044572989e+000,4.8767392842e+000,3.7016490504e+000,4.3400282081e+000,3.9528141415e+000,3.6999202096e+000,4.3035156619e+000,
3.6562500000e+000,3.4973116748e+000,3.9154725543e+000,3.7759194829e+000,3.4433771199e+000,4.1191360816e+000,3.9092745211e+000,4.0081690010e+000,3.8195720047e+000,4.8200839177e+000,3.7884005402e+000,3.7118445983e+000,3.9992292231e+000,3.6817530942e+000,4.3078713486e+000,
3.7500000000e+000,3.6195996233e+000,3.8889246444e+000,3.7877472812e+000,3.4553647641e+000,4.2376897511e+000,3.9245387074e+000,4.1337484636e+000,3.7721873984e+000,4.8157066566e+000,3.9121278177e+000,4.8948834623e+000,4.0256599342e+000,3.7292563755e+000,4.2569126241e+000,
3.8437500000e+000,3.6187499056e+000,3.9333478073e+000,3.7945889288e+000,3.4528566747e+000,4.1439973541e+000,3.9624705476e+000,4.1248399005e+000,3.7973005624e+000,4.8970231774e+000,4.0020212723e+000,6.6150149619e+000,4.1021235623e+000,3.7687443860e+000,4.1713208248e+000,
3.9375000000e+000,3.9076105204e+000,4.1848710281e+000,4.0824250738e+000,3.6036954266e+000,4.2601875378e+000,4.1362246993e+000,4.3135533153e+000,3.9882225680e+000,4.8527222060e+000,4.0517235573e+000,6.6383499678e+000,4.1313083193e+000,3.7031425689e+000,4.1602970841e+000,
4.0312500000e+000,4.0207321033e+000,4.2834375741e+000,4.0023434493e+000,3.6741259719e+000,4.3746566715e+000,4.2127588865e+000,4.3444569143e+000,4.0878244146e+000,4.8631447318e+000,4.0502246512e+000,6.6383723638e+000,4.0296918627e+000,3.6749901918e+000,3.8723153568e+000,
4.1250000000e+000,4.0874861043e+000,4.3321008485e+000,3.9783511115e+000,3.6658329105e+000,4.3488706769e+000,4.2336277435e+000,4.4117562140e+000,4.0750686551e+000,4.8600865465e+000,4.0460446592e+000,6.6389055716e+000,3.9034971799e+000,3.5859621268e+000,3.7899037847e+000,
4.2187500000e+000,4.2476429752e+000,4.5370051647e+000,4.1226348063e+000,3.7825689792e+000,4.4009957751e+000,4.4288355872e+000,4.4809357719e+000,4.2278450891e+000,4.7837273457e+000,4.1399715965e+000,6.6410448767e+000,3.9758556173e+000,3.5131058432e+000,3.8568495877e+000,
4.3125000000e+000,4.3652982576e+000,4.5905301591e+000,4.2533388559e+000,3.8724290379e+000,4.3942560216e+000,4.5456253920e+000,4.5456905817e+000,4.3124607577e+000,4.8285410677e+000,4.3188158485e+000,6.6390437675e+000,4.1251584645e+000,3.5346676324e+000,3.9683011588e+000,
4.4062500000e+000,4.3817782463e+000,4.5682339845e+000,4.2363586477e+000,3.8794352250e+000,4.3257604395e+000,4.5913775704e+000,4.6150910679e+000,4.2986601024e+000,4.7805072384e+000,4.3701066692e+000,6.6319159563e+000,4.2965726384e+000,3.4746750406e+000,4.1854759000e+000,
4.5000000000e+000,4.3920447404e+000,4.5455869724e+000,4.2359744527e+000,3.8767875164e+000,4.2530769813e+000,4.6261196678e+000,4.5522538026e+000,4.3421025527e+000,4.8535830328e+000,4.3831020090e+000,6.6369406085e+000,4.3052036096e+000,3.5881093853e+000,4.1533940483e+000,
4.5937500000e+000,4.4212536847e+000,4.5748200765e+000,4.3147425972e+000,3.9257158767e+000,4.2375843515e+000,4.6671990523e+000,4.5320990396e+000,4.4064387007e+000,4.9250427392e+000,4.3798706346e+000,6.6371705178e+000,4.2828590995e+000,3.6149456911e+000,4.1915768175e+000,
4.6875000000e+000,4.5003218657e+000,4.6181306269e+000,4.3989875150e+000,3.9970723967e+000,4.4450622142e+000,4.7428417438e+000,4.5374445341e+000,4.4898303672e+000,5.0835549923e+000,4.5486902193e+000,6.8948003873e+000,4.3183808794e+000,3.7172241824e+000,4.2795696659e+000,
4.7812500000e+000,4.4550168772e+000,4.5995302132e+000,4.3942777435e+000,3.9781208676e+000,4.3938426886e+000,4.7015528432e+000,4.4630951757e+000,4.4341668268e+000,5.0817137018e+000,4.4599773641e+000,7.0758225970e+000,4.2673589573e+000,3.5985602851e+000,4.2702558107e+000,
4.8750000000e+000,4.4969580986e+000,4.6390941386e+000,4.3940462225e+000,4.0443213264e+000,4.4047059822e+000,4.7028424066e+000,4.4537911123e+000,4.4415521256e+000,5.1424837597e+000,4.4654654928e+000,6.9641180886e+000,4.2384196741e+000,3.6353995357e+000,4.2063929361e+000,
4.9687500000e+000,4.4455366803e+000,4.5825697265e+000,4.3944088416e+000,4.0634557551e+000,4.3489990817e+000,4.7016147358e+000,4.4535604472e+000,4.4005985062e+000,5.2736591311e+000,4.4716330574e+000,6.9674759744e+000,4.2783254729e+000,3.8404096431e+000,4.2220393363e+000,
5.0625000000e+000,4.4750330048e+000,4.5807147430e+000,4.4788048479e+000,4.1168588054e+000,4.4848393745e+000,4.7019807203e+000,4.5074135496e+000,4.4283257819e+000,5.3184217115e+000,4.5101941577e+000,6.9681493680e+000,4.3290886858e+000,3.9297407165e+000,4.2460078541e+000,
5.1562500000e+000,4.4357196768e+000,4.5457894773e+000,4.5065916261e+000,4.1356752341e+000,4.4873835467e+000,4.7042550792e+000,4.4843636273e+000,4.4231723894e+000,5.3555597114e+000,4.5431305081e+000,6.9729186454e+000,4.3890138196e+000,4.0039025867e+000,4.3007070635e+000,
5.2500000000e+000,4.3117366384e+000,4.3753733884e+000,4.3537863280e+000,4.0178084120e+000,4.5132858115e+000,4.5645740042e+000,4.3705762282e+000,4.3532441657e+000,5.3408320499e+000,4.4777046895e+000,6.9737718283e+000,4.3791847131e+000,4.0417347175e+000,4.2939138732e+000,
5.3437500000e+000,4.2444767464e+000,4.2923997199e+000,4.3454325922e+000,3.9581993672e+000,4.5224709281e+000,4.4926158484e+000,4.3094005386e+000,4.2506780028e+000,5.3136796264e+000,4.3917978077e+000,6.9764836073e+000,4.2209989020e+000,4.1086583965e+000,4.2497076565e+000,
5.4375000000e+000,4.3133946092e+000,4.3330200686e+000,4.4607948726e+000,4.0053850408e+000,4.5464967375e+000,4.5079131762e+000,4.3686547131e+000,4.2479129034e+000,5.4224583200e+000,4.4526003040e+000,6.9772042557e+000,4.2098734537e+000,4.1059141034e+000,4.2972074486e+000,
5.5312500000e+000,4.3537687597e+000,4.4054500595e+000,4.4867314850e+000,4.0607414534e+000,4.5325848065e+000,4.5095713881e+000,4.4603383021e+000,4.3123537947e+000,5.4570951704e+000,4.5906397468e+000,6.9790812880e+000,4.3246718696e+000,4.1286009519e+000,4.3767626238e+000,
5.6250000000e+000,4.2990340026e+000,4.3950239279e+000,4.4230728582e+000,4.0486989271e+000,4.4144009634e+000,4.4699694608e+000,4.4547447637e+000,4.2480455557e+000,5.3818267060e+000,4.5347498277e+000,7.2603852069e+000,4.3405460500e+000,4.0564567598e+000,4.3750016136e+000,
5.7187500000e+000,4.2723517890e+000,4.3559753598e+000,4.4110824323e+000,4.0111987398e+000,4.3830662535e+000,4.4216476481e+000,4.4938449095e+000,4.2303938610e+000,5.3613359959e+000,4.4782362610e+000,6.8167702557e+000,4.3220736246e+000,4.0594628597e+000,4.3958376537e+000,
5.8125000000e+000,4.2732349341e+000,4.3447113222e+000,4.4190397442e+000,4.0612220391e+000,4.4159089782e+000,4.4211262947e+000,4.4807114729e+000,4.2667529489e+000,5.3456533112e+000,4.4852828065e+000,6.5389992189e+000,4.3440788580e+000,4.0707278872e+000,4.4734870943e+000,
5.9062500000e+000,4.1133214112e+000,4.1353236201e+000,4.2573115292e+000,3.8966325342e+000,4.2950325788e+000,4.2708987239e+000,4.4168857890e+000,4.1481342533e+000,5.2525571670e+000,4.4060747481e+000,6.5112245767e+000,4.2640717607e+000,3.9220045596e+000,4.4598314333e+000,
6.0000000000e+000,4.0871298926e+000,4.1146513868e+000,4.1824333511e+000,3.8540108426e+000,4.2284062354e+000,4.2517531047e+000,4.3508883563e+000,4.1413215538e+000,5.1916871515e+000,4.3461538609e+000,6.5059627200e+000,4.2365630370e+000,3.8683426049e+000,4.4407477029e+000,
6.0937500000e+000,4.1065926225e+000,4.1415493735e+000,4.1554910944e+000,3.8349167437e+000,4.1916371290e+000,4.2386212313e+000,4.4254895852e+000,4.1058172842e+000,5.1995743718e+000,4.3657358370e+000,6.5045496358e+000,4.2206860731e+000,3.8001124193e+000,4.3605041841e+000,
6.1875000000e+000,4.0472886000e+000,4.1115158161e+000,4.0580873047e+000,3.7781158895e+000,4.0954921535e+000,4.1976748188e+000,4.3367722582e+000,4.1086383582e+000,5.1857352905e+000,4.3502869073e+000,6.4996669407e+000,4.2131095440e+000,3.7723579585e+000,4.3325126465e+000,
6.2812500000e+000,3.9810638438e+000,4.0494666223e+000,4.0345721640e+000,3.7665960154e+000,4.1022467972e+000,4.0042919883e+000,4.3759537321e+000,3.9704034245e+000,5.2569847030e+000,4.2618258337e+000,6.4968347534e+000,4.1988863462e+000,3.7933420950e+000,4.2201357915e+000,
6.3750000000e+000,3.9153941935e+000,4.0721851735e+000,3.9358646594e+000,3.7940467826e+000,4.1338624638e+000,3.9485800428e+000,4.3167599306e+000,4.0337104248e+000,5.2369180247e+000,4.1698561515e+000,6.4959783076e+000,4.1631043652e+000,3.6925843154e+000,4.2047923587e+000,
6.4687500000e+000,3.8981201708e+000,4.0324000229e+000,3.8510857157e+000,3.7226961353e+000,4.0972678365e+000,3.9225446126e+000,4.2602082972e+000,3.9988256327e+000,5.1560034073e+000,4.0715617229e+000,6.4945800106e+000,4.1755396425e+000,3.8351980470e+000,4.4552707995e+000,
6.5625000000e+000,3.8483856175e+000,3.8644910255e+000,3.7771541637e+000,3.6472812377e+000,4.1137048529e+000,3.8380217964e+000,4.2366466472e+000,3.9858003694e+000,5.1311154550e+000,3.7820463297e+000,6.6251530127e+000,4.1137303190e+000,3.7999536796e+000,4.4332586313e+000,
6.6562500000e+000,3.9293714070e+000,3.9713172437e+000,3.8396935035e+000,3.7449269747e+000,4.1686488458e+000,3.9409043719e+000,4.2889825308e+000,4.1078823042e+000,5.1632164020e+000,3.9236559026e+000,6.4939180227e+000,4.1566794049e+000,3.7638257120e+000,4.4566317854e+000,
6.7500000000e+000,3.9862565295e+000,4.0555258649e+000,3.8630342117e+000,3.8569172412e+000,4.0751251106e+000,4.0264744364e+000,4.3544517757e+000,4.0905913437e+000,5.1929039446e+000,3.9134626748e+000,6.3858086813e+000,4.1850167683e+000,3.7665747518e+000,4.4732150080e+000,
6.8437500000e+000,4.0205784105e+000,4.1161506658e+000,4.0417665731e+000,3.8942897489e+000,4.1101484576e+000,4.1869555982e+000,4.3954479764e+000,4.1952067873e+000,5.1898866510e+000,4.0590678122e+000,6.3806882037e+000,4.3066709704e+000,3.8018998186e+000,4.5074888167e+000,
6.9375000000e+000,4.0434042402e+000,4.1707929556e+000,4.0951006013e+000,3.9526800867e+000,4.2299422471e+000,4.2350971545e+000,4.3568791262e+000,4.2639852698e+000,5.2100367968e+000,4.3656343439e+000,6.3813777690e+000,4.3709145110e+000,3.8227108478e+000,4.6088762030e+000,
7.0312500000e+000,3.9009554037e+000,4.0680405665e+000,4.0132626223e+000,3.8768900506e+000,4.1555557155e+000,4.2130683324e+000,4.1614212216e+000,4.2857628946e+000,5.1477694602e+000,4.4305027403e+000,6.3797001760e+000,4.4012279235e+000,3.8347568301e+000,4.6376531367e+000,
7.1250000000e+000,3.9252515003e+000,4.0931881335e+000,4.0323970376e+000,3.8537705001e+000,4.1584849518e+000,4.2306662847e+000,4.1121178532e+000,4.3429052785e+000,5.2209958707e+000,4.6701220483e+000,6.3765281372e+000,4.5176571744e+000,3.8652796824e+000,4.7043892549e+000,
7.2187500000e+000,4.0396905963e+000,4.1754900690e+000,4.0880208654e+000,3.9817376806e+000,4.3530574367e+000,4.3383717419e+000,4.1341762898e+000,4.4917967089e+000,5.1596910507e+000,4.7562528789e+000,6.3775267800e+000,4.5250834613e+000,3.8565195803e+000,4.6971716352e+000,
7.3125000000e+000,4.1080359726e+000,4.2663684110e+000,4.2454459352e+000,4.0768985681e+000,4.3486843503e+000,4.4566482642e+000,4.3663686558e+000,4.5916185999e+000,5.1653459882e+000,4.8469154795e+000,6.3838499491e+000,4.5758314763e+000,3.8563590820e+000,4.7775735204e+000,
7.4062500000e+000,4.1011999486e+000,4.2275812334e+000,4.2435565784e+000,4.0687671236e+000,4.4050751673e+000,4.4245040431e+000,4.3606666333e+000,4.5685857438e+000,5.1308661916e+000,4.8391668156e+000,6.3810367305e+000,4.5465688930e+000,3.8004009432e+000,4.6696795794e+000,
7.5000000000e+000,4.0949311832e+000,4.2432355605e+000,4.2460829037e+000,4.0679057377e+000,4.4333522045e+000,4.4630380964e+000,4.3284307806e+000,4.5894476513e+000,5.1457476329e+000,4.8236350414e+000,6.3798320249e+000,4.4878615031e+000,3.6746430473e+000,4.4625369335e+000,
7.5937500000e+000,4.1474403367e+000,4.2463906308e+000,4.2497148341e+000,4.1256246397e+000,4.4523796474e+000,4.4510662317e+000,4.3140403393e+000,4.5048943794e+000,5.2137420924e+000,4.8194510762e+000,6.3514298966e+000,4.4592132083e+000,3.7892109065e+000,4.5270817178e+000,
7.6875000000e+000,3.9972199422e+000,4.0756401185e+000,4.1002705707e+000,3.9060415771e+000,4.4363746750e+000,4.3563168432e+000,4.1587551747e+000,4.4259128978e+000,5.0911286853e+000,4.7667040902e+000,6.2183696854e+000,4.4367827684e+000,3.8075644769e+000,4.4775005146e+000,
7.7812500000e+000,3.9848978945e+000,4.0387472829e+000,4.0152069550e+000,3.8250293140e+000,4.4126260647e+000,4.2787585951e+000,4.1445492266e+000,4.3764526328e+000,5.0153086472e+000,4.7497146211e+000,6.2065240571e+000,4.3455549300e+000,3.7340950978e+000,4.3326325678e+000,
7.8750000000e+000,3.9522928487e+000,3.9615055965e+000,3.8605929860e+000,3.7532296885e+000,4.4566800672e+000,4.2178905720e+000,4.1282272685e+000,4.3558862462e+000,5.0267961228e+000,4.6369655528e+000,6.2100029874e+000,4.2390008540e+000,3.7476026693e+000,4.2311301070e+000,
7.9687500000e+000,3.9185960080e+000,3.8797023720e+000,3.8044677037e+000,3.7021197813e+000,4.3670338450e+000,4.1611365246e+000,4.1423806962e+000,4.3036075201e+000,5.0050836741e+000,4.4769350139e+000,6.2103768121e+000,4.1491608222e+000,3.7633607197e+000,4.1263444501e+000,
8.0625000000e+000,3.9377824435e+000,3.8795807908e+000,3.8224796528e+000,3.7098209954e+000,4.4253749153e+000,4.0872537864e+000,4.1988049241e+000,4.2032170899e+000,5.0075628826e+000,4.3211348467e+000,6.2077285140e+000,3.9961898206e+000,3.6915698343e+000,4.0207199564e+000,
8.1562500000e+000,3.8739612716e+000,3.7798125382e+000,3.8083065093e+000,3.6696280767e+000,4.5203274775e+000,4.0643380685e+000,4.1590772732e+000,4.0751503325e+000,4.9490993875e+000,4.0510342731e+000,6.2058240410e+000,3.8870943457e+000,3.6978547291e+000,3.9591422953e+000,
8.2500000000e+000,3.8254613386e+000,3.8307749977e+000,3.7496640567e+000,3.6117875812e+000,4.4430102359e+000,4.0011537356e+000,4.0572503871e+000,4.0406228101e+000,4.9539260027e+000,3.9298816254e+000,6.2015853159e+000,3.8317542487e+000,3.6638191564e+000,3.8850094999e+000,
8.3437500000e+000,3.7747793644e+000,3.6554837137e+000,3.4898868922e+000,3.4289401741e+000,4.4306344142e+000,3.8989520087e+000,3.7865304364e+000,3.9566929489e+000,4.8745942402e+000,3.6462287204e+000,6.1957994950e+000,3.6978265634e+000,3.5628016661e+000,3.6693056476e+000,
8.4375000000e+000,3.7379581776e+000,3.6372039505e+000,3.4280137246e+000,3.4373709295e+000,4.3377417888e+000,3.8828239903e+000,3.7572664463e+000,3.9120961548e+000,4.9204863381e+000,3.6303963215e+000,6.1928307912e+000,3.7755323162e+000,3.4546538934e+000,3.6683765718e+000,
8.5312500000e+000,3.8478312897e+000,3.6853120890e+000,3.4708770716e+000,3.4728000538e+000,4.4433974731e+000,3.8690628755e+000,3.9158192058e+000,4.0361759482e+000,4.9371519931e+000,3.6952648272e+000,6.1097743624e+000,3.8852276380e+000,3.4426325747e+000,3.5955016066e+000,
8.6250000000e+000,3.8011881723e+000,3.5867898958e+000,3.4235382122e+000,3.2948637631e+000,4.4240460735e+000,3.8497874479e+000,3.9745187133e+000,4.0066995382e+000,4.8534562646e+000,3.6937676564e+000,5.9702949635e+000,3.8187912440e+000,3.3093928269e+000,3.3916313345e+000,
8.7187500000e+000,3.7232366197e+000,3.5774860364e+000,3.4600677079e+000,3.2998686100e+000,4.3925077866e+000,3.8865075677e+000,3.8911792515e+000,4.0551523604e+000,4.8387596046e+000,3.7842181712e+000,5.9635583656e+000,3.8041550515e+000,3.3506304466e+000,3.4903134817e+000,
8.8125000000e+000,3.6903289822e+000,3.5718948047e+000,3.4660615849e+000,3.3493142360e+000,4.3902124197e+000,3.8183999129e+000,4.0327172170e+000,3.9637106601e+000,4.8426510726e+000,3.7769039269e+000,5.9634744924e+000,3.7943701225e+000,3.4240798969e+000,3.6500120232e+000,
8.9062500000e+000,3.6668538894e+000,3.5532491788e+000,3.4692340501e+000,3.3899877061e+000,4.4154204538e+000,3.7481623931e+000,4.0219974865e+000,3.9794136331e+000,4.7476045499e+000,3.8032778711e+000,5.9626250593e+000,3.8241650513e+000,3.4566973819e+000,3.7163095362e+000,
9.0000000000e+000,3.8272446757e+000,3.7466152419e+000,3.6525460526e+000,3.4956970128e+000,4.4272016537e+000,3.8553323698e+000,4.0372172554e+000,4.0876314845e+000,4.7995760452e+000,3.8796038582e+000,5.9652762779e+000,3.9448560688e+000,3.5040559275e+000,3.7771765958e+000,
9.0937500000e+000,3.9829903707e+000,3.9100721036e+000,3.7447821211e+000,3.6300568002e+000,4.4062901232e+000,4.0272283166e+000,4.0184287226e+000,4.1690273538e+000,4.7956704758e+000,4.1129153219e+000,5.9646349753e+000,4.0548952421e+000,3.6382861289e+000,3.8998650085e+000,
9.1875000000e+000,4.1357663056e+000,4.0481731265e+000,3.9245779018e+000,3.8396842468e+000,4.3572903727e+000,4.2269065316e+000,4.1962050326e+000,4.3359207557e+000,4.8751875590e+000,4.2160462413e+000,5.9708618483e+000,4.0734662172e+000,3.6188285705e+000,3.9517017209e+000,
9.2812500000e+000,4.1163327346e+000,3.9923928317e+000,3.9495060185e+000,3.7476868865e+000,4.3203361364e+000,4.2168347586e+000,4.2329502524e+000,4.2807802757e+000,4.8781144416e+000,4.1526209132e+000,5.9719702297e+000,4.0259156623e+000,3.6611728266e+000,4.0254659373e+000,
9.3750000000e+000,4.0913801962e+000,4.0200932330e+000,3.9586727884e+000,3.7857764651e+000,4.3206460272e+000,4.1971234201e+000,4.2242438527e+000,4.2439588257e+000,4.8827672619e+000,4.2075939546e+000,5.9733699451e+000,3.9691079877e+000,3.6731868154e+000,4.0085185171e+000,
9.4687500000e+000,4.0856235948e+000,4.0495930697e+000,4.0044473162e+000,3.7628882350e+000,4.3149244938e+000,4.1568668244e+000,4.2622598843e+000,4.1855400226e+000,4.8171419726e+000,4.2465698216e+000,6.3086030616e+000,3.9482294314e+000,3.7092300804e+000,4.0377111328e+000,
9.5625000000e+000,4.1514630994e+000,4.1095010750e+000,4.1844567979e+000,3.9158712684e+000,4.2870442566e+000,4.2487176581e+000,4.1959423573e+000,4.2287158391e+000,4.9216566193e+000,4.2481552195e+000,5.9611977315e+000,3.9919979681e+000,3.7940292681e+000,4.0284548929e+000,
9.6562500000e+000,4.1446240031e+000,4.1304918875e+000,4.2273744302e+000,3.9418636239e+000,4.3176415604e+000,4.2422462173e+000,4.2017223509e+000,4.2350355338e+000,4.9327641741e+000,4.2796844709e+000,5.9503888836e+000,3.9460811257e+000,3.7800745160e+000,3.9644154414e+000,
9.7500000000e+000,4.1484406770e+000,4.1121608428e+000,4.2300434325e+000,3.9280629852e+000,4.3426387101e+000,4.2488090861e+000,4.1655152907e+000,4.2084119264e+000,5.0274528425e+000,4.2540284785e+000,5.9537803635e+000,3.9284963237e+000,3.7773626091e+000,3.8655087053e+000,
9.8437500000e+000,4.1281229552e+000,4.0686397891e+000,4.1729017366e+000,3.9065866675e+000,4.3463940838e+000,4.2952360672e+000,4.0953750587e+000,4.2159423376e+000,5.0537229918e+000,4.2850105409e+000,5.9542893270e+000,4.0006652451e+000,3.7638571383e+000,3.8707809821e+000,
9.9375000000e+000,4.1508264448e+000,4.0526922296e+000,4.1460576393e+000,3.8576885587e+000,4.3519675672e+000,4.2990954625e+000,4.0777816575e+000,4.1918775584e+000,5.0696050630e+000,4.2566290588e+000,5.9501934328e+000,3.9054455187e+000,3.6708678812e+000,3.7366740966e+000,
1.0031250000e+001,3.9872132546e+000,3.8877659640e+000,4.0033346077e+000,3.7433035155e+000,4.3427939530e+000,4.1926815016e+000,3.9903360535e+000,4.1275407758e+000,5.0007884755e+000,4.1466276209e+000,5.9588306236e+000,3.8811978742e+000,3.6829297746e+000,3.9791282328e+000,
1.0125000000e+001,3.8332664740e+000,3.7942446456e+000,4.0091114050e+000,3.6507979992e+000,4.1715227099e+000,4.0827247582e+000,3.9740505998e+000,4.0577525230e+000,4.8678783744e+000,3.9826592368e+000,5.9632099936e+000,3.7725299739e+000,3.5921949752e+000,4.0660090935e+000,
1.0218750000e+001,3.6774563155e+000,3.6156115970e+000,3.8689395843e+000,3.4749749884e+000,4.2637035668e+000,3.9017226630e+000,3.7734177197e+000,3.8709828829e+000,4.8482463539e+000,3.9547974966e+000,5.9584918142e+000,3.8574871373e+000,3.5348176341e+000,4.0330441286e+000,
1.0312500000e+001,3.6131928564e+000,3.5897772815e+000,3.8786766066e+000,3.4428398489e+000,4.2225525817e+000,3.8844467757e+000,3.9476463176e+000,3.8649968895e+000,4.8427050120e+000,4.0412590301e+000,5.9616806790e+000,3.9419358360e+000,3.6111851515e+000,4.0400854033e+000,
1.0406250000e+001,3.6338832293e+000,3.5886479893e+000,3.8977466848e+000,3.4074225849e+000,4.2301887909e+000,3.8423788733e+000,3.9677176976e+000,3.8548470991e+000,4.8354684229e+000,3.9804549815e+000,5.9669199699e+000,3.9809658896e+000,3.7100582117e+000,4.0815964661e+000,
1.0500000000e+001,3.5690884058e+000,3.5638349327e+000,3.8006404324e+000,3.3205240685e+000,4.1450110144e+000,3.8344940533e+000,3.7855488348e+000,3.8605527038e+000,4.9032928423e+000,3.9952671569e+000,4.0965481239e+000,4.0185927873e+000,3.8140050504e+000,4.0844537072e+000,
1.0593750000e+001,3.4709629787e+000,3.6498501817e+000,3.5975470882e+000,3.1586719406e+000,4.2085223015e+000,3.8425468587e+000,3.8010938781e+000,3.9045241864e+000,4.8392215961e+000,4.0596473044e+000,6.0807606220e+000,3.9427468772e+000,3.6362482942e+000,4.0911642356e+000,
1.0687500000e+001,3.5850006969e+000,3.8102705913e+000,3.5750895226e+000,3.2498264529e+000,4.1938991343e+000,3.9208476617e+000,3.8887591963e+000,3.9969330931e+000,4.9343627669e+000,4.0715988244e+000,6.1594470887e+000,4.0262530451e+000,3.7088567623e+000,4.1542314525e+000,
1.0781250000e+001,3.7659619987e+000,3.9270438696e+000,3.6985746389e+000,3.3894649391e+000,4.1970978768e+000,4.0024042913e+000,4.0718795316e+000,4.0556685758e+000,4.9010067649e+000,4.1476067022e+000,6.1637500904e+000,4.1629297102e+000,3.7267907435e+000,4.3031267107e+000,
1.0875000000e+001,3.8481100831e+000,3.9515945942e+000,3.7899272172e+000,3.4190482827e+000,4.2066739286e+000,3.9924010228e+000,4.1103844689e+000,4.0935341137e+000,4.8786335333e+000,4.0793743085e+000,6.1690817428e+000,4.1951345449e+000,3.7034077863e+000,4.3248048677e+000,
1.0968750000e+001,3.8676637107e+000,3.9583756168e+000,3.8477737658e+000,3.5858810337e+000,4.1378439243e+000,3.9899291654e+000,4.1373380412e+000,4.0756270276e+000,4.8384568766e+000,4.0803503377e+000,6.1709181979e+000,4.1895329103e+000,3.7654184296e+000,4.2899955404e+000,
1.1062500000e+001,3.9019273509e+000,4.0407285310e+000,3.8831212188e+000,3.5807837847e+000,4.1963757612e+000,4.0274762504e+000,4.1842157703e+000,4.0201838605e+000,4.9052077800e+000,4.1376040659e+000,6.1585014686e+000,4.2496017430e+000,3.7235027155e+000,4.1599263221e+000,
1.1156250000e+001,3.9481576243e+000,4.0675297293e+000,3.8782970447e+000,3.5978375448e+000,4.2606655745e+000,4.1403240870e+000,4.1335240064e+000,4.0906138525e+000,4.9310152662e+000,4.1069923479e+000,6.1674780730e+000,4.2834039088e+000,3.7354325414e+000,3.9997363856e+000,
1.1250000000e+001,4.0568615955e+000,4.1534063930e+000,3.9112563521e+000,3.7228134509e+000,4.2494504188e+000,4.2779720859e+000,4.1242491099e+000,4.1181690402e+000,5.0059676654e+000,4.1911398123e+000,6.1675292764e+000,4.3402746337e+000,3.8290497398e+000,4.0147061422e+000,
1.1343750000e+001,4.1236450699e+000,4.1679059695e+000,3.9522115681e+000,3.8097836627e+000,4.3658433023e+000,4.2892439884e+000,3.9997277617e+000,4.1358595167e+000,4.9815204629e+000,4.1623086406e+000,6.1724476906e+000,4.3427886885e+000,3.7673635983e+000,4.0210979167e+000,
1.1437500000e+001,4.1293437224e+000,4.1821762138e+000,3.9351933027e+000,3.7988678040e+000,4.3889237260e+000,4.3108316052e+000,4.0767652718e+000,4.1835752282e+000,4.9349014401e+000,4.1344117898e+000,6.1735794126e+000,4.2527268520e+000,3.7099265589e+000,3.9516988065e+000,
1.1531250000e+001,4.1329779588e+000,4.1036420191e+000,3.9545828891e+000,3.8226365361e+000,4.4158269116e+000,4.2677804962e+000,4.0879227509e+000,4.1070876226e+000,4.8646768741e+000,4.0245820776e+000,6.5591752341e+000,4.2506483349e+000,3.6042281152e+000,3.9415389232e+000,
1.1625000000e+001,4.0676720229e+000,3.9766555105e+000,3.9655311063e+000,3.8183735403e+000,4.3557695646e+000,4.2360355601e+000,4.0926617470e+000,4.0570945638e+000,4.8806679422e+000,3.9815807092e+000,6.2914148133e+000,4.2618487826e+000,3.6801816825e+000,3.9732276460e+000,
1.1718750000e+001,4.0109803284e+000,3.8579526908e+000,3.9033069588e+000,3.7664408780e+000,4.3225629586e+000,4.3959329100e+000,4.0929260747e+000,4.0044074188e+000,4.7792469846e+000,3.9776577846e+000,6.2895049958e+000,4.2386820973e+000,3.6399230006e+000,4.0085522085e+000,
1.1812500000e+001,3.8964713445e+000,3.7785185286e+000,3.8155085836e+000,3.7491478926e+000,4.2935791741e+000,4.4085205345e+000,3.8801811617e+000,3.9872785520e+000,4.6916910023e+000,4.0500297624e+000,6.2849033907e+000,4.1421774936e+000,3.6863721306e+000,3.8232386680e+000,
1.1906250000e+001,3.9991673394e+000,3.9096985399e+000,3.9812258737e+000,3.8497925616e+000,4.3296865859e+000,4.5222657970e+000,3.9546555565e+000,4.1518596000e+000,4.7989706036e+000,4.3423572779e+000,6.2857125831e+000,4.3620175886e+000,3.8685675316e+000,4.0544843579e+000,
1.2000000000e+001,4.1157953754e+000,3.9968735445e+000,4.0052433528e+000,3.8690010891e+000,4.3717193416e+000,4.5245364358e+000,3.8750202370e+000,4.1759772500e+000,4.9312575077e+000,4.3973779237e+000,6.2880274604e+000,4.4614851341e+000,3.8008758114e+000,4.0859938385e+000,
1.2093750000e+001,4.2281047374e+000,4.1092628615e+000,4.0426932532e+000,3.9281314804e+000,4.3985763685e+000,4.5581722372e+000,3.9604623766e+000,4.2217901392e+000,4.9536379447e+000,4.4270571569e+000,6.2899605522e+000,4.4590939581e+000,3.7971461980e+000,4.0734843187e+000,
1.2187500000e+001,4.1836225890e+000,4.1059521263e+000,3.9402365640e+000,3.8628845349e+000,4.3470902659e+000,4.4929483086e+000,3.9853283400e+000,4.1344013987e+000,4.8521927334e+000,4.3784151785e+000,6.2809605789e+000,4.3804466395e+000,3.8358675975e+000,4.1479918947e+000,
1.2281250000e+001,4.2173654416e+000,4.1229730043e+000,3.9581053367e+000,3.8912184892e+000,4.3683990695e+000,4.5026134342e+000,4.0234548845e+000,4.1683419078e+000,4.9372100720e+000,4.3587415059e+000,6.2813655834e+000,4.4292841927e+000,3.8134615214e+000,4.2277378668e+000,
1.2375000000e+001,4.2797154922e+000,4.1262554533e+000,4.0899001289e+000,3.8515016044e+000,4.4038576022e+000,4.5257444519e+000,4.1332848368e+000,4.1704142126e+000,4.9816368031e+000,4.3868363257e+000,6.2863096641e+000,4.4225312371e+000,3.8179344832e+000,4.2254126070e+000,
1.2468750000e+001,4.2485244620e+000,4.1188630598e+000,4.0651856948e+000,3.8625260370e+000,4.3740566305e+000,4.5131820029e+000,4.0519124000e+000,4.1368047785e+000,4.9821537485e+000,4.4016721436e+000,6.8343070928e+000,4.4045348547e+000,3.8681309156e+000,4.2479206222e+000,
1.2562500000e+001,4.2096903668e+000,4.1020046727e+000,3.9883432783e+000,3.7864347007e+000,4.2915300952e+000,4.4789416675e+000,3.9733577309e+000,4.1060972530e+000,4.8970923513e+000,4.4000916222e+000,6.2846776296e+000,4.3550511891e+000,3.7893672329e+000,4.2032587138e+000,
1.2656250000e+001,4.2194654486e+000,4.0856627961e+000,3.9795913259e+000,3.7522169228e+000,4.3264532633e+000,4.2794697947e+000,3.9289046376e+000,4.0758447277e+000,4.8997847799e+000,4.4014498759e+000,6.1132307102e+000,4.3241424513e+000,3.8213905442e+000,4.1768242663e+000,
1.2750000000e+001,4.3245280428e+000,4.2081926692e+000,4.1872441443e+000,3.9055467213e+000,4.3985232787e+000,4.3016426278e+000,4.0600393139e+000,4.1885346855e+000,4.9982205935e+000,4.4378675903e+000,6.1181100251e+000,4.3744913269e+000,3.9384637919e+000,4.1756358400e+000,
1.2843750000e+001,4.2657968617e+000,4.1729987801e+000,4.1316342397e+000,3.7933981795e+000,4.3795587326e+000,4.1004660690e+000,4.1107903247e+000,4.0453816546e+000,5.0541317682e+000,4.1690712474e+000,6.1214484184e+000,4.1968532439e+000,3.8912369794e+000,4.1227141228e+000,
1.2937500000e+001,4.1235987672e+000,4.0670468445e+000,3.9703661278e+000,3.6405304278e+000,4.3304167694e+000,4.0623141082e+000,4.0484528821e+000,3.8994643591e+000,4.9791332246e+000,4.0312490815e+000,6.1220945055e+000,4.1089282643e+000,3.8387002137e+000,4.0901342605e+000,
1.3031250000e+001,4.0521982236e+000,4.0119403429e+000,3.9150681517e+000,3.6167108104e+000,4.3457899795e+000,4.0460269149e+000,4.0856062033e+000,3.8876482810e+000,4.9130436582e+000,3.9265413847e+000,6.1232762779e+000,4.0001291957e+000,3.8392296056e+000,4.0671600219e+000,
1.3125000000e+001,3.9984518286e+000,3.9792224392e+000,3.9763391104e+000,3.6724386499e+000,4.3673214970e+000,4.0825306744e+000,4.1105187168e+000,3.8927797371e+000,4.9428525122e+000,4.0020788519e+000,6.1272083464e+000,4.1337690920e+000,3.8919076968e+000,4.1692265628e+000,
1.3218750000e+001,3.9152752259e+000,3.8781357599e+000,3.9385263795e+000,3.5818844344e+000,4.3684892546e+000,3.9418871839e+000,4.1310016891e+000,3.8947288577e+000,4.9418247038e+000,3.9206790750e+000,6.1291826110e+000,4.0455877210e+000,3.8420064948e+000,4.1100517895e+000,
1.3312500000e+001,3.8167793130e+000,3.8628595475e+000,3.8382279577e+000,3.4771742416e+000,4.2445986426e+000,3.9080974967e+000,4.1450250492e+000,3.9160097787e+000,4.8671952561e+000,3.9311545969e+000,6.1309824933e+000,4.0203069103e+000,3.8287046565e+000,4.0344206182e+000,
1.3406250000e+001,3.6981925909e+000,3.8758368589e+000,3.6888827028e+000,3.4255577831e+000,4.1553436925e+000,3.8464192737e+000,4.1168819478e+000,3.9008364898e+000,4.8870211897e+000,3.8147761791e+000,6.5237882470e+000,4.0630077051e+000,3.8390133191e+000,4.1071675262e+000,
1.3500000000e+001,3.8468051322e+000,3.9975868829e+000,3.7965179199e+000,3.5759116966e+000,4.2272901993e+000,4.0578135937e+000,4.1658038055e+000,4.0217416292e+000,5.0128522323e+000,3.9106366804e+000,6.2185811825e+000,4.1522733725e+000,3.8422247588e+000,4.1430856794e+000,
1.3593750000e+001,3.8679139497e+000,4.0190006824e+000,3.9324024045e+000,3.6645296881e+000,4.2862263094e+000,4.1375152915e+000,4.1643066870e+000,4.0752662195e+000,5.0247556222e+000,3.9193560986e+000,6.2145215661e+000,4.1332105877e+000,3.8769284803e+000,4.1323485633e+000,
1.3687500000e+001,3.6477369605e+000,3.8904842960e+000,3.6237972802e+000,3.4122643184e+000,4.2262492901e+000,3.9981546830e+000,4.1526004370e+000,3.9352846913e+000,4.9308650131e+000,3.7101903652e+000,6.1977056900e+000,4.0554699340e+000,3.7230186307e+000,4.0219341383e+000,
1.3781250000e+001,3.7398133574e+000,3.9623109427e+000,3.6676752638e+000,3.4821624702e+000,4.2741129699e+000,4.0611136238e+000,4.1989182876e+000,3.9717546362e+000,5.0820006950e+000,3.7545868815e+000,6.2030805530e+000,4.0739345976e+000,3.6847615433e+000,4.0498222118e+000,
1.3875000000e+001,3.7803781726e+000,3.9233683413e+000,3.6901878668e+000,3.5102656462e+000,4.2409505345e+000,4.0574155181e+000,4.1803942265e+000,3.9917219136e+000,5.0351179930e+000,3.7863311621e+000,6.2005737859e+000,4.0691227521e+000,3.6735085077e+000,4.0311419322e+000,
1.3968750000e+001,3.7624557751e+000,3.9024572819e+000,3.6991267600e+000,3.5517490424e+000,4.3039047271e+000,4.0084954315e+000,4.1774081004e+000,4.0087794812e+000,5.0412637228e+000,3.7968312637e+000,6.2165478604e+000,4.0263483850e+000,3.6628312047e+000,4.0146875621e+000,
1.4062500000e+001,3.8697623112e+000,3.9728720732e+000,3.9338205925e+000,3.6966436399e+000,4.2881688916e+000,4.1349385628e+000,4.1708793531e+000,4.0974846886e+000,5.0438975980e+000,3.9201096664e+000,6.2194597078e+000,4.0374649669e+000,3.7859779163e+000,4.1472195195e+000,
1.4156250000e+001,3.8392242882e+000,3.8869328760e+000,3.8602659382e+000,3.6476646256e+000,4.2267933720e+000,4.0821113896e+000,4.0659094790e+000,4.0487778450e+000,5.0634941138e+000,3.8035499429e+000,6.2192869096e+000,3.8994372683e+000,3.7580886462e+000,4.0771830940e+000,
1.4250000000e+001,3.8958718729e+000,3.9368706678e+000,3.8898723748e+000,3.6911568927e+000,4.2910163061e+000,4.0983741613e+000,4.0775271686e+000,4.0264531425e+000,5.0888286354e+000,3.8592413405e+000,6.2183237508e+000,4.0015806387e+000,3.8134838338e+000,4.1136657446e+000,
1.4343750000e+001,4.0364271972e+000,4.0915803987e+000,3.9795085366e+000,3.7956394965e+000,4.4517994867e+000,4.2053573619e+000,3.9607033851e+000,4.1917016228e+000,5.2086420307e+000,4.1350943841e+000,6.2276301110e+000,4.1269954606e+000,3.9268297263e+000,4.2145582429e+000,
1.4437500000e+001,4.1047081509e+000,4.1738764005e+000,4.0439183571e+000,3.9096323427e+000,4.4546566924e+000,4.2392194763e+000,3.9841637944e+000,4.2576426453e+000,5.1015060013e+000,4.1874015569e+000,5.9958977713e+000,4.0651666337e+000,3.9248663468e+000,4.1931861298e+000,
1.4531250000e+001,4.1310756643e+000,4.2375022512e+000,4.0329179107e+000,3.8909395974e+000,4.5416509930e+000,4.2423573058e+000,3.9944751913e+000,4.2043190048e+000,5.1248149037e+000,4.1881140937e+000,5.9512960009e+000,4.0415094196e+000,3.9408309777e+000,4.2103341876e+000,
1.4625000000e+001,4.4956774860e+000,4.5923541908e+000,4.2851334790e+000,4.1767761983e+000,4.7093496224e+000,4.5162359743e+000,4.1338766253e+000,4.4675425661e+000,5.1985565423e+000,4.4315420005e+000,5.9679698878e+000,4.2951371473e+000,4.0894780938e+000,4.4234457957e+000,
1.4718750000e+001,4.5494446138e+000,4.6652639308e+000,4.3518835287e+000,4.2640532001e+000,4.6870228384e+000,4.5701788441e+000,3.9180644934e+000,4.4999063195e+000,5.0868188419e+000,4.4670568995e+000,5.9612593772e+000,4.4101577578e+000,4.0940347744e+000,4.6146204703e+000,
1.4812500000e+001,4.6002775847e+000,4.6854580409e+000,4.4200825398e+000,4.3352091671e+000,4.7508968027e+000,4.6197515587e+000,3.9155783038e+000,4.5403766824e+000,5.0933872855e+000,4.5505023137e+000,5.9640959188e+000,4.5400051278e+000,4.1322960378e+000,4.7274207194e+000,
1.4906250000e+001,4.6261156494e+000,4.7403441058e+000,4.4349922943e+000,4.3819417959e+000,4.7425635589e+000,4.7055379570e+000,3.9228475032e+000,4.5615352993e+000,5.0894820296e+000,4.6459165940e+000,5.9550576396e+000,4.6873573495e+000,4.1090967676e+000,4.8585696122e+000,
1.5000000000e+001,4.7561232713e+000,4.8254873735e+000,4.5112026636e+000,4.4211812720e+000,4.8486132379e+000,4.7480174649e+000,4.0798149944e+000,4.6176371377e+000,5.1637759139e+000,4.7097156956e+000,5.9498253618e+000,4.7725650251e+000,4.2841824106e+000,4.9119415384e+000,
1.5093750000e+001,4.9443672365e+000,4.9397513411e+000,4.6307939450e+000,4.5489397817e+000,4.9733788440e+000,4.7653874687e+000,4.1772465227e+000,4.6340939419e+000,5.1093433803e+000,4.6506565329e+000,5.9488588999e+000,4.7341641916e+000,4.2841415676e+000,4.8378547886e+000,
1.5187500000e+001,5.1200023305e+000,5.0801854467e+000,4.8223460393e+000,4.6951464742e+000,5.2620452407e+000,4.9764739649e+000,4.2957148133e+000,4.8193766795e+000,5.0795341610e+000,4.8229978159e+000,5.9465321950e+000,4.8286833216e+000,4.2527971032e+000,4.8222220997e+000,
1.5281250000e+001,5.1918984299e+000,5.1595053452e+000,4.9082490094e+000,4.7760012171e+000,5.2885671929e+000,5.0962472841e+000,4.3255270779e+000,4.9448554497e+000,5.1613914684e+000,5.0086271187e+000,5.9523697509e+000,4.9568350259e+000,4.2844604316e+000,4.8474231152e+000,
1.5375000000e+001,5.1655680100e+000,5.1014308908e+000,4.8761020692e+000,4.7277506762e+000,5.2551985275e+000,5.0578666313e+000,4.3620359785e+000,4.8681779577e+000,5.0653335603e+000,4.9271828853e+000,5.9331841798e+000,4.9116903189e+000,4.2261777602e+000,4.8100448201e+000,
1.5468750000e+001,5.1408714726e+000,5.0552940653e+000,4.8692379365e+000,4.7009791715e+000,5.2581430650e+000,5.0297281012e+000,4.3057095659e+000,4.8099931735e+000,5.0169684218e+000,4.8903899796e+000,6.2294621199e+000,4.8924760862e+000,4.2226909902e+000,4.7781686658e+000,
1.5562500000e+001,5.1014411184e+000,5.0312147986e+000,4.7953370615e+000,4.6651482733e+000,5.1902549165e+000,4.9780784994e+000,4.3053544911e+000,4.8258625408e+000,4.9626366829e+000,4.8371443875e+000,6.2519474960e+000,4.8530319749e+000,4.2318336998e+000,4.8205854259e+000,
1.5656250000e+001,4.9267189915e+000,4.8246350114e+000,4.6761471651e+000,4.4974795498e+000,5.1336762781e+000,4.8173490991e+000,4.2714497606e+000,4.6298880548e+000,4.9923585888e+000,4.7091939935e+000,6.2387975551e+000,4.7218583088e+000,4.1261464879e+000,4.6660425270e+000,
1.5750000000e+001,4.9002808439e+000,4.7905347124e+000,4.6574755369e+000,4.4214844490e+000,5.1296930411e+000,4.7784225078e+000,4.3034985676e+000,4.5824055620e+000,4.9834352338e+000,4.7008935455e+000,6.2332443064e+000,4.6434072540e+000,4.0885315101e+000,4.5368005792e+000,
1.5843750000e+001,4.9100827638e+000,4.8274631513e+000,4.6753657847e+000,4.4235403952e+000,5.1257753102e+000,4.7580614560e+000,4.4452208700e+000,4.6110305136e+000,5.0167593955e+000,4.6240712161e+000,6.2278954086e+000,4.5114570719e+000,4.0873820808e+000,4.3783916355e+000,
1.5937500000e+001,4.9143550011e+000,4.7959949569e+000,4.7303037247e+000,4.4377813104e+000,5.2197394159e+000,4.7150523634e+000,4.5123919034e+000,4.6370583873e+000,5.0379085855e+000,4.5936377764e+000,6.2272601124e+000,4.4612798219e+000,4.0994297576e+000,4.2885841633e+000,
1.6031250000e+001,4.6637078769e+000,4.6142838554e+000,4.5327074356e+000,4.2717606529e+000,5.0700310648e+000,4.6528097964e+000,4.3998265905e+000,4.5798447085e+000,4.9370231392e+000,4.5724529751e+000,6.2240980762e+000,4.4355969865e+000,3.8916491833e+000,4.3555368230e+000,
1.6125000000e+001,4.3763175807e+000,4.4339991681e+000,4.2791700076e+000,4.0288218045e+000,4.8850352469e+000,4.5511477798e+000,4.3089843885e+000,4.4730651524e+000,4.9383996191e+000,4.5460973088e+000,6.2218679568e+000,4.4239315593e+000,3.7714645656e+000,4.3934181159e+000,
1.6218750000e+001,4.1174813632e+000,4.1921676995e+000,4.1321410667e+000,3.8527964727e+000,4.5772791419e+000,4.2359453943e+000,4.2756267027e+000,4.1916354001e+000,4.9495905549e+000,4.2844018322e+000,6.2260370586e+000,4.2328218870e+000,3.8783631344e+000,4.4405602537e+000,
1.6312500000e+001,3.9223945699e+000,3.9880896499e+000,3.9974468006e+000,3.7153628998e+000,4.5692709707e+000,4.0316174724e+000,4.1825305479e+000,4.0688953344e+000,4.8957246854e+000,4.0142901417e+000,6.2162674824e+000,3.9951129075e+000,3.7507892236e+000,4.3342434391e+000,
1.6406250000e+001,3.9770919957e+000,4.0780652769e+000,4.0429945416e+000,3.6963282343e+000,4.5386452778e+000,3.9712323242e+000,4.2806028260e+000,4.0695986720e+000,4.8849679082e+000,3.9717235560e+000,6.9389218118e+000,3.9482563098e+000,3.7474099757e+000,4.3691780058e+000,
1.6500000000e+001,3.9277793983e+000,4.0672857176e+000,3.9718204784e+000,3.6460753361e+000,4.4886793582e+000,3.9349512481e+000,4.3382953540e+000,4.0501054710e+000,4.8114314103e+000,3.9832017686e+000,6.6684084920e+000,3.9503665017e+000,3.7260914452e+000,4.3258404938e+000,
1.6593750000e+001,3.8896958024e+000,3.9639727730e+000,3.9000791037e+000,3.5859445379e+000,4.5275605168e+000,3.9160689883e+000,4.2783168318e+000,3.9774593259e+000,4.7845615951e+000,3.9786789397e+000,6.6490847717e+000,4.0014909957e+000,3.7448771721e+000,4.3531797676e+000,
1.6687500000e+001,3.9078366558e+000,3.9970608003e+000,3.8863375305e+000,3.6223973200e+000,4.5309889705e+000,3.9338175581e+000,4.2952193752e+000,4.0277365454e+000,4.7020004198e+000,3.9587089312e+000,6.6499581622e+000,3.9976190695e+000,3.6919910350e+000,4.3199763267e+000,
1.6781250000e+001,3.9178171983e+000,3.9619979990e+000,3.8808758646e+000,3.5935314822e+000,4.5670632506e+000,3.9395263928e+000,4.3878308252e+000,4.0070432121e+000,4.6615029208e+000,3.9960565125e+000,6.6474482545e+000,3.9758663836e+000,3.7037520603e+000,4.3385659437e+000,
1.6875000000e+001,3.8012860818e+000,3.8407726422e+000,3.6803036160e+000,3.3591139415e+000,4.5713336962e+000,3.8174584059e+000,4.1665896712e+000,3.7849551430e+000,4.7590642291e+000,3.9358442158e+000,6.6469035356e+000,3.7781435717e+000,3.6743444300e+000,4.3367947460e+000,
1.6968750000e+001,3.7801221139e+000,3.8416201483e+000,3.5768319655e+000,3.2814665196e+000,4.3843265163e+000,3.7623595708e+000,4.0653362069e+000,3.7348850355e+000,4.7438674756e+000,3.8349788526e+000,6.6468573225e+000,3.6084564536e+000,3.6281845987e+000,4.2434963641e+000,
1.7062500000e+001,3.7517139212e+000,3.8244505466e+000,3.5568257987e+000,3.2508176593e+000,4.4402019945e+000,3.7233991381e+000,4.0551040216e+000,3.7489246574e+000,4.8317401199e+000,3.8442896288e+000,6.6464135525e+000,3.6323870681e+000,3.6466655253e+000,4.2178739335e+000,
1.7156250000e+001,3.7317741053e+000,3.7690597596e+000,3.5195003867e+000,3.2139476821e+000,4.4283279014e+000,3.5524211425e+000,4.1797382474e+000,3.7532802042e+000,4.7413005987e+000,3.7188651843e+000,6.6429384264e+000,3.4952078960e+000,3.5636382280e+000,4.1239035883e+000,
1.7250000000e+001,3.7169292113e+000,3.7637863629e+000,3.4436621141e+000,3.1745852232e+000,4.3837561423e+000,3.5455422836e+000,4.1432577363e+000,3.6914852231e+000,4.7421527486e+000,3.6037502414e+000,6.6406731514e+000,3.3169361174e+000,3.5472413152e+000,4.0807009854e+000,
1.7343750000e+001,3.7384656727e+000,3.7282649552e+000,3.4894041687e+000,3.1145808330e+000,4.3655715906e+000,3.5914307710e+000,4.2238998154e+000,3.6483047183e+000,4.7927440186e+000,3.6013446383e+000,6.6409818090e+000,3.3531846497e+000,3.5150695882e+000,4.1093379387e+000,
1.7437500000e+001,3.5610397143e+000,3.5191822919e+000,3.2949672595e+000,3.0776377621e+000,4.3265692828e+000,3.4986218524e+000,4.0291447511e+000,3.5078858896e+000,4.8373910272e+000,3.6058369873e+000,3.9950739138e+000,3.4296297401e+000,3.4874163913e+000,4.4211726421e+000,
1.7531250000e+001,3.6032001774e+000,3.5640847354e+000,3.2685729940e+000,3.1143910389e+000,4.3318015175e+000,3.4302229522e+000,4.0341317819e+000,3.5467279786e+000,4.9186457621e+000,3.6226635838e+000,3.2797025271e+000,3.4469240954e+000,3.3653708229e+000,4.4029664840e+000,
1.7625000000e+001,3.6333546762e+000,3.5697626516e+000,3.3048195034e+000,3.0822086915e+000,4.1375723001e+000,3.3844201383e+000,4.0751250246e+000,3.5987408592e+000,4.9733929744e+000,3.6344081901e+000,3.5167518747e+000,3.4896050757e+000,3.4065462666e+000,4.4217240383e+000,
1.7718750000e+001,3.6558582693e+000,3.7097640726e+000,3.3882137256e+000,3.2709348592e+000,4.0584813480e+000,3.5928069887e+000,3.9725003873e+000,3.8977207506e+000,5.0423803647e+000,3.8110811319e+000,6.9428491525e+000,3.5480977782e+000,3.4415854625e+000,4.3873392172e+000,
1.7812500000e+001,3.7533960965e+000,3.7609737344e+000,3.4959390597e+000,3.3474857078e+000,4.0711325026e+000,3.7539072047e+000,3.9590024971e+000,3.9383282167e+000,5.0976087778e+000,3.9408378806e+000,7.0491008818e+000,3.7246204156e+000,3.4929623012e+000,4.3435421083e+000,
1.7906250000e+001,3.7510825530e+000,3.7413655114e+000,3.5490039659e+000,3.4045675026e+000,4.0551353956e+000,3.7841604112e+000,4.1100692420e+000,3.9396502476e+000,5.0362133101e+000,3.9672352189e+000,7.0535115506e+000,3.8047216472e+000,3.5344704373e+000,4.3256503078e+000,
1.8000000000e+001,3.7228153126e+000,3.7325852026e+000,3.5356117898e+000,3.4470547602e+000,4.0972097673e+000,3.8313105329e+000,4.1391824214e+000,3.9448906996e+000,5.0988443083e+000,4.0228122257e+000,7.0547584616e+000,3.8717780452e+000,3.5166044158e+000,4.3513297794e+000,
1.8093750000e+001,3.7067175834e+000,3.6889655121e+000,3.5342663636e+000,3.4584531664e+000,4.0355645083e+000,3.8315796103e+000,4.1125241468e+000,3.9541875844e+000,5.0732044446e+000,4.0403838445e+000,7.0543974381e+000,3.8703217579e+000,3.4863531110e+000,4.3257275871e+000,
1.8187500000e+001,3.7960999855e+000,3.7553103957e+000,3.6635706496e+000,3.6021995247e+000,4.1834777586e+000,3.9528422292e+000,4.1858039758e+000,4.0061847678e+000,5.1591183946e+000,4.0914447225e+000,7.0563296831e+000,4.1031556082e+000,3.5934621378e+000,4.4332205578e+000,
1.8281250000e+001,3.7922585650e+000,3.7632453511e+000,3.6590620393e+000,3.6316631389e+000,4.1818169849e+000,3.9635025867e+000,4.2546012013e+000,4.0540403345e+000,5.1505798759e+000,4.1259918620e+000,7.0565669021e+000,4.1642218817e+000,3.5177894687e+000,4.4609603161e+000,
1.8375000000e+001,3.8136696648e+000,3.8168126493e+000,3.6788058412e+000,3.6987816886e+000,4.2609975469e+000,4.0715170762e+000,4.3124532660e+000,4.1611698719e+000,5.2462518866e+000,4.2372801529e+000,7.0605701385e+000,4.1899211360e+000,3.6483037699e+000,4.4893471543e+000,
1.8468750000e+001,3.8772329729e+000,3.8933806040e+000,3.8551500795e+000,3.7841409264e+000,4.3429430403e+000,4.1695181970e+000,4.3506525615e+000,4.2646853978e+000,5.3109308666e+000,4.3429912227e+000,7.0590893017e+000,4.2310984896e+000,3.6824357635e+000,4.3527926349e+000,
1.8562500000e+001,3.9322335687e+000,3.9579923895e+000,3.9544384029e+000,3.8608792421e+000,4.4041936431e+000,4.2673938468e+000,4.4290442111e+000,4.2990980135e+000,5.2796321399e+000,4.4008148739e+000,7.0608587469e+000,4.2800197682e+000,3.7292797182e+000,4.2745455823e+000,
1.8656250000e+001,3.9034593585e+000,3.9268019808e+000,3.9305276210e+000,3.8920019596e+000,4.4300600453e+000,4.2770248846e+000,4.4395742692e+000,4.2511399756e+000,5.2525882801e+000,4.3442503547e+000,7.0462871442e+000,4.2275077875e+000,3.6564248745e+000,4.2661255041e+000,
1.8750000000e+001,3.7468990980e+000,3.8085521536e+000,3.8075359349e+000,3.7798912788e+000,4.3676006338e+000,4.1475295249e+000,4.4150281857e+000,4.0716049831e+000,5.2400711022e+000,4.2153157245e+000,4.3245066329e+000,4.0808219507e+000,3.5585922758e+000,4.2289559481e+000,
1.8843750000e+001,3.7394048324e+000,3.8309823160e+000,3.7863452573e+000,3.7793703328e+000,4.3821492987e+000,4.1378455002e+000,4.3883872200e+000,4.1234597499e+000,5.2403013273e+000,4.2405117037e+000,6.6986259563e+000,4.0668693881e+000,3.5174422572e+000,4.2331669236e+000,
1.8937500000e+001,3.7352378101e+000,3.8590485525e+000,3.7887390171e+000,3.7621619403e+000,4.3606064186e+000,4.1195814878e+000,4.3506569548e+000,4.1351570141e+000,5.1272239022e+000,4.1513475416e+000,6.7261225022e+000,4.0645182956e+000,3.4776324676e+000,4.4044471940e+000,
1.9031250000e+001,3.7544721719e+000,3.9748949221e+000,3.8275915029e+000,3.7800631090e+000,4.3326810860e+000,4.1316146448e+000,4.2840901869e+000,4.2717774221e+000,5.1002375059e+000,4.1926987849e+000,6.7281426368e+000,4.0317676516e+000,3.4887011517e+000,4.3910221967e+000,
1.9125000000e+001,3.8317441987e+000,4.0366580798e+000,3.9086206365e+000,3.8045410617e+000,4.3878499424e+000,4.1316974781e+000,4.2796779075e+000,4.2750030243e+000,5.0755843682e+000,4.3295331735e+000,6.7286564021e+000,3.9950809494e+000,3.5030022646e+000,4.3930719127e+000,
1.9218750000e+001,3.8580173244e+000,4.0613787362e+000,3.9301463485e+000,3.8032430235e+000,4.3025243123e+000,4.0899252784e+000,4.2363582360e+000,4.2536750731e+000,4.9857413043e+000,4.3699762008e+000,6.7265637681e+000,3.9347888275e+000,3.4100137613e+000,4.3655570332e+000,
1.9312500000e+001,3.9458842967e+000,4.1125287021e+000,3.9388103178e+000,3.8251155993e+000,4.3105630045e+000,4.0776716627e+000,4.2744493158e+000,4.2078097276e+000,4.9390808720e+000,4.3544989551e+000,6.7258836512e+000,3.8938441491e+000,3.5250119962e+000,4.3334289624e+000,
1.9406250000e+001,3.9782638874e+000,4.1390380033e+000,3.8934836405e+000,3.7653914100e+000,4.2717300889e+000,4.0578225321e+000,4.1959130289e+000,4.1919213687e+000,4.7966269891e+000,4.3476954084e+000,6.7268277190e+000,3.8373857668e+000,3.6085350120e+000,4.2441954249e+000,
1.9500000000e+001,3.9837587082e+000,4.1161423109e+000,3.8838944737e+000,3.7769633627e+000,4.1970738591e+000,3.9841326150e+000,4.1991136293e+000,4.1194725585e+000,4.7982319509e+000,4.2603004384e+000,6.7306580534e+000,3.7737454908e+000,3.6607268757e+000,4.1522262679e+000,
1.9593750000e+001,3.9444715282e+000,4.0405555599e+000,3.8435565260e+000,3.7023918630e+000,4.1917085479e+000,3.8886418317e+000,4.3168818354e+000,4.0208525960e+000,4.8005846620e+000,4.2608463559e+000,6.7284923033e+000,3.8117642707e+000,3.7141426128e+000,4.1486175640e+000,
1.9687500000e+001,3.9521188058e+000,4.0063499287e+000,3.8545675668e+000,3.6612717498e+000,4.2259057110e+000,3.8560874976e+000,4.3632677842e+000,4.0336048563e+000,4.7776079942e+000,4.3155886118e+000,6.7309539890e+000,3.8414393111e+000,3.8029663605e+000,4.1813100346e+000,
1.9781250000e+001,3.9575359966e+000,4.0089019623e+000,3.8647500779e+000,3.6517003160e+000,4.2171351386e+000,3.8431147255e+000,4.3884819576e+000,4.0645930447e+000,4.7395005142e+000,4.3053803997e+000,6.5302511262e+000,3.8559899685e+000,3.8054287861e+000,4.2009511594e+000,
1.9875000000e+001,3.9545656508e+000,3.9855508519e+000,3.8806205944e+000,3.6569499783e+000,4.1760328473e+000,3.8240774776e+000,4.4274892743e+000,4.0736072783e+000,4.7495176383e+000,4.3325295154e+000,4.1153828316e+000,3.8302874804e+000,3.7775174967e+000,4.1442088524e+000,
1.9968750000e+001,4.0581730445e+000,4.0114088088e+000,4.0268365389e+000,3.6969711023e+000,4.1539920029e+000,3.8189582102e+000,4.5275455592e+000,3.9564767994e+000,4.8386803836e+000,4.3791456645e+000,6.4279871457e+000,3.8439951791e+000,3.8244690154e+000,3.8983935460e+000,
2.0062500000e+001,4.1417715411e+000,4.0509068369e+000,4.0686097631e+000,3.7634244626e+000,4.1421436097e+000,3.9466787486e+000,4.5334875398e+000,4.0088470090e+000,4.9320252247e+000,4.3624906720e+000,6.7415453681e+000,3.9389300423e+000,3.8950188937e+000,3.9029368075e+000,
2.0156250000e+001,4.2464177217e+000,4.1018373497e+000,4.1299834883e+000,3.7657209283e+000,4.2451704921e+000,4.0973402276e+000,4.6134174324e+000,4.0621045296e+000,5.0107934910e+000,4.3754199734e+000,6.7522558013e+000,4.0409762985e+000,3.9381114644e+000,3.9869287938e+000,
2.0250000000e+001,4.2125688519e+000,4.0616382919e+000,4.0794842694e+000,3.7180303559e+000,4.2122736505e+000,4.0958438686e+000,4.5716172447e+000,4.0485071929e+000,4.9602737891e+000,4.5732912757e+000,6.7526075039e+000,4.0302070748e+000,3.9114820025e+000,4.0683148257e+000,
2.0343750000e+001,4.2986193249e+000,4.1876880352e+000,4.1496763617e+000,3.7932626928e+000,4.3084723141e+000,4.2246973670e+000,4.5538321856e+000,4.1536516025e+000,5.0179862343e+000,4.7401671016e+000,6.7524411822e+000,4.0969525547e+000,3.8667600963e+000,4.1658829259e+000,
2.0437500000e+001,4.2853656367e+000,4.2263030073e+000,4.1289307012e+000,3.8531550616e+000,4.4323745034e+000,4.3069673414e+000,4.4883869262e+000,4.1308342785e+000,5.0351393938e+000,4.7030617218e+000,6.7511362130e+000,4.1462769263e+000,3.7671000615e+000,4.2449159924e+000,
2.0531250000e+001,4.4615078023e+000,4.4017316669e+000,4.2828224203e+000,4.0637578536e+000,4.4964163459e+000,4.4356578338e+000,4.4545228577e+000,4.2966428352e+000,5.0550375774e+000,4.7475098121e+000,6.7511158156e+000,4.2445520539e+000,3.7425256920e+000,4.2273394079e+000,
2.0625000000e+001,4.5582630023e+000,4.4845796013e+000,4.4034131553e+000,4.2158989705e+000,4.5701552389e+000,4.4994465754e+000,4.4648834975e+000,4.4574105391e+000,5.0946445862e+000,4.7989772567e+000,6.7501037673e+000,4.3710575961e+000,3.7054448124e+000,4.2463178999e+000,
2.0718750000e+001,4.5582523980e+000,4.4821659398e+000,4.4295422913e+000,4.2411569169e+000,4.5712962339e+000,4.5343515619e+000,4.3939698991e+000,4.4607258659e+000,5.0667562441e+000,4.7828217322e+000,6.7444721531e+000,4.3934843420e+000,3.6211327375e+000,4.3003926274e+000,
2.0812500000e+001,4.5566410877e+000,4.4707997096e+000,4.4569435365e+000,4.2321939691e+000,4.5673234882e+000,4.5141956598e+000,4.3846525531e+000,4.4191060754e+000,5.0481955996e+000,4.7794252708e+000,6.7418801539e+000,4.3825411974e+000,3.5956455280e+000,4.2918746950e+000,
2.0906250000e+001,4.5633397442e+000,4.4752027252e+000,4.4138132169e+000,4.2240538650e+000,4.5808702869e+000,4.5352602069e+000,4.4286270009e+000,4.4320290613e+000,4.9962812248e+000,4.6982385288e+000,6.7329264649e+000,4.3573883159e+000,3.5439448287e+000,4.2688550494e+000,
2.1000000000e+001,4.5131434277e+000,4.4495840190e+000,4.3448729682e+000,4.1790432805e+000,4.5256678195e+000,4.5263919275e+000,4.4850540568e+000,4.4363452835e+000,4.9746263745e+000,4.6946710710e+000,4.4103084072e+000,4.3741832128e+000,3.4856154958e+000,4.3977477145e+000,
2.1093750000e+001,4.4803355278e+000,4.4104766273e+000,4.3288271910e+000,4.2060933100e+000,4.5998013916e+000,4.5695930550e+000,4.5227152578e+000,4.4420040317e+000,5.0613812690e+000,4.7445022837e+000,5.5508114373e+000,4.3854423864e+000,3.6125607279e+000,4.5094690110e+000,
2.1187500000e+001,4.3671394718e+000,4.3752965706e+000,4.2459575243e+000,4.1921506490e+000,4.5509293889e+000,4.4934562875e+000,4.4750865923e+000,4.4169960555e+000,5.0837458070e+000,4.6072561551e+000,6.7856317241e+000,4.3306387457e+000,3.6029643253e+000,4.5191848003e+000,
2.1281250000e+001,4.2660921404e+000,4.2717551579e+000,4.2033772395e+000,4.1266545511e+000,4.4935402263e+000,4.4188650861e+000,4.4705994808e+000,4.3712558748e+000,5.0755622186e+000,4.2944502047e+000,6.8042375518e+000,4.2511780042e+000,3.7464182250e+000,4.5438744730e+000,
2.1375000000e+001,4.1995393490e+000,4.1849868544e+000,4.1580798234e+000,4.0905133957e+000,4.4378043431e+000,4.3641970015e+000,4.4421191139e+000,4.3063966607e+000,5.1497779015e+000,4.1684370804e+000,6.8063888887e+000,4.2479512916e+000,3.7759233395e+000,4.5021508618e+000,
2.1468750000e+001,4.1254335478e+000,4.1579404802e+000,4.0803333096e+000,4.0290517233e+000,4.4758095418e+000,4.2718504087e+000,4.4027071477e+000,4.2725278752e+000,5.1575737117e+000,4.1661374013e+000,6.8076047348e+000,4.2521088380e+000,3.8610694918e+000,4.6072610955e+000,
2.1562500000e+001,3.9863705306e+000,3.9269371910e+000,4.0280629003e+000,3.7981374629e+000,4.5479701897e+000,4.1347618328e+000,4.4575626553e+000,4.2014133178e+000,5.2209131276e+000,4.0434273145e+000,6.8075291356e+000,4.1605561137e+000,3.9156112793e+000,4.8038183144e+000,
2.1656250000e+001,3.8264827913e+000,3.8204030480e+000,3.8904467806e+000,3.6175247376e+000,4.5009552090e+000,4.0414985359e+000,4.3903262637e+000,3.9924243021e+000,5.1895551300e+000,3.9115546670e+000,6.8088486860e+000,4.0017774928e+000,3.8830967092e+000,4.7758768700e+000,
2.1750000000e+001,3.9007881419e+000,3.8762856339e+000,3.8985418836e+000,3.6772223577e+000,4.4944852774e+000,4.1406188993e+000,4.3959088823e+000,4.0220734041e+000,5.1615029293e+000,3.9787265913e+000,6.8124139176e+000,3.9251161343e+000,3.9621632755e+000,4.7956147675e+000,
2.1843750000e+001,4.0060068675e+000,4.0298728349e+000,3.9492640964e+000,3.8028374733e+000,4.5851465613e+000,4.2823839020e+000,4.4173810092e+000,4.2209160235e+000,5.2098748893e+000,4.1687580908e+000,6.8159214533e+000,4.0308554262e+000,3.9871414416e+000,4.8441241837e+000,
2.1937500000e+001,3.9465078677e+000,4.0836293445e+000,3.9010134226e+000,3.7626784632e+000,4.5439577375e+000,4.3300116930e+000,4.2443059196e+000,4.1839699674e+000,5.1942865182e+000,4.2088098416e+000,6.8166604735e+000,3.9875534087e+000,3.9881655818e+000,4.7882011707e+000,
2.2031250000e+001,4.1900873662e+000,4.2912911420e+000,4.0945970033e+000,3.9418164474e+000,4.6398555430e+000,4.5275147934e+000,4.2044132286e+000,4.3723691358e+000,5.1469812086e+000,4.3973279278e+000,6.8224939871e+000,4.1738271329e+000,4.1357491852e+000,4.8585405998e+000,
2.2125000000e+001,4.3731758547e+000,4.4477680508e+000,4.1679119827e+000,3.9812092860e+000,4.7097396541e+000,4.6050136040e+000,4.1788613742e+000,4.4200164197e+000,5.1093910131e+000,4.5389675114e+000,5.1198917426e+000,4.2274102667e+000,4.0976220273e+000,4.8213691569e+000,
2.2218750000e+001,4.4680221517e+000,4.4939620935e+000,4.2760647023e+000,4.0493603925e+000,4.7018484614e+000,4.7116518155e+000,4.1561346410e+000,4.4940091310e+000,5.0820276618e+000,4.6205146926e+000,6.3989238269e+000,4.3060860868e+000,4.0448879708e+000,4.8166165575e+000,
2.2312500000e+001,4.5430083937e+000,4.5658647031e+000,4.3139539868e+000,4.1310624348e+000,4.7216027562e+000,4.7456883196e+000,4.1537258939e+000,4.5858181797e+000,5.1560515494e+000,4.6470752991e+000,6.6509901526e+000,4.2985898214e+000,3.9686022629e+000,4.8050901557e+000,
2.2406250000e+001,4.5068119576e+000,4.5386911000e+000,4.3129328894e+000,4.0870716668e+000,4.5998760423e+000,4.7171060039e+000,4.2551175737e+000,4.5651487470e+000,5.0322717392e+000,4.6317065242e+000,6.6516417022e+000,4.2357128023e+000,4.0001557348e+000,4.7802960169e+000,
2.2500000000e+001,4.4744791491e+000,4.5229285071e+000,4.2854887164e+000,4.0978435580e+000,4.4457040974e+000,4.7319840724e+000,4.2297155985e+000,4.5799052938e+000,5.0197760611e+000,4.6330394759e+000,6.6525775052e+000,4.2014266693e+000,3.9173024485e+000,4.6172001264e+000,
2.2593750000e+001,4.4396783821e+000,4.5206782663e+000,4.1827540168e+000,4.0638049269e+000,4.3659843227e+000,4.7341372714e+000,4.2131129742e+000,4.5685230836e+000,4.9124485938e+000,4.6221192456e+000,6.6542106753e+000,4.1846691673e+000,3.8656965181e+000,4.4852685113e+000,
2.2687500000e+001,4.4771080981e+000,4.5356914515e+000,4.1626674335e+000,4.0656120646e+000,4.5128969944e+000,4.7396728004e+000,4.1929841393e+000,4.6528686394e+000,4.9182707257e+000,4.6603717689e+000,6.6527788047e+000,4.2470081183e+000,3.8458119169e+000,4.5627092305e+000,
2.2781250000e+001,4.5829557574e+000,4.6960838200e+000,4.1620092053e+000,4.1671832053e+000,4.5630646295e+000,4.8311071328e+000,4.1588454093e+000,4.7355496236e+000,5.0175713410e+000,4.7959044322e+000,6.6603428375e+000,4.4401239218e+000,3.9032039180e+000,4.7284841371e+000,
2.2875000000e+001,4.5682549573e+000,4.6806051985e+000,4.1415591366e+000,4.1268590519e+000,4.5508246781e+000,4.7879048119e+000,4.1035394794e+000,4.6798598321e+000,5.0873794927e+000,4.7873279112e+000,6.6617960850e+000,4.4963237858e+000,3.9943754630e+000,4.6756392490e+000,
2.2968750000e+001,4.4525943456e+000,4.5512654425e+000,4.1039845616e+000,4.0776827018e+000,4.4707804014e+000,4.6437496468e+000,4.0296115055e+000,4.5886426543e+000,5.2023976907e+000,4.7088148669e+000,6.6620564275e+000,4.3967139676e+000,4.0409563133e+000,4.6458828485e+000,
2.3062500000e+001,4.4102090777e+000,4.5309306955e+000,4.0240669060e+000,4.0704407217e+000,4.3903016751e+000,4.6026692282e+000,3.9419419451e+000,4.6376598113e+000,5.2414111895e+000,4.6363181096e+000,6.6601396948e+000,4.3491473635e+000,4.0033958632e+000,4.7192941739e+000,
2.3156250000e+001,4.1657842302e+000,4.3743829899e+000,3.8082350477e+000,3.9298391749e+000,4.1833929563e+000,4.3930685496e+000,3.8986642346e+000,4.4718421880e+000,5.1707100408e+000,4.4474757210e+000,6.6560654119e+000,4.2485090901e+000,3.9301888057e+000,4.6534111997e+000,
2.3250000000e+001,4.0950690480e+000,4.3235223235e+000,3.8118253385e+000,3.9241043649e+000,4.1986948343e+000,4.3394260266e+000,3.8478017884e+000,4.4545168789e+000,5.1872799336e+000,4.4587117839e+000,4.6128882251e+000,4.3431395939e+000,3.9748667037e+000,4.8513866913e+000,
2.3343750000e+001,4.1512917559e+000,4.2466329302e+000,3.7661427847e+000,3.8727004357e+000,4.2338670424e+000,4.3314888099e+000,3.8377491879e+000,4.4108752449e+000,5.1828642366e+000,4.5129203449e+000,6.3787733936e+000,4.3664425107e+000,3.9177424238e+000,4.8058578545e+000,
2.3437500000e+001,4.2020716744e+000,4.3933696411e+000,3.9006819055e+000,3.9772194091e+000,4.3060411120e+000,4.4690061286e+000,3.8389828260e+000,4.5250818817e+000,5.2158201934e+000,4.6283539000e+000,6.5121636772e+000,4.5128111635e+000,3.8726418170e+000,4.9654295165e+000,
2.3531250000e+001,4.3398749297e+000,4.5422044011e+000,4.0423413122e+000,4.0935701957e+000,4.4893265773e+000,4.5809418852e+000,3.7424417419e+000,4.6472300946e+000,5.2198707822e+000,4.7372690231e+000,6.5178197665e+000,4.5908089838e+000,3.9379453877e+000,4.9398169661e+000,
2.3625000000e+001,4.3913656309e+000,4.5565435035e+000,4.0559421180e+000,4.1107947343e+000,4.4697498833e+000,4.6182624950e+000,3.6791066289e+000,4.7248795990e+000,5.2193574919e+000,4.7965867260e+000,6.5147082893e+000,4.6539142739e+000,3.9322083848e+000,4.9795031245e+000,
2.3718750000e+001,4.2497176593e+000,4.4441890749e+000,4.0144393475e+000,4.0165277906e+000,4.3978698974e+000,4.5530748572e+000,3.7316827228e+000,4.6107325357e+000,5.1893251385e+000,4.6694128833e+000,6.5109076222e+000,4.5618016712e+000,3.9038843403e+000,4.8690296771e+000,
2.3812500000e+001,4.2611192008e+000,4.5007871403e+000,4.0479588588e+000,4.0131102798e+000,4.4297109703e+000,4.5075071949e+000,3.9166743318e+000,4.6189957245e+000,5.1677527124e+000,4.6548027007e+000,6.5071857738e+000,4.5696954949e+000,3.8706994408e+000,4.8440005940e+000,
2.3906250000e+001,4.2232041114e+000,4.4586289482e+000,4.0056775635e+000,3.9898478346e+000,4.4059499973e+000,4.4613510692e+000,3.9561625345e+000,4.6036795067e+000,5.0246214963e+000,4.6811957339e+000,6.4985740479e+000,4.5818420451e+000,3.6731690287e+000,4.8438656003e+000,
2.4000000000e+001,4.1560057245e+000,4.4011705323e+000,3.9231195118e+000,3.8961961487e+000,4.4885611427e+000,4.4221430061e+000,3.9425401822e+000,4.5563051427e+000,4.8692945030e+000,4.7509742369e+000,6.4955477811e+000,4.5679605440e+000,3.5573899030e+000,4.7144807919e+000,
2.4093750000e+001,4.1600996144e+000,4.4019766278e+000,3.9433754145e+000,3.8746289340e+000,4.5236649748e+000,4.4754906851e+000,4.0115617426e+000,4.4803508534e+000,4.8697269554e+000,4.7536638890e+000,6.4973209997e+000,4.5841885984e+000,3.6787690175e+000,4.7958344778e+000,
2.4187500000e+001,4.1926739903e+000,4.4280896388e+000,3.8770165374e+000,3.7992400294e+000,4.5815167083e+000,4.4955785505e+000,4.0002461690e+000,4.5241886814e+000,4.8552539908e+000,4.7624978739e+000,6.5021428976e+000,4.6491538160e+000,3.8056899695e+000,4.7402019567e+000,
2.4281250000e+001,4.1593878569e+000,4.4594263399e+000,3.8593077816e+000,3.7697268801e+000,4.5584550975e+000,4.5043308353e+000,4.0038870425e+000,4.4930228847e+000,4.8665222082e+000,4.7361671661e+000,6.5002550251e+000,4.6657373433e+000,3.9192405578e+000,4.7277268403e+000,
2.4375000000e+001,4.0846499313e+000,4.4523458649e+000,3.8081771249e+000,3.7178089857e+000,4.5291228814e+000,4.4475597551e+000,3.9559775677e+000,4.4569587513e+000,4.8567073335e+000,4.6682830526e+000,3.9686514720e+000,4.5972428224e+000,3.9186523412e+000,4.5451258970e+000,
2.4468750000e+001,4.0634434810e+000,4.3627985247e+000,3.7422189702e+000,3.6778525596e+000,4.5077931132e+000,4.3861020299e+000,4.0118105473e+000,4.4397963317e+000,4.8645999703e+000,4.6705153250e+000,5.0400626237e+000,4.5839537488e+000,3.8415882642e+000,4.5090682872e+000,
2.4562500000e+001,3.8506649914e+000,4.1920569155e+000,3.5138165796e+000,3.5319912790e+000,4.3977530391e+000,4.2138587834e+000,4.0130942068e+000,4.3009399422e+000,4.8137422568e+000,4.5389296131e+000,6.3769514890e+000,4.4685848542e+000,3.8206482227e+000,4.5478587410e+000,
2.4656250000e+001,3.6759356735e+000,4.0611308735e+000,3.4354223090e+000,3.4032667017e+000,4.2913927611e+000,4.0768691111e+000,3.9596819997e+000,4.1357091110e+000,4.7411120151e+000,4.3980017437e+000,6.4006103084e+000,4.3728331420e+000,3.8132672762e+000,4.4434976376e+000,
2.4750000000e+001,3.6869613330e+000,4.0009181041e+000,3.4535688597e+000,3.4020484908e+000,4.2616071864e+000,4.0534164024e+000,3.8857759074e+000,4.0944165787e+000,4.7093380549e+000,4.4068065198e+000,6.4055269545e+000,4.3605919588e+000,3.8721382031e+000,4.3809981240e+000,
2.4843750000e+001,3.7102250012e+000,3.9472817035e+000,3.6546271644e+000,3.5060192928e+000,4.1530203211e+000,4.0220678578e+000,3.8577960159e+000,4.1125598815e+000,4.7527130171e+000,4.3596856325e+000,6.4069761789e+000,4.3357939138e+000,4.0279637951e+000,4.4407428813e+000,
2.4937500000e+001,3.7103725915e+000,3.8970105099e+000,3.6598538667e+000,3.4979367467e+000,4.0663186868e+000,4.0030774412e+000,3.8573528896e+000,4.0616512039e+000,4.7635221764e+000,4.2067949395e+000,6.4079993385e+000,4.3197629875e+000,4.0739839324e+000,4.4664503738e+000,
2.5031250000e+001,3.7492023003e+000,3.9599851915e+000,3.6768529152e+000,3.4171128806e+000,3.8455921778e+000,4.0197839756e+000,3.8371753582e+000,4.0832315044e+000,4.8128699428e+000,4.0759065260e+000,6.4104009189e+000,4.3323045441e+000,4.0746961283e+000,4.4624635250e+000,
2.5125000000e+001,3.7419575779e+000,3.8384478230e+000,3.6638400369e+000,3.4084378172e+000,3.8300105623e+000,3.8603639735e+000,3.8167852152e+000,4.0011809935e+000,4.7304690299e+000,4.0289074187e+000,6.4067945334e+000,4.2684225822e+000,3.9502026651e+000,4.3883021927e+000,
2.5218750000e+001,3.8548440414e+000,3.8720568522e+000,3.7968821947e+000,3.5382768661e+000,3.8719347177e+000,3.9524461920e+000,3.8558854446e+000,3.9934099044e+000,4.7341711510e+000,3.9940461706e+000,6.4103292784e+000,4.2365516169e+000,3.9825252335e+000,4.2987232510e+000,
2.5312500000e+001,4.0157942723e+000,3.9520892897e+000,3.8990971846e+000,3.6452727691e+000,4.0344998987e+000,4.1975927417e+000,3.8967209772e+000,4.1355489196e+000,4.7184296195e+000,4.1161358030e+000,6.4113227010e+000,4.2750811968e+000,3.9994250061e+000,4.2065743772e+000,
2.5406250000e+001,4.0480018576e+000,4.0133831997e+000,3.8914586252e+000,3.7130170815e+000,4.1243273538e+000,4.2968215062e+000,3.8562830509e+000,4.1800684454e+000,4.6683618442e+000,4.1523092002e+000,6.4155393491e+000,4.2703037708e+000,3.9873731913e+000,4.1824093213e+000,
2.5500000000e+001,4.0521096564e+000,4.0886677501e+000,3.9026317813e+000,3.7730043871e+000,4.1184222383e+000,4.3738507824e+000,3.8202919232e+000,4.2233030556e+000,4.6706905163e+000,4.1392102865e+000,6.7892499034e+000,4.3163796534e+000,3.9810737250e+000,4.1129285437e+000,
2.5593750000e+001,4.2051189510e+000,4.2282084910e+000,4.0159044827e+000,3.8831464606e+000,4.2044465745e+000,4.4660559290e+000,3.9153020563e+000,4.2657596185e+000,4.7962047434e+000,4.2497889068e+000,7.5195788425e+000,4.3806344709e+000,3.9786749494e+000,4.1325418515e+000,
2.5687500000e+001,4.3638473358e+000,4.3713174116e+000,4.1811249478e+000,4.0363152426e+000,4.3631559632e+000,4.6045441983e+000,3.8950525560e+000,4.4507218069e+000,4.8605852400e+000,4.3549768310e+000,7.5513975946e+000,4.3994649751e+000,4.0831299191e+000,4.1414641673e+000,
2.5781250000e+001,4.4089384018e+000,4.4042586810e+000,4.1922385458e+000,4.0722012162e+000,4.3912642437e+000,4.6589161974e+000,3.9523215245e+000,4.4721319904e+000,4.9264068244e+000,4.4187781693e+000,7.5690848530e+000,4.4405268498e+000,4.0665366720e+000,4.2177608324e+000,
2.5875000000e+001,4.3613187246e+000,4.4195613747e+000,4.1185300533e+000,4.0516569320e+000,4.4579745914e+000,4.6295343346e+000,3.9609008517e+000,4.4194167097e+000,5.0150796699e+000,4.4493330154e+000,7.5934294973e+000,4.3884798341e+000,4.0369004353e+000,4.1472515784e+000,
2.5968750000e+001,4.4334475817e+000,4.4628452466e+000,4.2083244805e+000,4.1419371481e+000,4.5077540393e+000,4.6741066368e+000,4.0598868661e+000,4.4924883049e+000,5.0579089009e+000,4.4593018968e+000,7.5969722463e+000,4.3444686080e+000,4.0336512746e+000,4.1232766268e+000,
2.6062500000e+001,4.5066157325e+000,4.5397161129e+000,4.3134423683e+000,4.2538367262e+000,4.5962953860e+000,4.7367701956e+000,4.1035880036e+000,4.6152704747e+000,5.1132966355e+000,4.5163636484e+000,7.5982138201e+000,4.4020714005e+000,4.1011679622e+000,4.1791644173e+000,
2.6156250000e+001,4.5823112450e+000,4.6067090085e+000,4.3243949901e+000,4.3184387110e+000,4.5835940667e+000,4.7658153581e+000,4.0797217242e+000,4.6946232247e+000,5.1445704952e+000,4.5218238365e+000,7.5990833073e+000,4.4262534557e+000,4.0899436189e+000,4.0577625152e+000,
2.6250000000e+001,4.4619896940e+000,4.5485642949e+000,4.1930614222e+000,4.2395877504e+000,4.5629593210e+000,4.6150466588e+000,3.9887610483e+000,4.5897206864e+000,5.0384985611e+000,4.4248451916e+000,7.5958399287e+000,4.2449520527e+000,3.8976688269e+000,4.0066797309e+000,
2.6343750000e+001,4.4168390170e+000,4.5048521136e+000,4.1786465498e+000,4.1980654612e+000,4.5284381326e+000,4.5115498893e+000,4.0334862661e+000,4.5140075464e+000,5.0365794438e+000,4.3030460599e+000,7.5953615540e+000,4.1529620022e+000,3.8261925963e+000,4.0212351223e+000,
2.6437500000e+001,4.4338933801e+000,4.4948323833e+000,4.1948977534e+000,4.1976243277e+000,4.4840778383e+000,4.4824931202e+000,4.0228164045e+000,4.5147145997e+000,5.0704507630e+000,4.4021918068e+000,7.5961001615e+000,4.2365289490e+000,3.9384151115e+000,4.1974838372e+000,
2.6531250000e+001,4.4270461124e+000,4.4455236051e+000,4.2058858237e+000,4.1571399343e+000,4.3967046113e+000,4.4014183529e+000,4.0096636147e+000,4.4430280811e+000,5.0703510354e+000,4.3956740393e+000,6.9732817594e+000,4.2602803935e+000,3.9488176732e+000,4.2677253304e+000,
2.6625000000e+001,4.2699174716e+000,4.2924363536e+000,4.0779623839e+000,4.0455412433e+000,4.2275348271e+000,4.2928762635e+000,3.9360659109e+000,4.3467304548e+000,5.0525111749e+000,4.4523505780e+000,5.2096053291e+000,4.2964859443e+000,3.9341201076e+000,4.2926480309e+000,
2.6718750000e+001,4.2447632316e+000,4.2627049808e+000,3.9590921904e+000,3.9735518221e+000,4.2757450737e+000,4.2573315465e+000,3.9314889927e+000,4.2577543817e+000,5.0794762676e+000,4.5304260957e+000,5.2034833412e+000,4.3436136765e+000,3.8474057293e+000,4.2858290726e+000,
2.6812500000e+001,4.2418593600e+000,4.2718023879e+000,3.8984918567e+000,4.0023593001e+000,4.3049490584e+000,4.2916121660e+000,3.7967733774e+000,4.3397061420e+000,5.0194376567e+000,4.4587719859e+000,4.9938127195e+000,4.3037810313e+000,3.8144890802e+000,4.3444233583e+000,
2.6906250000e+001,4.3429388835e+000,4.3501566378e+000,3.9060443599e+000,4.0489106459e+000,4.2999697138e+000,4.3767635895e+000,3.8394539851e+000,4.4410716543e+000,4.9711731061e+000,4.4439133610e+000,4.6530249969e+000,4.3473372008e+000,3.8003445245e+000,4.3189878942e+000,
2.7000000000e+001,4.3034927976e+000,4.3171746930e+000,3.7607031826e+000,4.0055806643e+000,4.2597510504e+000,4.3938215589e+000,3.8265193427e+000,4.4086915244e+000,4.9907971093e+000,4.5126470338e+000,4.6106745170e+000,4.3313942589e+000,3.7181322798e+000,4.2691813747e+000,
2.7093750000e+001,4.2645465021e+000,4.2540595394e+000,3.7826160310e+000,4.0399987392e+000,4.1963816762e+000,4.3696776568e+000,3.9322608856e+000,4.3904998783e+000,5.0339000939e+000,4.5944419739e+000,4.6061708679e+000,4.3305942849e+000,3.6986885589e+000,4.2209946394e+000,
2.7187500000e+001,4.3189191749e+000,4.3188582593e+000,3.9111212153e+000,4.1823679205e+000,4.2300486477e+000,4.4052181982e+000,3.8528008146e+000,4.4459007446e+000,5.0429902083e+000,4.7524767191e+000,4.6483822948e+000,4.4447485052e+000,3.7404348656e+000,4.3738558440e+000,
2.7281250000e+001,4.3202876902e+000,4.2807158383e+000,3.8854837377e+000,4.1755321539e+000,4.2542213045e+000,4.4146626193e+000,3.9373520107e+000,4.5290398008e+000,5.0178082926e+000,4.7813419231e+000,4.6464684238e+000,4.4785765857e+000,3.8159104054e+000,4.5232199568e+000,
2.7375000000e+001,4.4756447557e+000,4.5381137808e+000,4.0487302953e+000,4.2915355362e+000,4.6613562941e+000,4.6227434387e+000,4.0633989761e+000,4.6232861004e+000,5.1023529986e+000,4.8462105561e+000,4.6847737440e+000,4.5851829523e+000,3.9097806890e+000,4.5457695758e+000,
2.7468750000e+001,4.5213229702e+000,4.5980856990e+000,4.0980528177e+000,4.3339572497e+000,4.7104454397e+000,4.7125807321e+000,4.0939692319e+000,4.7416949295e+000,5.0374340229e+000,4.9332645065e+000,4.6811992744e+000,4.6101892452e+000,3.8947481523e+000,4.5832966264e+000,
2.7562500000e+001,4.5753422575e+000,4.6453038362e+000,4.1179345445e+000,4.3642149093e+000,4.7475724902e+000,4.7632413597e+000,4.1225242739e+000,4.8301278063e+000,5.1065051167e+000,4.9708864624e+000,6.7724231472e+000,4.6694326273e+000,3.9445147633e+000,4.6309479722e+000,
2.7656250000e+001,4.5939500452e+000,4.6744776424e+000,4.1462328653e+000,4.3795748616e+000,4.7013154236e+000,4.7753893681e+000,4.1658133741e+000,4.8928513900e+000,5.1079294567e+000,4.9651575994e+000,7.5497926048e+000,4.6210127295e+000,3.9707886447e+000,4.7439495257e+000,
2.7750000000e+001,4.5944513833e+000,4.6642202213e+000,4.2348740041e+000,4.4119054809e+000,4.7046125212e+000,4.7864666335e+000,4.1991826003e+000,4.9023035971e+000,5.1724742644e+000,5.0010601106e+000,8.1272582760e+000,4.6604780452e+000,4.0522550767e+000,4.7454169038e+000,
2.7843750000e+001,4.5559237205e+000,4.6445678870e+000,4.2673827031e+000,4.3982264434e+000,4.6715634825e+000,4.7417768309e+000,4.2456248245e+000,4.8656785861e+000,5.1483965584e+000,4.9967114632e+000,8.1709332821e+000,4.6442698898e+000,4.0627932376e+000,4.7050104074e+000,
2.7937500000e+001,4.5231932991e+000,4.5425958616e+000,4.2361905798e+000,4.3438811151e+000,4.6052370699e+000,4.6438378868e+000,4.2076111485e+000,4.7657147482e+000,5.1063841050e+000,4.9418042081e+000,8.1715821934e+000,4.6033254093e+000,4.0701675409e+000,4.7362831704e+000,
2.8031250000e+001,4.4192260124e+000,4.5302750411e+000,4.1774781143e+000,4.2972520776e+000,4.5804361416e+000,4.6030657174e+000,4.0902816342e+000,4.7427597063e+000,5.0445805056e+000,4.9087598011e+000,8.1714526299e+000,4.5795558643e+000,4.0687868545e+000,4.7047477810e+000,
2.8125000000e+001,4.4072430584e+000,4.5771541326e+000,4.1540063524e+000,4.2913512883e+000,4.5766394624e+000,4.6417349941e+000,4.0711488044e+000,4.7217665185e+000,5.0468020011e+000,4.8603248607e+000,8.1712005766e+000,4.5780818287e+000,4.0827194119e+000,4.6972764958e+000,
2.8218750000e+001,4.2862742853e+000,4.4672800065e+000,4.0354005459e+000,4.0958484946e+000,4.5728295920e+000,4.5397099727e+000,3.9905058305e+000,4.5889821254e+000,4.9955533137e+000,4.7095953370e+000,8.1698021742e+000,4.4058130815e+000,4.0067507046e+000,4.5105371267e+000,
2.8312500000e+001,4.3578423350e+000,4.4568089265e+000,4.0930926135e+000,4.1572288674e+000,4.3416665330e+000,4.5631624906e+000,4.0971308812e+000,4.5472853857e+000,5.0292388439e+000,4.7165338058e+000,8.1701768169e+000,4.3547842046e+000,4.0285320260e+000,4.4240208430e+000,
2.8406250000e+001,4.3008854166e+000,4.2698504975e+000,3.9772919030e+000,4.0631663978e+000,4.0149363694e+000,4.3657903522e+000,3.9382089118e+000,4.3681921798e+000,4.9222133828e+000,4.5520375871e+000,8.1688847561e+000,4.1484246434e+000,3.8965022296e+000,4.3281664914e+000,
2.8500000000e+001,4.2210093033e+000,4.1773622241e+000,3.9283952696e+000,3.9876083707e+000,3.9206246873e+000,4.2549231188e+000,3.8476405030e+000,4.2333897908e+000,4.9741433204e+000,4.4358405073e+000,8.1590807370e+000,4.0849885515e+000,3.9019492463e+000,4.2465301152e+000,
2.8593750000e+001,4.2436658877e+000,4.1304687112e+000,3.9346936424e+000,3.9784178363e+000,3.9464020711e+000,4.2321441084e+000,3.8172963616e+000,4.1806479271e+000,4.9092372451e+000,4.4293034464e+000,7.8317476397e+000,4.0206581168e+000,3.9089082561e+000,4.1300436415e+000,
2.8687500000e+001,4.1908861181e+000,3.9977646858e+000,3.7967973298e+000,3.8447193864e+000,4.0153736738e+000,4.1204456677e+000,3.8532125639e+000,4.0090520665e+000,4.8888003348e+000,4.2291954897e+000,7.0605391698e+000,3.9321624734e+000,3.7696149271e+000,3.9433794549e+000,
2.8781250000e+001,4.3890798318e+000,4.0558299423e+000,3.8241656984e+000,3.8868776276e+000,3.9989819684e+000,4.0439881193e+000,3.8466784977e+000,3.9545006373e+000,4.8896098268e+000,4.0789534908e+000,4.5060951853e+000,3.8484235159e+000,3.7303113939e+000,3.9976957651e+000,
2.8875000000e+001,4.3848553609e+000,4.0888844774e+000,3.8145326102e+000,3.8840960896e+000,4.0001236773e+000,4.1476376758e+000,3.9271825074e+000,3.9975264548e+000,4.8319849437e+000,4.0484369822e+000,3.5294517336e+000,3.8830824937e+000,3.6700850206e+000,3.9950295513e+000,
2.8968750000e+001,4.4267761325e+000,4.0020618035e+000,3.7372575643e+000,3.7600103572e+000,3.9625147776e+000,4.0418445731e+000,3.9274637749e+000,3.9753175530e+000,4.8242109292e+000,3.9784768139e+000,3.3359447937e+000,3.8038367022e+000,3.5561562000e+000,3.9636503285e+000,
2.9062500000e+001,4.5064090380e+000,4.0335742021e+000,3.8261937061e+000,3.8108195792e+000,3.8637224255e+000,4.0672512492e+000,3.9264553715e+000,4.0437005882e+000,4.7838879653e+000,4.0633181178e+000,3.3651266676e+000,4.0049656510e+000,3.7160294617e+000,4.1616063579e+000,
2.9156250000e+001,4.5865015006e+000,4.0706999264e+000,3.8984898779e+000,3.9276223581e+000,3.9967575872e+000,4.1608358182e+000,4.0025497043e+000,4.2088728803e+000,4.7869031014e+000,4.1494037755e+000,3.3366506451e+000,4.0389044537e+000,3.7066786177e+000,4.4912122610e+000,
2.9250000000e+001,4.6463509700e+000,4.0856143461e+000,3.9002190850e+000,3.8952407295e+000,4.0735772798e+000,4.2005212204e+000,4.0042114197e+000,4.2143289663e+000,4.8600852054e+000,4.1468967196e+000,3.4182036184e+000,4.0222265752e+000,3.7465016429e+000,4.5949770016e+000,
2.9343750000e+001,4.6000994845e+000,4.0749737739e+000,3.8939669325e+000,3.8827502791e+000,4.1300601096e+000,4.1763563730e+000,3.9426829356e+000,4.2319014540e+000,4.9344063150e+000,4.1641206265e+000,3.4572918277e+000,4.0426208987e+000,3.8035703246e+000,4.5155397531e+000,
2.9437500000e+001,4.6782240986e+000,4.1502219209e+000,3.9449047764e+000,3.9134494246e+000,4.1923228310e+000,4.2957242987e+000,3.9742729265e+000,4.3202797879e+000,4.9921473372e+000,4.3464430585e+000,3.6029171249e+000,4.1947493002e+000,3.9063453322e+000,4.5474816843e+000,
2.9531250000e+001,4.7177510927e+000,4.1387106186e+000,3.8826668246e+000,3.8797889229e+000,4.1708179087e+000,4.2863446174e+000,3.9797292196e+000,4.3517111302e+000,4.9182345190e+000,4.3215088561e+000,3.5732537033e+000,4.1848688686e+000,3.7945686537e+000,4.6323808990e+000,
2.9625000000e+001,4.7877488913e+000,4.1829611222e+000,3.8991310758e+000,3.8813746920e+000,4.1835982108e+000,4.2935718190e+000,4.0166097774e+000,4.3693942444e+000,4.9535380231e+000,4.3255870773e+000,3.6358126938e+000,4.1796036794e+000,3.7813316981e+000,4.6535973414e+000,
2.9718750000e+001,4.8409508428e+000,4.1787791939e+000,3.9281047357e+000,3.9069527307e+000,4.1832867961e+000,4.3216812894e+000,4.0526886790e+000,4.3756304860e+000,4.9629167241e+000,4.3519701684e+000,3.6652263487e+000,4.2088642864e+000,3.7799434774e+000,4.5692380569e+000,
2.9812500000e+001,4.7573930049e+000,4.0879807977e+000,3.8540118671e+000,3.8371015452e+000,4.1485933275e+000,4.3104461555e+000,3.9320793281e+000,4.3754365888e+000,5.0869015384e+000,4.4362184459e+000,6.0283915657e+000,4.1903541647e+000,3.7519005830e+000,4.5325169560e+000,
2.9906250000e+001,4.7583466000e+000,3.9848052687e+000,3.7559590091e+000,3.7772822920e+000,4.1631887540e+000,4.2004115292e+000,3.9063426130e+000,4.3370828778e+000,5.0667004373e+000,4.4332754331e+000,7.4532632470e+000,4.1438194434e+000,3.7580325929e+000,4.5570549870e+000,
3.0000000000e+001,4.7108212287e+000,3.9986784676e+000,4.8354931079e+000,3.7607507759e+000,4.1750612108e+000,4.1826160782e+000,3.8651349722e+000,4.3172829756e+000,5.1072557771e+000,4.4464159106e+000,8.0629553891e+000,4.1189492269e+000,3.7963892091e+000,4.6726939071e+000,
3.0093750000e+001,4.6776564409e+000,3.9123664237e+000,5.8419608605e+000,3.6126468618e+000,4.1365055063e+000,4.1116443816e+000,3.8956680786e+000,4.2243523870e+000,5.1788891092e+000,4.3767849200e+000,8.0693883464e+000,4.0596575090e+000,3.6728979604e+000,4.5477286500e+000,
3.0187500000e+001,4.6512208796e+000,3.9117395183e+000,6.1602657743e+000,3.6446442028e+000,4.1794814108e+000,4.1148897056e+000,3.7925124744e+000,4.2592046622e+000,5.2726252136e+000,4.4956397893e+000,8.0704470982e+000,4.1175043446e+000,3.7018050900e+000,4.2571246514e+000,
3.0281250000e+001,4.6359246930e+000,3.8906347424e+000,6.1664382873e+000,3.5895925805e+000,4.1540841483e+000,4.1057511604e+000,3.7466014877e+000,4.2221719302e+000,5.2684698550e+000,4.5343675894e+000,8.0704806814e+000,4.1755382080e+000,3.6751649287e+000,4.3295327008e+000,
3.0375000000e+001,4.5782475614e+000,3.8156804694e+000,6.1619058551e+000,3.5123792884e+000,4.0029562345e+000,4.0088259214e+000,3.7727672861e+000,4.1015477280e+000,5.2685248595e+000,4.4657865183e+000,8.0691317864e+000,4.0749435305e+000,3.5632828048e+000,4.4678844389e+000,
3.0468750000e+001,4.4534422780e+000,3.8473517860e+000,6.1646021086e+000,3.5944564793e+000,4.0095782225e+000,4.0216478932e+000,3.8194242562e+000,4.1417903599e+000,5.2852434066e+000,4.5506261974e+000,8.0685866974e+000,4.0692355498e+000,3.5120482752e+000,4.4445333556e+000,
3.0562500000e+001,4.3607772564e+000,3.8827731683e+000,6.1660570217e+000,3.6370971664e+000,4.0588875420e+000,4.0817134112e+000,3.8964821452e+000,4.1534949709e+000,5.3233687217e+000,4.5810741323e+000,8.0689839535e+000,4.1739884759e+000,3.6114303048e+000,4.4217382897e+000,
3.0656250000e+001,4.3816720774e+000,3.9242215076e+000,6.1646990869e+000,3.6332342987e+000,3.9741139133e+000,4.0750048496e+000,3.8702695873e+000,4.1502262510e+000,5.2749299760e+000,4.5399361072e+000,8.0676923558e+000,4.1699212075e+000,3.5748054444e+000,4.4425663693e+000,
3.0750000000e+001,4.2892830884e+000,3.9854804776e+000,6.1649939799e+000,3.6931559107e+000,3.9989706891e+000,4.1193793731e+000,3.9508786268e+000,4.1977282603e+000,5.2088199076e+000,4.5843133996e+000,8.0667874895e+000,4.1737001949e+000,3.6130030514e+000,4.5184481405e+000,
3.0843750000e+001,4.2297684976e+000,4.0210066938e+000,6.1715425834e+000,3.6707951055e+000,4.0129525217e+000,4.1219348541e+000,4.0340202314e+000,4.1155173034e+000,5.0525897759e+000,4.4906759830e+000,7.7645002133e+000,4.2164212609e+000,3.6919593735e+000,4.6361835049e+000,
3.0937500000e+001,4.2649420080e+000,4.0046319175e+000,6.1704003144e+000,3.6557224760e+000,3.9999573367e+000,4.0992723164e+000,3.9871672810e+000,4.1141902908e+000,5.0147666948e+000,4.4721235961e+000,5.3336746617e+000,4.1478623960e+000,3.7533231785e+000,4.4915140367e+000,
3.1031250000e+001,4.3603514372e+000,3.9942355835e+000,5.4235607597e+000,3.6716561824e+000,4.0222117362e+000,4.1445234011e+000,4.0320612172e+000,4.1070041463e+000,5.0098701623e+000,4.4570662191e+000,3.8285228165e+000,4.1666290197e+000,3.8115526533e+000,4.5004006512e+000,
3.1125000000e+001,4.4808259080e+000,4.0770156870e+000,4.7507623642e+000,3.8548847525e+000,4.1387344967e+000,4.2464548041e+000,4.1919599314e+000,4.2165474380e+000,4.8561136986e+000,4.6224084971e+000,3.6018919648e+000,4.2954780269e+000,4.0125149338e+000,4.5824388972e+000,
3.1218750000e+001,4.5173469732e+000,4.0820226185e+000,3.8756624267e+000,3.7680545491e+000,3.9316933820e+000,4.1766603588e+000,4.1577234341e+000,4.1546798730e+000,4.6574981441e+000,4.4349833058e+000,3.4731061503e+000,4.1681695071e+000,3.9519575450e+000,4.5386543608e+000,
3.1312500000e+001,4.6147119021e+000,4.3083588761e+000,3.8952721131e+000,3.9005259187e+000,4.1795516554e+000,4.3395032704e+000,4.2135639648e+000,4.3238059496e+000,4.7870369978e+000,4.5380080371e+000,3.3915694137e+000,4.2891524291e+000,4.0268972541e+000,4.5543321017e+000,
3.1406250000e+001,4.6735849897e+000,4.2929197238e+000,3.9138836664e+000,3.8872701490e+000,4.2244142560e+000,4.3074995160e+000,4.2892929307e+000,4.3556197373e+000,4.6705968007e+000,4.5062927129e+000,3.3898060344e+000,4.3037866366e+000,4.1580861795e+000,4.5226216156e+000,
3.1500000000e+001,4.6601157624e+000,4.2537297973e+000,3.9411044914e+000,3.8754904684e+000,4.2178192670e+000,4.2497642985e+000,4.2436648364e+000,4.2712106674e+000,4.7310542502e+000,4.3544317343e+000,3.3980721652e+000,4.2244174135e+000,4.1689973286e+000,4.5741291274e+000,
3.1593750000e+001,4.6830425617e+000,4.2568445528e+000,3.9668909115e+000,3.8860021315e+000,4.2437791216e+000,4.2499024105e+000,4.2296194281e+000,4.3406804871e+000,4.8172444816e+000,4.3668961706e+000,3.5186187151e+000,4.2290441769e+000,4.2829484824e+000,4.5895397550e+000,
3.1687500000e+001,4.6590614754e+000,4.2618608347e+000,3.9501826401e+000,3.9025114241e+000,4.2630678450e+000,4.3012854199e+000,4.2141734336e+000,4.3029144205e+000,4.8658421694e+000,4.4216319768e+000,3.5812270770e+000,4.2431785044e+000,4.3045679322e+000,4.5785135357e+000,
3.1781250000e+001,4.5993847175e+000,4.1718982486e+000,3.9035854232e+000,3.8230239928e+000,4.2366731362e+000,4.2680494283e+000,4.2327781405e+000,4.3012933397e+000,4.9314716709e+000,4.3174345363e+000,3.5539237613e+000,4.2440431199e+000,4.2793778445e+000,4.4705219163e+000,
3.1875000000e+001,4.5968523651e+000,4.2127378701e+000,3.8823081393e+000,3.8152859307e+000,4.2065065074e+000,4.2719048095e+000,4.2528313837e+000,4.2965592993e+000,4.9131108612e+000,4.2903697817e+000,5.5778705501e+000,4.1466825842e+000,4.1962402933e+000,4.4495694594e+000,
3.1968750000e+001,4.5429808106e+000,4.2124035205e+000,3.8915493687e+000,3.8360839259e+000,4.2536787623e+000,4.2581074609e+000,4.2264445370e+000,4.3120813265e+000,4.8840194379e+000,4.3100601790e+000,7.7466156870e+000,4.1460667802e+000,4.1376641917e+000,4.4913471638e+000,
3.2062500000e+001,4.3116623358e+000,4.0999270385e+000,3.7682798211e+000,3.7329624473e+000,4.1363360315e+000,4.1270592229e+000,4.0813468613e+000,4.1502985879e+000,4.8917952447e+000,4.2001773162e+000,7.8007247045e+000,4.0539651423e+000,4.0772746408e+000,4.3997857611e+000,
3.2156250000e+001,4.2706815514e+000,4.0763161104e+000,3.7879680047e+000,3.6980361350e+000,4.1166452615e+000,4.1012525425e+000,4.0564841394e+000,4.0831266286e+000,4.8263498160e+000,3.9729929613e+000,7.8038964948e+000,3.9319308585e+000,3.9095028803e+000,4.3777988264e+000,
3.2250000000e+001,4.0391664699e+000,3.8070129056e+000,3.7787090588e+000,3.6408840979e+000,4.0380478462e+000,3.9318548326e+000,4.0034922922e+000,3.9587516642e+000,4.8190978455e+000,3.8906847402e+000,7.8084777705e+000,3.9371510244e+000,3.9903237425e+000,4.5245683723e+000,
3.2343750000e+001,3.9586212830e+000,3.7227629228e+000,3.7308755070e+000,3.6744716959e+000,4.0258486588e+000,3.8722610409e+000,3.9044707225e+000,4.0207263648e+000,4.8136845873e+000,3.9688478880e+000,7.8097249703e+000,3.9287443169e+000,3.8349013770e+000,4.4968089290e+000,
3.2437500000e+001,3.8632835959e+000,3.7124168732e+000,3.7139355728e+000,3.6530752634e+000,3.9708810181e+000,3.9193840972e+000,3.9373298165e+000,3.9963786634e+000,4.8604937996e+000,3.9568586233e+000,7.8103304681e+000,3.9265779458e+000,3.7286759187e+000,4.3867903719e+000,
3.2531250000e+001,3.9077115277e+000,3.7687063525e+000,3.6823131157e+000,3.6414454748e+000,3.9558259199e+000,3.9562321202e+000,3.8955383748e+000,4.0027418458e+000,4.8321129062e+000,3.9801803440e+000,7.8092972775e+000,3.9767149751e+000,3.7401387219e+000,4.3778592829e+000,
3.2625000000e+001,3.8120311033e+000,3.8208833218e+000,3.6561535958e+000,3.6445265881e+000,3.9314193330e+000,3.9743694056e+000,3.7742524346e+000,3.9947080149e+000,4.9188858810e+000,4.0051038949e+000,7.8082748412e+000,3.8819021096e+000,3.5846027686e+000,4.4531960666e+000,
3.2718750000e+001,3.7761124435e+000,3.7762454372e+000,3.6588081863e+000,3.6242094038e+000,4.0153484291e+000,3.9386810948e+000,3.7540109451e+000,3.9832923545e+000,4.9045271287e+000,3.9310317359e+000,7.8086682683e+000,3.8228053500e+000,3.6228334947e+000,4.4063321749e+000,
3.2812500000e+001,3.8006269482e+000,3.9340590398e+000,3.7858158944e+000,3.7443524463e+000,4.0782965950e+000,3.9429917429e+000,3.7453056062e+000,4.0866553899e+000,4.9300236042e+000,4.0437678336e+000,7.8092621299e+000,3.9146376261e+000,3.6830825544e+000,4.4472525396e+000,
3.2906250000e+001,3.7050638686e+000,3.9205291896e+000,3.7615206247e+000,3.7219741575e+000,4.1055048138e+000,3.9511313009e+000,3.6334408433e+000,4.0938731768e+000,5.0284856128e+000,4.0652616537e+000,7.4162134973e+000,3.9633761714e+000,3.7179590517e+000,4.3333212657e+000,
3.3000000000e+001,3.6890785998e+000,3.9551888607e+000,3.7186707776e+000,3.6802764887e+000,4.0975169307e+000,3.9411205408e+000,3.6856776165e+000,4.0851426620e+000,5.0085276426e+000,4.0797962730e+000,4.5972691036e+000,3.9940881569e+000,3.6673396946e+000,4.4321671439e+000,
3.3093750000e+001,3.7302921828e+000,3.9873252990e+000,3.7421259573e+000,3.7113053234e+000,4.1590713886e+000,3.9861474996e+000,3.6736954169e+000,4.1262223639e+000,5.0719615881e+000,4.1264655782e+000,3.9081625027e+000,4.0472643821e+000,3.7136907225e+000,4.4393703139e+000,
3.3187500000e+001,3.7532938549e+000,3.9957663342e+000,3.5916788681e+000,3.5334989212e+000,4.1927921744e+000,3.9145020018e+000,3.7498627507e+000,4.0907454778e+000,5.1579078766e+000,4.0979422222e+000,3.7505592975e+000,3.9976649870e+000,3.6816554583e+000,4.3473995350e+000,
3.3281250000e+001,3.7693952786e+000,4.0384364304e+000,3.5876683135e+000,3.5346233099e+000,4.1555820295e+000,3.9408114993e+000,3.8838525706e+000,4.1608404102e+000,5.1619249161e+000,4.0436304008e+000,3.5864306521e+000,3.9683880471e+000,3.6357930590e+000,4.1527749067e+000,
3.3375000000e+001,3.9388084844e+000,4.1789280166e+000,3.6968720196e+000,3.6027527561e+000,4.1429672431e+000,4.1055199497e+000,3.9947975496e+000,4.1728857838e+000,5.2490179901e+000,4.1010772847e+000,3.5179264179e+000,4.0096512097e+000,3.6793568519e+000,4.1173585049e+000,
3.3468750000e+001,3.9233415519e+000,4.2013435995e+000,3.7833473102e+000,3.6696175420e+000,4.1707133937e+000,4.0658563493e+000,3.9591769908e+000,4.1636561594e+000,5.2311008167e+000,4.1290515226e+000,3.5913003976e+000,3.9865784364e+000,3.7183019562e+000,4.2379572157e+000,
3.3562500000e+001,3.9329487339e+000,4.1788037280e+000,3.8140071384e+000,3.6850773417e+000,4.2077086593e+000,4.0852201832e+000,3.9301488859e+000,4.1286063999e+000,5.2001630483e+000,4.1211502664e+000,3.6299949502e+000,3.9226861506e+000,3.7605177910e+000,4.1153271561e+000,
3.3656250000e+001,4.0249558598e+000,4.1723889486e+000,3.9027011061e+000,3.7277108572e+000,4.1843629505e+000,4.0697232107e+000,4.0993404038e+000,4.1932146419e+000,5.0768339733e+000,4.1399292152e+000,3.6751244231e+000,3.9733916495e+000,3.8005636218e+000,3.9663440489e+000,
3.3750000000e+001,3.9904336052e+000,4.1734269331e+000,3.8892992408e+000,3.7056024204e+000,4.1110375140e+000,4.0316784046e+000,4.0995122455e+000,4.1354362471e+000,4.9995837640e+000,4.1284019449e+000,3.5656652420e+000,3.9637566124e+000,3.7865726163e+000,4.0191033096e+000,
3.3843750000e+001,4.0393834613e+000,4.1960881634e+000,3.8950741848e+000,3.6877834987e+000,4.0586453756e+000,4.0293844427e+000,4.1208831668e+000,4.1096869125e+000,4.9518812270e+000,4.1692765453e+000,6.6783020412e+000,3.9482764092e+000,3.7478379921e+000,4.2034526257e+000,
3.3937500000e+001,4.0521582045e+000,4.1541370138e+000,3.8950429571e+000,3.6889769856e+000,4.0729845186e+000,3.9747389271e+000,4.1217493174e+000,4.0907387546e+000,4.9885950616e+000,4.0827267564e+000,7.8568495305e+000,3.9333985521e+000,3.7327412402e+000,4.0747955091e+000,
3.4031250000e+001,4.0662100585e+000,4.1530614384e+000,3.9301167965e+000,3.7071070542e+000,4.1367042010e+000,3.9805292769e+000,4.1153276576e+000,4.1289566283e+000,5.0389933862e+000,4.0927236247e+000,7.8648130889e+000,3.9437668842e+000,3.7571284627e+000,4.0939037587e+000,
3.4125000000e+001,4.0352893899e+000,4.1178695178e+000,3.8919675373e+000,3.6665759287e+000,4.2039469513e+000,3.9906446657e+000,4.0662873068e+000,4.0713698653e+000,5.0785997532e+000,4.0922463042e+000,7.8654045470e+000,3.8805036808e+000,3.6943286492e+000,4.1709919799e+000,
3.4218750000e+001,3.9995447990e+000,4.1406519771e+000,3.8540779281e+000,3.6209518042e+000,4.1250811614e+000,3.9768315513e+000,3.9998988036e+000,4.0468007918e+000,5.0769844905e+000,4.1101175262e+000,7.8658842151e+000,3.9310547774e+000,3.7929539394e+000,4.2438552949e+000,
3.4312500000e+001,3.9909123194e+000,4.0935448248e+000,3.8479914625e+000,3.7001041296e+000,4.1175290236e+000,4.0048089065e+000,3.9673216388e+000,4.0827076961e+000,5.0030475489e+000,4.2382265266e+000,7.8672110465e+000,4.0102017154e+000,3.7408998278e+000,4.2336450695e+000,
3.4406250000e+001,3.8603978963e+000,3.9583763632e+000,3.7515867413e+000,3.5960192217e+000,4.1019472486e+000,3.8891649351e+000,3.8719334256e+000,4.0780359810e+000,5.0027546244e+000,4.1483567603e+000,7.8679803635e+000,3.9445063258e+000,3.7016998314e+000,4.2343278122e+000,
3.4500000000e+001,3.9227807857e+000,3.9943514933e+000,3.7818870618e+000,3.6910703957e+000,4.0882005398e+000,4.1042570691e+000,3.8920615464e+000,4.2689525495e+000,4.9724519774e+000,4.4471343250e+000,7.8662925107e+000,4.2783233611e+000,3.6256870262e+000,4.2867444479e+000,
3.4593750000e+001,3.9868951195e+000,4.0686049680e+000,3.8019532989e+000,3.7533054835e+000,4.1317321773e+000,4.2624984463e+000,3.8768947763e+000,4.4105083904e+000,4.9864532673e+000,4.4922991419e+000,7.8671614895e+000,4.3785157185e+000,3.5395539236e+000,4.2934703520e+000,
3.4687500000e+001,4.0111178309e+000,4.1279983624e+000,3.8148970572e+000,3.8263060534e+000,4.1823167015e+000,4.3373557681e+000,3.8131521345e+000,4.4678717485e+000,5.0346958430e+000,4.6325615963e+000,7.8667613526e+000,4.4734122060e+000,3.4720368202e+000,4.3316869508e+000,
3.4781250000e+001,4.1599809558e+000,4.2840717500e+000,3.8929473510e+000,3.9916500072e+000,4.2882538695e+000,4.5724476316e+000,3.8531277615e+000,4.7019737593e+000,5.0996341946e+000,4.7873647051e+000,7.8662125371e+000,4.7056486767e+000,3.4605712838e+000,4.3163204264e+000,
3.4875000000e+001,4.2581150056e+000,4.3102278611e+000,3.9593342261e+000,4.0627937667e+000,4.3274860507e+000,4.6843564906e+000,3.8050024534e+000,4.7443283559e+000,5.0963300297e+000,4.8208347339e+000,7.0506037312e+000,4.7548623287e+000,3.4745318543e+000,4.2895904100e+000,
3.4968750000e+001,4.2828392218e+000,4.3374171651e+000,4.0269691740e+000,4.1207561541e+000,4.3151708837e+000,4.7555591023e+000,3.7610088996e+000,4.8315656960e+000,5.0255071594e+000,4.8848131226e+000,3.8279923800e+000,4.8254768125e+000,3.4873633803e+000,4.3894811562e+000,
3.5062500000e+001,4.3340487059e+000,4.4348569792e+000,4.0885817388e+000,4.2153201887e+000,4.2309379909e+000,4.8242073181e+000,3.8089107493e+000,4.9027558588e+000,5.0143100339e+000,4.9094688433e+000,3.9394859245e+000,4.8527899224e+000,3.6337821831e+000,4.4767134088e+000,
3.5156250000e+001,4.3996177077e+000,4.4381751987e+000,4.1544455482e+000,4.2559272050e+000,4.1769768379e+000,4.8721975341e+000,3.9191569387e+000,4.9675811762e+000,5.0108828759e+000,4.9656921219e+000,3.9714648110e+000,4.8662663250e+000,3.5767771966e+000,4.3919201567e+000,
3.5250000000e+001,4.4871142485e+000,4.5284087247e+000,4.2595558512e+000,4.3458426236e+000,4.2602597926e+000,4.9216472578e+000,3.9684315694e+000,5.0479031845e+000,4.9903705712e+000,4.9932463359e+000,3.9584775742e+000,4.9034630282e+000,3.6114829063e+000,4.4407671375e+000,
3.5343750000e+001,4.4860179745e+000,4.5543483700e+000,4.2787123066e+000,4.3253276389e+000,4.3159740114e+000,4.8842516862e+000,4.0739947162e+000,5.0052169577e+000,4.9416256330e+000,4.9358574542e+000,3.9388299877e+000,4.8720606936e+000,3.6452014582e+000,4.4341559287e+000,
3.5437500000e+001,4.5280405631e+000,4.5697927984e+000,4.3233027893e+000,4.3818173624e+000,4.3349378948e+000,4.9055201429e+000,4.0621318807e+000,5.0327312350e+000,4.9278309362e+000,4.9298042414e+000,3.8865137203e+000,4.8876424652e+000,3.6596970291e+000,4.4790423666e+000,
3.5531250000e+001,4.6013331551e+000,4.6544581911e+000,4.3887652315e+000,4.4314997743e+000,4.4419171732e+000,4.8662980933e+000,4.1375954534e+000,4.9938169718e+000,5.0378233507e+000,4.8454488619e+000,3.9736268969e+000,4.7964686528e+000,3.8163735686e+000,4.4788252616e+000,
3.5625000000e+001,4.6355295449e+000,4.6743939985e+000,4.4155544409e+000,4.4389932274e+000,4.4437960937e+000,4.9078948210e+000,4.0903771326e+000,4.9789422030e+000,5.0633711685e+000,4.8430910739e+000,3.9248428403e+000,4.7797521089e+000,3.8723221589e+000,4.6752071502e+000,
3.5718750000e+001,4.5908551021e+000,4.6496670400e+000,4.3848993779e+000,4.4052878884e+000,4.4271694543e+000,4.8268867750e+000,4.1904953221e+000,4.9057556887e+000,5.0824862929e+000,4.6709890425e+000,3.9317559620e+000,4.6429959304e+000,3.8731089262e+000,4.6847915208e+000,
3.5812500000e+001,4.5070037160e+000,4.5280745856e+000,4.3481169512e+000,4.3511525281e+000,4.3332179126e+000,4.6729341987e+000,4.2157616122e+000,4.7635543381e+000,5.0308918577e+000,4.5290460679e+000,3.8334249733e+000,4.4413729811e+000,3.8893275061e+000,4.6171984794e+000,
3.5906250000e+001,4.5036907341e+000,4.5089242245e+000,4.3483984111e+000,4.3533128830e+000,4.3921548646e+000,4.6906860494e+000,4.2684883890e+000,4.7417284032e+000,5.0526574521e+000,4.5235187755e+000,5.6679754109e+000,4.4172342452e+000,3.9119858753e+000,4.5702222734e+000,
3.6000000000e+001,4.4768356333e+000,4.4687008731e+000,4.3518027246e+000,4.2989592427e+000,4.4247019885e+000,4.6234170801e+000,4.3856022175e+000,4.6612663842e+000,5.0535066374e+000,4.4521873506e+000,7.7809624212e+000,4.3508782034e+000,3.9301417214e+000,4.5084642697e+000,
3.6093750000e+001,4.4281190245e+000,4.4075228280e+000,4.3141558725e+000,4.2254405731e+000,4.4065613886e+000,4.5656281722e+000,4.4075667727e+000,4.5914133609e+000,5.0527458503e+000,4.4036402939e+000,7.8060733267e+000,4.3036955779e+000,3.8139389032e+000,4.3790368450e+000,
3.6187500000e+001,4.4059812953e+000,4.4663560485e+000,4.3542585451e+000,4.2328272760e+000,4.4213108718e+000,4.5824941391e+000,4.4187211954e+000,4.5753456618e+000,5.0114742170e+000,4.3489619269e+000,7.8060440685e+000,4.2801735149e+000,3.7761284687e+000,4.3582473454e+000,
3.6281250000e+001,4.4067441549e+000,4.4652253814e+000,4.2689209732e+000,4.2176036197e+000,4.4409294293e+000,4.6222459906e+000,4.3738810859e+000,4.5978043890e+000,5.0309113890e+000,4.4608372633e+000,7.8054821473e+000,4.3608104940e+000,3.7011277386e+000,4.3591145827e+000,
3.6375000000e+001,4.4681636453e+000,4.4894869426e+000,4.3545774689e+000,4.2295858268e+000,4.4926486161e+000,4.6483247341e+000,4.4073570560e+000,4.5752728994e+000,5.1315970620e+000,4.4721016961e+000,7.8058439363e+000,4.3413496693e+000,3.7513177664e+000,4.3378454978e+000,
3.6468750000e+001,4.3493081869e+000,4.4424383310e+000,4.2363998222e+000,4.1524770076e+000,4.4562069351e+000,4.6001863541e+000,4.3873087666e+000,4.5260016877e+000,5.1241208705e+000,4.4640570715e+000,7.8057050098e+000,4.3144320388e+000,3.6942703996e+000,4.3112248247e+000,
3.6562500000e+001,4.2244816420e+000,4.3006530776e+000,4.1392906059e+000,3.9905401656e+000,4.3187933276e+000,4.4040196463e+000,4.3781236741e+000,4.3360659878e+000,4.9997931553e+000,4.3006265472e+000,7.8045366118e+000,4.1518860947e+000,3.5574906636e+000,4.3008848682e+000,
3.6656250000e+001,4.1874997115e+000,4.2840271952e+000,4.1502273022e+000,3.9516430336e+000,4.3283114662e+000,4.3713982543e+000,4.3868605004e+000,4.3194122345e+000,4.9708232889e+000,4.2797181724e+000,7.8043990721e+000,4.2087827950e+000,3.6210583986e+000,4.0034163500e+000,
3.6750000000e+001,4.1879105743e+000,4.2399327867e+000,4.1321098650e+000,3.8784530306e+000,4.2665688851e+000,4.3450902803e+000,4.3211162310e+000,4.2440167223e+000,4.9759724429e+000,4.2603651382e+000,7.8036882279e+000,4.1146371247e+000,3.7277738062e+000,3.9843139967e+000,
3.6843750000e+001,4.3201993062e+000,4.3195420746e+000,4.1610119507e+000,3.9053185627e+000,4.2663705158e+000,4.3879182701e+000,4.3213162562e+000,4.2498182164e+000,5.0945827775e+000,4.2247345534e+000,7.8050146951e+000,4.1587590142e+000,3.7163654711e+000,4.0257531918e+000,
3.6937500000e+001,4.3679104329e+000,4.3570364209e+000,4.1695182470e+000,3.8252891313e+000,4.2532434749e+000,4.4083987967e+000,4.3108205887e+000,4.2056970153e+000,5.0974873980e+000,4.3207996220e+000,7.1573420914e+000,4.2002404278e+000,3.7177728378e+000,4.0891299476e+000,
3.7031250000e+001,4.4344281091e+000,4.3920531641e+000,4.1823314064e+000,3.8631293513e+000,4.3921382424e+000,4.4393610052e+000,4.3014450827e+000,4.2172131459e+000,5.0659308339e+000,4.4095422374e+000,4.4281378436e+000,4.2258005036e+000,3.7620060479e+000,4.1035961675e+000,
3.7125000000e+001,4.5532678638e+000,4.4360478347e+000,4.2410944840e+000,3.9123850976e+000,4.4531860119e+000,4.4729912980e+000,4.3125455203e+000,4.1648704816e+000,5.1379097533e+000,4.4320547838e+000,3.4079462612e+000,4.1994430189e+000,3.7821998554e+000,4.1324546920e+000,
3.7218750000e+001,4.5869499306e+000,4.4555640309e+000,4.2121190022e+000,3.9325463322e+000,4.5083345657e+000,4.5208076062e+000,4.2823326555e+000,4.1546306535e+000,5.1931962640e+000,4.4933118531e+000,3.4715587817e+000,4.1582068711e+000,3.8870508902e+000,4.1492817627e+000,
3.7312500000e+001,4.5468102298e+000,4.5521385988e+000,4.1905547735e+000,3.9722710849e+000,4.5125088235e+000,4.5866617166e+000,4.2514748941e+000,4.2123574968e+000,5.1528045346e+000,4.4853442443e+000,3.5081956502e+000,4.0899796716e+000,3.8543596854e+000,4.1923533565e+000,
3.7406250000e+001,4.6589045181e+000,4.6216964058e+000,4.2398231947e+000,4.0546001661e+000,4.5351298057e+000,4.6405033999e+000,4.2074205085e+000,4.2629829762e+000,5.2673104433e+000,4.5111090013e+000,3.4502244749e+000,4.1006157808e+000,3.9150087122e+000,4.2236399984e+000,
3.7500000000e+001,4.6855470754e+000,4.6061376524e+000,4.2699504795e+000,4.0723930679e+000,4.5658794648e+000,4.6862187056e+000,4.2136064578e+000,4.3224768500e+000,5.3253942069e+000,4.5291989607e+000,3.5863262954e+000,4.1781509278e+000,4.0451844842e+000,4.2792080813e+000,
3.7593750000e+001,4.7106126515e+000,4.6447463748e+000,4.3365511830e+000,4.0870395652e+000,4.6902094595e+000,4.7381399901e+000,4.2752462737e+000,4.3894682126e+000,5.4717266181e+000,4.6158634657e+000,3.7510251839e+000,4.3046066877e+000,4.1954724205e+000,4.3960525073e+000,
3.7687500000e+001,4.7409421042e+000,4.6333263472e+000,4.3508118157e+000,4.1377751959e+000,4.6551971821e+000,4.7445396576e+000,4.1938915141e+000,4.3708894373e+000,5.4254361970e+000,4.6847089631e+000,3.7701085421e+000,4.2900508059e+000,4.0951828455e+000,4.3339640645e+000,
3.7781250000e+001,4.8153100490e+000,4.6766296836e+000,4.4018991873e+000,4.2071326754e+000,4.6661514500e+000,4.7631891565e+000,4.1861408672e+000,4.4095254851e+000,5.4252590411e+000,4.7195779619e+000,6.5567436584e+000,4.3240915502e+000,4.0221965348e+000,4.4177579990e+000,
3.7875000000e+001,4.7237331508e+000,4.6203901356e+000,4.2982041143e+000,4.1540689991e+000,4.6895856278e+000,4.6747025934e+000,4.1544531174e+000,4.3698143462e+000,5.4171291912e+000,4.6875493502e+000,7.7630403253e+000,4.2230786818e+000,4.0091739841e+000,4.4721850025e+000,
3.7968750000e+001,4.7286214833e+000,4.6583877837e+000,4.2666661680e+000,4.1963715627e+000,4.7200813354e+000,4.6681197284e+000,4.1565716346e+000,4.4174338655e+000,5.4558357837e+000,4.6927924556e+000,7.7869304440e+000,4.1903984817e+000,4.0209438764e+000,4.4391318670e+000,
3.8062500000e+001,4.6543785902e+000,4.6006332462e+000,4.2029276755e+000,4.1410755063e+000,4.6189956813e+000,4.6130489491e+000,4.0426526640e+000,4.3994264898e+000,5.4302608720e+000,4.6080270529e+000,7.7873920516e+000,4.1812138709e+000,4.0226140482e+000,4.4583909082e+000,
3.8156250000e+001,4.5233540801e+000,4.5184276345e+000,4.1591501605e+000,4.0855091293e+000,4.5515485551e+000,4.4862893666e+000,4.0422883054e+000,4.2901129422e+000,5.3853940632e+000,4.5265753071e+000,7.7887930223e+000,4.1826615087e+000,4.0090497912e+000,4.4459776942e+000,
3.8250000000e+001,4.6446918702e+000,4.5239391827e+000,4.3722703065e+000,4.2526879753e+000,4.7294389066e+000,4.5438089022e+000,4.3360974801e+000,4.3028063990e+000,5.5254621280e+000,4.6373496739e+000,7.7900434307e+000,4.2754479262e+000,4.1084475017e+000,4.5144303558e+000,
3.8343750000e+001,4.6980537158e+000,4.3742920676e+000,4.3271698437e+000,4.1305613976e+000,4.7351998748e+000,4.4481977478e+000,4.3972353670e+000,4.3347575283e+000,5.5244922290e+000,4.6857014137e+000,7.7912137881e+000,4.3927656858e+000,4.2152443864e+000,4.5289768037e+000,
3.8437500000e+001,4.6540120925e+000,4.3506393853e+000,4.3227611652e+000,4.1620112163e+000,4.7271498357e+000,4.4284562351e+000,4.4017412107e+000,4.4194221915e+000,5.4692468752e+000,4.8022144186e+000,7.7919759172e+000,4.5809636198e+000,4.3282481406e+000,4.6100124574e+000,
3.8531250000e+001,4.5980092990e+000,4.3032814471e+000,4.2431105065e+000,4.1487970061e+000,4.6523789677e+000,4.3731897208e+000,4.3232401289e+000,4.4015945483e+000,5.3409318612e+000,4.7786131205e+000,7.7889327414e+000,4.5143506464e+000,4.1910475114e+000,4.4590279709e+000,
3.8625000000e+001,4.5900232810e+000,4.2562938471e+000,4.2158147358e+000,4.1447056544e+000,4.5676120569e+000,4.3477602030e+000,4.3724699100e+000,4.3411105958e+000,5.3610459239e+000,4.6934727863e+000,7.7882929726e+000,4.4917014154e+000,4.1506342759e+000,4.4716949288e+000,
3.8718750000e+001,4.4534200197e+000,4.2842255123e+000,4.0926261546e+000,4.0859094967e+000,4.5304191682e+000,4.3099927127e+000,4.3444413972e+000,4.3342302324e+000,5.3622129681e+000,4.5790577132e+000,7.7869180931e+000,4.4674805132e+000,4.2084595689e+000,4.4859291588e+000,
3.8812500000e+001,4.4545820718e+000,4.2955774627e+000,4.0864361352e+000,4.0850589833e+000,4.5454413724e+000,4.3369815321e+000,4.3514097828e+000,4.3223505390e+000,5.3852044525e+000,4.5952796269e+000,7.1038954855e+000,4.4918849235e+000,4.2285310096e+000,4.4396158408e+000,
3.8906250000e+001,4.4303496562e+000,4.2792017481e+000,4.1721843445e+000,4.1402703297e+000,4.6170491495e+000,4.3889094173e+000,4.2678759014e+000,4.3868298219e+000,5.4058554288e+000,4.6650675938e+000,4.2358252994e+000,4.5712939893e+000,4.2742171353e+000,4.5100588051e+000,
3.9000000000e+001,4.3711657186e+000,4.2200759407e+000,4.1854564223e+000,4.1262014980e+000,4.5799815569e+000,4.3596900561e+000,4.2477640910e+000,4.3805486102e+000,5.3523781804e+000,4.6988719071e+000,3.8487650390e+000,4.6185179619e+000,4.2610489330e+000,4.6600563872e+000,
3.9093750000e+001,4.3227123013e+000,4.1526328110e+000,4.1719535890e+000,4.1293848453e+000,4.5127972534e+000,4.3150205106e+000,4.1720290946e+000,4.3497676103e+000,5.2754168834e+000,4.7449089507e+000,3.7963223436e+000,4.6102115600e+000,4.2381897617e+000,4.8934722047e+000,
3.9187500000e+001,4.2980113096e+000,4.0491139341e+000,4.1267364278e+000,4.0722683383e+000,4.4488043395e+000,4.2503010148e+000,4.1312152592e+000,4.3414772815e+000,5.2092890629e+000,4.7041509548e+000,3.8179533389e+000,4.6242625007e+000,4.2953294332e+000,4.9543868437e+000,
3.9281250000e+001,4.0413229934e+000,3.9399865240e+000,3.8052186566e+000,3.8741407537e+000,4.1131487897e+000,4.1868478760e+000,3.7626902743e+000,4.2406670507e+000,5.0338085914e+000,4.4658479272e+000,3.6983535526e+000,4.4742008153e+000,4.1615697333e+000,4.9562627595e+000,
3.9375000000e+001,3.8688203411e+000,3.9754600665e+000,3.7514314048e+000,3.8503436148e+000,4.0456844309e+000,4.1524335986e+000,3.7528629059e+000,4.2135258785e+000,5.0102083157e+000,4.4332152806e+000,3.6874613815e+000,4.3680981648e+000,4.0466268887e+000,4.9852086866e+000,
3.9468750000e+001,3.8296395942e+000,3.9703536468e+000,3.8028260165e+000,3.7902508365e+000,4.1241128084e+000,4.1055572738e+000,3.7536241067e+000,4.0340339393e+000,5.0181828839e+000,4.2328209749e+000,3.6604978397e+000,4.1703623905e+000,3.9966368600e+000,4.9574704267e+000,
3.9562500000e+001,3.8923369596e+000,4.0090442064e+000,3.8672941910e+000,3.8032287735e+000,4.1659961798e+000,4.1431890846e+000,3.7272173847e+000,4.0809511066e+000,5.0621362747e+000,4.2644907930e+000,3.7110474564e+000,4.1508356891e+000,4.0113113128e+000,4.9100566496e+000,
3.9656250000e+001,3.9804118003e+000,4.0829216957e+000,3.9516881931e+000,3.8631732590e+000,4.2125822650e+000,4.3473054538e+000,3.6720961840e+000,4.1994052841e+000,5.0781611222e+000,4.3553291505e+000,3.7617247579e+000,4.2477175474e+000,4.0851623721e+000,4.9614630485e+000,
3.9750000000e+001,3.8480927599e+000,3.8704292991e+000,3.9120989864e+000,3.7492905393e+000,4.2402714825e+000,4.2415097704e+000,3.6592933863e+000,4.1349921246e+000,5.0013489550e+000,4.3769963667e+000,3.7332009065e+000,4.2297230868e+000,3.9957964123e+000,4.9452294582e+000,
3.9843750000e+001,3.9166353568e+000,3.9673774766e+000,3.9485511538e+000,3.8276310933e+000,4.2651948608e+000,4.2893339166e+000,3.6752311929e+000,4.1974535358e+000,5.0155915348e+000,4.3322978477e+000,3.7550466188e+000,4.3448926444e+000,3.9438705068e+000,4.9846593525e+000,
3.9937500000e+001,3.8908977098e+000,3.8937239003e+000,4.7899030173e+000,3.7237665166e+000,4.0363145448e+000,4.1910971767e+000,3.6826907190e+000,4.0872671065e+000,4.9480101698e+000,4.2462291280e+000,3.7435067399e+000,4.4364671422e+000,3.9316829745e+000,4.9580864467e+000,
4.0031250000e+001,3.9656209020e+000,3.9037230010e+000,4.8972276145e+000,3.6121648686e+000,4.0164779761e+000,4.1756398635e+000,3.8042084382e+000,4.0286005096e+000,5.0115173411e+000,4.1120573355e+000,7.1104338471e+000,4.4162180872e+000,4.0479719546e+000,4.8047253561e+000,
4.0125000000e+001,4.1835149639e+000,4.1969221750e+000,4.9516787902e+000,3.7542636546e+000,3.9960586872e+000,4.2880677251e+000,3.8567695463e+000,4.1439449367e+000,5.0002960912e+000,4.0538342298e+000,7.7135791809e+000,4.4013430078e+000,4.1354719370e+000,4.8109502567e+000,
4.0218750000e+001,4.2845113514e+000,4.3202325100e+000,4.9727598454e+000,3.8717186664e+000,4.0463750568e+000,4.3545068931e+000,3.8443832433e+000,4.2018036865e+000,5.0060361595e+000,4.0854037713e+000,7.7156136396e+000,4.4051657902e+000,4.1900304407e+000,4.7327833984e+000,
4.0312500000e+001,4.3292885709e+000,4.3640445800e+000,5.0069248170e+000,3.9797551969e+000,4.1596961702e+000,4.3768745675e+000,3.9300481788e+000,4.3082358014e+000,5.0024765988e+000,4.2230853178e+000,7.7160864444e+000,4.4350808424e+000,4.3132419210e+000,4.7810401052e+000,
4.0406250000e+001,4.3722745903e+000,4.4095221155e+000,5.0261659933e+000,4.0373688623e+000,4.2579476453e+000,4.3986799061e+000,4.0034440007e+000,4.3884261142e+000,4.9866603649e+000,4.2352826718e+000,7.7160875415e+000,4.3991118229e+000,4.3202870790e+000,4.7045315749e+000,
4.0500000000e+001,4.3633147331e+000,4.4129158648e+000,5.0239308426e+000,4.0184293368e+000,4.2854686633e+000,4.3172529958e+000,3.9708671798e+000,4.3846132229e+000,4.9931952361e+000,4.3572769044e+000,7.7141613013e+000,4.4607451177e+000,4.2750446752e+000,4.8594065445e+000,
4.0593750000e+001,4.3681966472e+000,4.3491330372e+000,4.9976104475e+000,3.9443606968e+000,4.2021437724e+000,4.1425513865e+000,3.9415954526e+000,4.2758143436e+000,4.8895089948e+000,4.3194036051e+000,7.7117278432e+000,4.4136417361e+000,4.1461450595e+000,4.9256646346e+000,
4.0687500000e+001,4.3862717115e+000,4.4065399413e+000,5.0091615875e+000,3.9566792268e+000,4.2611712305e+000,4.1950869758e+000,4.0501474393e+000,4.3157483635e+000,4.8782157497e+000,4.3200174918e+000,7.7117125144e+000,4.3895878718e+000,4.1761256458e+000,4.8702485270e+000,
4.0781250000e+001,4.3774794554e+000,4.3766567135e+000,5.0123914443e+000,3.9265911628e+000,4.2070484447e+000,4.1831772328e+000,4.0799357547e+000,4.2802138106e+000,4.8348072678e+000,4.2822518216e+000,7.7115195743e+000,4.3471216676e+000,4.1713046846e+000,4.8049635567e+000,
4.0875000000e+001,4.3604740609e+000,4.3838397289e+000,4.9593897989e+000,3.9798445974e+000,4.1996966282e+000,4.1965833066e+000,4.0823673460e+000,4.3525993021e+000,4.7813856761e+000,4.3018680341e+000,7.7120163964e+000,4.2355128953e+000,4.1644603249e+000,4.7871671607e+000,
4.0968750000e+001,4.3517436703e+000,4.4590506488e+000,4.2034614794e+000,4.0172981347e+000,4.2305697519e+000,4.2132582449e+000,4.1640580887e+000,4.4120309629e+000,4.8515870117e+000,4.3018675632e+000,7.7130819246e+000,4.1638390476e+000,4.2154621694e+000,4.8474324394e+000,
4.1062500000e+001,4.3037957815e+000,4.4366683671e+000,4.1319872674e+000,4.0623732161e+000,4.2676033183e+000,4.2378932901e+000,4.0453833115e+000,4.4277495370e+000,4.8471200782e+000,4.2784652387e+000,6.6745062423e+000,4.1192735211e+000,4.0515184876e+000,4.7645770012e+000,
4.1156250000e+001,4.1193001549e+000,4.2243064879e+000,4.0510424112e+000,3.9937869339e+000,4.2438059952e+000,4.0873085134e+000,4.1411549249e+000,4.3654780148e+000,4.7927198166e+000,4.2834168388e+000,3.5131137111e+000,4.1271252349e+000,3.9392418206e+000,4.7293999885e+000,
