Time (s),AF3,AF4,F3,F4,F7,F8,FC5,FC6,T7,T8,P7,P8,O1,O2,Sampling Rate
0.0000000000e+000,4.4370843423e+000,4.1395937261e+000,3.5206354703e+000,3.3321756075e+000,3.4717154182e+000,4.0437560553e+000,2.8166591422e+000,3.9912948585e+000,2.8445860096e+000,4.0680813909e+000,3.2438676058e+000,3.5542951368e+000,3.2711954130e+000,3.4934194313e+000,1
9.3750000000e-002,4.2880141714e+000,4.1632999652e+000,3.7901414578e+000,3.2577056221e+000,3.3369959421e+000,4.0433586788e+000,2.9017438287e+000,3.8985818403e+000,2.8898549054e+000,3.6520862910e+000,3.1758794117e+000,3.4080383199e+000,3.2592925239e+000,3.3889342519e+000,
1.8750000000e-001,4.2699003254e+000,4.2575682258e+000,4.0038293365e+000,3.3221490486e+000,3.4366795969e+000,4.1399949078e+000,3.0910256001e+000,3.8862181593e+000,2.9344834688e+000,3.6803649836e+000,3.3353668072e+000,3.5547114906e+000,3.2901023263e+000,3.4045321379e+000,
2.8125000000e-001,4.1680013327e+000,4.1603494610e+000,4.1519789896e+000,3.4465658904e+000,3.4148398703e+000,4.0596843134e+000,3.0819882128e+000,3.8551082142e+000,2.9127603856e+000,3.7769307619e+000,3.2985268672e+000,3.5806705036e+000,3.2039159150e+000,3.3076943836e+000,
3.7500000000e-001,4.2289184213e+000,4.2103184607e+000,4.2151774734e+000,3.4078345971e+000,3.5366626195e+000,4.0572563468e+000,3.1123214603e+000,3.8139543501e+000,2.8785948221e+000,3.7918201262e+000,3.3835654364e+000,3.6044759081e+000,3.2041390801e+000,3.3173179708e+000,
4.6875000000e-001,4.2987364376e+000,4.2672306213e+000,4.2029725431e+000,3.4857135849e+000,3.5693600357e+000,4.0201143225e+000,3.1348967796e+000,3.8554303163e+000,2.9507196152e+000,3.8187973844e+000,3.3973937791e+000,3.6164465017e+000,3.2922441374e+000,3.3750838756e+000,
5.6250000000e-001,4.2964084439e+000,4.1449830830e+000,4.2321310424e+000,3.5451851318e+000,3.5636336091e+000,3.9712077147e+000,3.0348012560e+000,3.8124335986e+000,2.9177722764e+000,3.7613959318e+000,3.3188890405e+000,3.5412187731e+000,3.2772192323e+000,3.2463459273e+000,
6.5625000000e-001,4.3115203814e+000,4.1751438603e+000,4.2667741274e+000,3.6160308352e+000,3.6098502653e+000,3.8720117070e+000,3.1215929043e+000,3.8376823398e+000,2.9809658696e+000,3.7724371812e+000,3.3237537370e+000,3.5921080857e+000,3.3231116738e+000,3.2844215826e+000,
7.5000000000e-001,4.3542837381e+000,4.2153554961e+000,4.3309173702e+000,3.5753104461e+000,3.7056516129e+000,3.9348562715e+000,3.2475382816e+000,3.8865965229e+000,3.0604341928e+000,3.9232065194e+000,3.3464267049e+000,3.6147490372e+000,3.4686462356e+000,3.3282210385e+000,
8.4375000000e-001,4.3241211179e+000,4.2574347639e+000,4.3610549679e+000,3.5612594462e+000,3.7199817570e+000,3.9348989347e+000,3.2191423766e+000,3.8729406407e+000,2.9996269557e+000,3.9005850950e+000,3.4449671706e+000,3.5572708763e+000,3.4819321329e+000,3.4234978866e+000,
9.3750000000e-001,4.1903564750e+000,4.1807854903e+000,4.3281746132e+000,3.4893699120e+000,3.7122684834e+000,3.8600456597e+000,3.2387040237e+000,3.6891347872e+000,3.0061310165e+000,3.7446580892e+000,3.4014516995e+000,3.4287431446e+000,3.4310546733e+000,3.3767412421e+000,
1.0312500000e+000,4.1081678767e+000,4.1666785484e+000,4.2564461520e+000,3.4647862635e+000,3.7246105402e+000,3.7302205896e+000,3.1511271030e+000,3.6373266562e+000,2.9386615481e+000,3.6862658766e+000,3.4371313772e+000,3.3744421807e+000,3.3736163484e+000,3.3769397132e+000,
1.1250000000e+000,3.9972030034e+000,4.1142876626e+000,4.1075135008e+000,3.5564032550e+000,3.7295438606e+000,3.7362952190e+000,3.1295342437e+000,3.6450237301e+000,2.8254521851e+000,3.6415690446e+000,3.3889375110e+000,3.3711043344e+000,3.3371452786e+000,3.4996530660e+000,
1.2187500000e+000,3.9514204321e+000,4.1584938294e+000,3.8452421496e+000,3.4617471516e+000,3.6445470681e+000,3.7134410373e+000,3.1381689300e+000,3.6940231067e+000,2.8409279571e+000,3.7395472743e+000,3.2516295144e+000,3.2504211287e+000,3.2508542898e+000,3.5655867602e+000,
1.3125000000e+000,4.0389062468e+000,4.1714130675e+000,3.6258807191e+000,3.3582417860e+000,3.6398526785e+000,3.8190359970e+000,3.1389472511e+000,3.7104110253e+000,2.7996832110e+000,3.7188155089e+000,3.3327418349e+000,3.2867106183e+000,3.3421983519e+000,3.7490201644e+000,
1.4062500000e+000,4.0283305292e+000,4.1818210552e+000,3.5190272010e+000,3.3915748687e+000,3.5567363851e+000,3.7944442121e+000,3.2051400742e+000,3.7422979706e+000,2.7848728671e+000,3.7043685478e+000,3.3092287346e+000,3.2417995189e+000,3.3530501274e+000,3.6775045919e+000,
1.5000000000e+000,4.1128740174e+000,4.3057695317e+000,3.6361973023e+000,3.4723129761e+000,3.8004651910e+000,4.0478022287e+000,3.3249260893e+000,3.7896435407e+000,2.8380481730e+000,3.9925965248e+000,3.3279674530e+000,3.5341611286e+000,3.3399586974e+000,3.7794569927e+000,
1.5937500000e+000,4.1432120340e+000,4.3500073641e+000,3.6863810126e+000,3.4331478843e+000,3.9246044934e+000,4.0982973867e+000,3.4080231645e+000,3.8228930253e+000,2.8471918750e+000,4.0001686944e+000,3.3572842096e+000,3.6200302205e+000,3.4659514576e+000,3.7975918715e+000,
1.6875000000e+000,4.0644172267e+000,4.3704775774e+000,3.6182514143e+000,3.4048017449e+000,3.9310328620e+000,4.0629738690e+000,3.4669380776e+000,3.8185003661e+000,2.9505100670e+000,3.9844964580e+000,3.3518413307e+000,3.5402204986e+000,3.4341462796e+000,3.8322474812e+000,
1.7812500000e+000,4.2348298100e+000,4.3319283174e+000,3.5192714597e+000,3.5306657871e+000,4.1105860015e+000,4.0709735485e+000,3.5143591914e+000,3.9141334671e+000,2.9804980210e+000,4.0226941011e+000,3.3136267848e+000,3.6458111597e+000,3.3170772165e+000,3.7714300955e+000,
1.8750000000e+000,4.4058330087e+000,4.3766320962e+000,3.5196827985e+000,3.6376252138e+000,4.1168276182e+000,4.1867301729e+000,3.5706680383e+000,3.9973004149e+000,2.9777447246e+000,4.1805511587e+000,3.3398510799e+000,3.7246128626e+000,3.4832187615e+000,3.7555216658e+000,
1.9687500000e+000,4.5040662510e+000,4.4110049347e+000,3.6417958874e+000,3.6791653955e+000,4.1056489297e+000,4.1515683924e+000,3.5616323474e+000,4.0342123064e+000,2.9199514386e+000,4.2032642614e+000,3.3029113255e+000,3.7893945824e+000,3.5441781062e+000,3.7866276074e+000,
2.0625000000e+000,4.5331679078e+000,4.4446205140e+000,3.6732743948e+000,3.6344082448e+000,4.0990248988e+000,4.1956094978e+000,3.6288272713e+000,4.0089412516e+000,2.9280375805e+000,4.2126389225e+000,3.2846669353e+000,3.7966656379e+000,3.6102779099e+000,3.7696893689e+000,
2.1562500000e+000,4.5621623561e+000,4.4316407127e+000,3.7316163052e+000,3.6000964667e+000,4.0787853065e+000,4.2063394306e+000,3.6266348499e+000,3.9311625255e+000,2.9303272450e+000,4.2826642984e+000,3.2378035036e+000,3.8069429676e+000,3.6526682078e+000,3.6735010516e+000,
2.2500000000e+000,4.5777879235e+000,4.3821265160e+000,3.7602711773e+000,3.5836074298e+000,4.0626665121e+000,4.1375612171e+000,3.5351838779e+000,3.9192922363e+000,2.8537558883e+000,4.2605337913e+000,3.2429856452e+000,3.8219913420e+000,3.7318627416e+000,3.6550364898e+000,
2.3437500000e+000,4.6402334540e+000,4.4481091867e+000,3.7580394029e+000,3.6466107526e+000,4.1793315611e+000,4.1531015956e+000,3.6715437450e+000,3.9884961316e+000,3.0649094944e+000,4.3851532179e+000,3.2922769754e+000,3.8812704126e+000,3.7833329618e+000,3.5619741659e+000,
2.4375000000e+000,4.5928320196e+000,4.3692771250e+000,3.7093661922e+000,3.5876171322e+000,4.1658629209e+000,4.1525505733e+000,3.6302034713e+000,3.9823981628e+000,3.0291486786e+000,4.3782500512e+000,3.2157394172e+000,3.8631765874e+000,3.8112108980e+000,3.6084898241e+000,
2.5312500000e+000,4.4824559307e+000,4.2630162395e+000,3.5107141423e+000,3.5422474333e+000,4.0320091450e+000,3.9858122530e+000,3.5573146155e+000,3.9220819367e+000,3.0215618378e+000,4.2616823461e+000,3.1421415774e+000,3.6311162166e+000,3.7827660799e+000,3.5071363242e+000,
2.6250000000e+000,4.6444634536e+000,4.2838934116e+000,3.5973627319e+000,3.5129126387e+000,4.1181688615e+000,3.9773125585e+000,3.6604152404e+000,3.9158783454e+000,3.0038477601e+000,4.2858650423e+000,3.1390356502e+000,3.6381036504e+000,3.8136080296e+000,3.5080303532e+000,
2.7187500000e+000,4.5781823885e+000,4.2663237978e+000,3.5524329509e+000,3.5160233644e+000,4.0249081430e+000,3.9055227441e+000,3.4953468351e+000,3.8428920464e+000,2.7986692239e+000,4.2847375197e+000,3.1609384833e+000,3.5881824423e+000,3.8300043703e+000,3.4225731453e+000,
2.8125000000e+000,4.5259892973e+000,4.2547164744e+000,3.5636102995e+000,3.4568090667e+000,3.9124048834e+000,3.8874693798e+000,3.4823851991e+000,3.8643685113e+000,2.7642563191e+000,4.3078574981e+000,3.1499470553e+000,3.5730726430e+000,3.7983683589e+000,3.4289965171e+000,
2.9062500000e+000,4.3995611706e+000,4.2643634353e+000,3.3669984402e+000,3.3558040937e+000,3.8966677670e+000,3.7735243197e+000,3.4667292175e+000,3.7819481750e+000,2.8010276326e+000,4.1687600241e+000,3.1048774306e+000,3.4563592369e+000,3.6710041237e+000,3.3852621193e+000,
3.0000000000e+000,4.3391670686e+000,4.2255475218e+000,3.2819174126e+000,3.3254425941e+000,3.8642976263e+000,3.7396541964e+000,3.4576960039e+000,3.7624432994e+000,2.7617850191e+000,4.2543146257e+000,3.0955448016e+000,3.4927785296e+000,3.6492194374e+000,3.4449965656e+000,
3.0937500000e+000,4.3421396952e+000,4.3266837143e+000,3.1888071317e+000,3.3811460413e+000,3.9026370723e+000,3.7592333196e+000,3.4174034864e+000,3.7857224060e+000,2.7463531937e+000,4.2526886574e+000,3.0433402795e+000,3.4944997058e+000,3.5409476821e+000,3.3961467388e+000,
3.1875000000e+000,4.3409395061e+000,4.2841927939e+000,3.0865616229e+000,3.3771195279e+000,3.9319994900e+000,3.7388298166e+000,3.4517629133e+000,3.8322969934e+000,2.7964889013e+000,4.1326355106e+000,3.0797572503e+000,3.4325468167e+000,3.5211335618e+000,3.3569114560e+000,
3.2812500000e+000,4.3035584938e+000,4.2153132080e+000,3.0326248547e+000,3.4194344482e+000,3.8692874986e+000,3.6269299845e+000,3.3652519226e+000,3.7532993542e+000,2.7672320461e+000,3.9624007975e+000,2.9031330910e+000,3.3136577600e+000,3.4412358574e+000,3.2294201010e+000,
3.3750000000e+000,4.2042668422e+000,4.2453228548e+000,3.0634739059e+000,3.4082537298e+000,3.7653927278e+000,3.7073971630e+000,3.2732455066e+000,3.7227245232e+000,2.4578653248e+000,3.8833249237e+000,2.7847296855e+000,3.3443325410e+000,3.4101370381e+000,3.2393226762e+000,
3.4687500000e+000,4.4838420456e+000,4.3604101307e+000,3.1989366303e+000,3.4156607336e+000,3.8727926556e+000,3.7168428686e+000,3.3119567730e+000,3.6907596223e+000,2.4002336924e+000,3.7936736400e+000,2.7850436571e+000,3.2232028550e+000,3.5489025988e+000,3.1889208350e+000,
3.5625000000e+000,4.5459436486e+000,4.3292265339e+000,3.1943451212e+000,3.4931837239e+000,3.9088598725e+000,3.7365949296e+000,3.3767026109e+000,3.8210891371e+000,2.5180758404e+000,3.7690549028e+000,2.8433159781e+000,3.3175516477e+000,3.5034751349e+000,3.3178624456e+000,
3.6562500000e+000,4.4873243694e+000,4.2925446469e+000,3.0730559842e+000,3.4939081810e+000,3.7922552272e+000,3.7393826889e+000,3.2595453683e+000,3.8024303215e+000,2.6399616891e+000,3.7919600466e+000,2.8562503156e+000,3.4135112302e+000,3.4803883700e+000,3.3882140344e+000,
3.7500000000e+000,4.6548955818e+000,4.4192804512e+000,3.1453377223e+000,3.6620534444e+000,3.9173923951e+000,3.9932239055e+000,3.3908984251e+000,3.9215041667e+000,2.8577386952e+000,3.8021803737e+000,2.9368350415e+000,3.7263226160e+000,3.7359406298e+000,3.6793566306e+000,
3.8437500000e+000,4.7956061799e+000,4.5763714082e+000,3.3159971441e+000,3.8207826655e+000,4.0679892424e+000,4.1473318777e+000,3.3735786559e+000,4.0234540695e+000,2.8762559341e+000,3.8491501942e+000,2.9203700217e+000,3.8184325244e+000,3.7656677592e+000,3.9752218701e+000,
3.9375000000e+000,4.7976674850e+000,4.5233893467e+000,3.3227877981e+000,3.8059560534e+000,4.0238253137e+000,4.0851557835e+000,3.2975261479e+000,3.9952764734e+000,2.8262946753e+000,3.7535386107e+000,2.9714100355e+000,3.8626488183e+000,3.7380301383e+000,3.9665191873e+000,
4.0312500000e+000,4.9071858260e+000,4.5878549518e+000,3.4434040348e+000,4.0294486672e+000,4.2530183639e+000,4.2375796957e+000,3.6024052807e+000,4.1243570550e+000,2.9049684640e+000,3.6741013198e+000,3.1168227967e+000,3.8611680717e+000,3.8199067710e+000,3.9490021450e+000,
4.1250000000e+000,4.9604716563e+000,4.6185585098e+000,3.4574300363e+000,4.1830980252e+000,4.3578017390e+000,4.4179802739e+000,3.6133753487e+000,4.2737812165e+000,2.9519960626e+000,3.8878219458e+000,3.0551172409e+000,4.0326138586e+000,3.9007448369e+000,3.9532547430e+000,
4.2187500000e+000,4.9979605048e+000,4.7144145277e+000,3.4144406862e+000,4.1712062336e+000,4.3720515378e+000,4.4914499627e+000,3.6199116691e+000,4.2957794666e+000,2.9198474665e+000,3.9948404282e+000,3.1083941251e+000,4.0367327177e+000,3.9369147497e+000,3.9809477711e+000,
4.3125000000e+000,4.9911426574e+000,4.6680249163e+000,3.4394233140e+000,4.1907692240e+000,4.3789383133e+000,4.4964844409e+000,3.6566041033e+000,4.2903857521e+000,2.9880344391e+000,4.0327023836e+000,3.1595709225e+000,4.0012290261e+000,3.8724808654e+000,3.9943847475e+000,
4.4062500000e+000,4.9558784403e+000,4.6199406478e+000,3.4094434715e+000,4.1746043209e+000,4.3154595350e+000,4.4529753892e+000,3.6314894014e+000,4.2258437041e+000,2.9880349560e+000,4.0271683142e+000,3.1876654935e+000,3.9961629767e+000,3.8983987516e+000,4.0079355401e+000,
4.5000000000e+000,4.8483178291e+000,4.5110963515e+000,3.3414769739e+000,4.0724018675e+000,4.2338307305e+000,4.4033078904e+000,3.5001733378e+000,4.1100926380e+000,2.8921198256e+000,3.9773700625e+000,3.2162139147e+000,3.9975606795e+000,3.8584710246e+000,3.9582173826e+000,
4.5937500000e+000,4.7843419929e+000,4.5170147875e+000,3.3133204763e+000,4.0707174980e+000,4.2004463844e+000,4.3815978924e+000,3.4624328703e+000,4.1364263551e+000,2.8424877078e+000,3.9958940298e+000,3.1857614749e+000,4.0056594978e+000,3.8874374520e+000,4.0032161652e+000,
4.6875000000e+000,4.6597535916e+000,4.5215933627e+000,3.3769928398e+000,4.1047571210e+000,4.1720666927e+000,4.3857258927e+000,3.4361074517e+000,4.1478327792e+000,2.7187968450e+000,4.0345160985e+000,3.0748153818e+000,3.9526821865e+000,3.7237739699e+000,3.8817695155e+000,
4.7812500000e+000,4.5202667800e+000,4.3837384084e+000,3.3372758352e+000,3.9528650809e+000,4.0306561149e+000,4.2411195840e+000,3.3333835994e+000,4.0599347035e+000,2.5544785616e+000,4.0643468168e+000,3.1362623072e+000,3.8860953265e+000,3.7186470034e+000,3.7175092978e+000,
4.8750000000e+000,4.3869203110e+000,4.2405095183e+000,3.2622957308e+000,3.8966224415e+000,3.9129630828e+000,4.1499001115e+000,3.3614583814e+000,4.0175120479e+000,2.7289396303e+000,4.0893996381e+000,3.1639852824e+000,3.8598592088e+000,3.7020136029e+000,3.5561312672e+000,
4.9687500000e+000,4.4228039602e+000,4.2427006153e+000,3.4567477254e+000,3.8800855350e+000,3.9102739002e+000,4.0922873483e+000,3.3395257231e+000,4.0085234696e+000,2.7537016197e+000,4.0906303535e+000,3.0122115657e+000,3.8450439603e+000,3.7052826248e+000,3.6293684227e+000,
5.0625000000e+000,4.2704938563e+000,4.1016259429e+000,3.3750657508e+000,3.5319274568e+000,3.6329492895e+000,3.8395124204e+000,2.9365754395e+000,3.7615451829e+000,2.6584445746e+000,4.0829192228e+000,2.9763301289e+000,3.7484650158e+000,3.6428466042e+000,3.7052703077e+000,
5.1562500000e+000,4.1477305314e+000,3.9616123969e+000,3.3500805350e+000,3.3256719286e+000,3.5599252777e+000,3.6961022652e+000,2.9486942610e+000,3.5617004539e+000,2.7870844988e+000,3.9911551849e+000,2.9130847188e+000,3.7276560024e+000,3.5184473340e+000,3.7947263455e+000,
5.2500000000e+000,4.0574845725e+000,3.7469576812e+000,3.3609857947e+000,3.3611979693e+000,3.6767335615e+000,3.5556692804e+000,2.9388798042e+000,3.4745991001e+000,2.8012795829e+000,3.8681164440e+000,2.8452336300e+000,3.6908147072e+000,3.3690387689e+000,3.6796572783e+000,
5.3437500000e+000,4.0424550801e+000,3.9106103538e+000,3.4226056406e+000,3.4592800778e+000,3.6965945344e+000,3.6054919363e+000,2.9505820199e+000,3.6017807738e+000,2.8202773525e+000,3.9608483901e+000,2.9354659793e+000,3.7115884012e+000,3.4342462982e+000,3.7205134927e+000,
5.4375000000e+000,4.0514706156e+000,3.9825866443e+000,3.5483935351e+000,3.5494867556e+000,3.6544057621e+000,3.6262841412e+000,3.0213146484e+000,3.6990751426e+000,2.8697503086e+000,4.0382463821e+000,2.8345430240e+000,3.7232730498e+000,3.2431077510e+000,3.6767095265e+000,
5.5312500000e+000,4.0460938208e+000,3.9799391062e+000,3.5627258268e+000,3.5779454843e+000,3.6535550588e+000,3.6603880280e+000,3.0436473698e+000,3.6850879745e+000,2.8482284905e+000,4.0469080619e+000,2.9128584184e+000,3.6625579899e+000,3.3108528632e+000,3.5784884678e+000,
5.6250000000e+000,4.0984757726e+000,3.9164320279e+000,3.5033829498e+000,3.6093915996e+000,3.7503939028e+000,3.6785496203e+000,3.1295263251e+000,3.6970531998e+000,2.8814198895e+000,4.0830439635e+000,3.0263926611e+000,3.6618988607e+000,3.2712392599e+000,3.6011963286e+000,
5.7187500000e+000,4.1411502537e+000,3.9649145416e+000,3.4594993926e+000,3.6058612485e+000,3.8544633830e+000,3.8329127262e+000,3.2980248170e+000,3.8658298423e+000,3.1645778037e+000,4.1029137496e+000,3.0762796089e+000,3.5594002299e+000,3.1942974720e+000,3.6180942174e+000,
5.8125000000e+000,4.1339091160e+000,3.9744171714e+000,3.4668527495e+000,3.5834994901e+000,3.8429934755e+000,3.8249125114e+000,3.2865296562e+000,3.8726616110e+000,3.2392530114e+000,4.0151725867e+000,3.0971332527e+000,3.4471396109e+000,3.1489829556e+000,3.4781146664e+000,
5.9062500000e+000,4.0620000097e+000,4.1017802919e+000,3.4461954136e+000,3.7396232660e+000,3.8201240734e+000,3.8962389316e+000,3.3783947619e+000,3.9833820677e+000,3.2409894711e+000,4.0556183189e+000,3.1185517043e+000,3.5555782277e+000,3.0480422542e+000,3.5102069650e+000,
6.0000000000e+000,4.0373607159e+000,4.1536643782e+000,3.3350406936e+000,3.9502666292e+000,3.8972410097e+000,4.1027974522e+000,3.4604594006e+000,4.2310743556e+000,3.2781807591e+000,4.1885562553e+000,3.1913869968e+000,3.6756295712e+000,3.1770556972e+000,3.3883968328e+000,
6.0937500000e+000,4.0802857554e+000,4.1677140015e+000,3.3624800903e+000,3.9638346453e+000,3.8457183586e+000,4.1017971409e+000,3.4543007613e+000,4.2476930025e+000,3.2385284687e+000,4.2266744075e+000,3.2907294261e+000,3.5988938614e+000,3.2902747258e+000,3.2759356749e+000,
6.1875000000e+000,4.0691670534e+000,4.1325561601e+000,3.4296506655e+000,3.9554816529e+000,3.7439747503e+000,4.1281431697e+000,3.4680890115e+000,4.2604175239e+000,3.1484507724e+000,4.3389465280e+000,3.3653995017e+000,3.6520110289e+000,3.3075635702e+000,3.1756197767e+000,
6.2812500000e+000,4.1480135061e+000,4.1106354311e+000,3.4215965490e+000,3.8819557472e+000,3.6484956146e+000,4.1286635055e+000,3.3435415164e+000,4.2098066270e+000,3.1225629696e+000,4.3645232367e+000,3.3161002386e+000,3.7675186212e+000,3.3057197932e+000,3.1443668324e+000,
6.3750000000e+000,4.3675669080e+000,4.1250973150e+000,3.4092865998e+000,3.9118201815e+000,3.6680566516e+000,4.1260054407e+000,3.3144347872e+000,4.2501060107e+000,3.1216084784e+000,4.3525147611e+000,3.3550209301e+000,3.7702915603e+000,3.3268242151e+000,3.1581627248e+000,
6.4687500000e+000,4.3953296357e+000,4.2265037109e+000,3.3458858672e+000,3.9070426546e+000,3.7509193419e+000,4.1264903331e+000,3.2750698356e+000,4.2337491227e+000,3.0793354832e+000,4.3380802678e+000,3.3805248565e+000,3.7362063722e+000,3.4311469890e+000,3.1553393548e+000,
6.5625000000e+000,4.3535747882e+000,4.2731504398e+000,3.3807887045e+000,3.8687904543e+000,3.6784362581e+000,4.1203331366e+000,3.1803138080e+000,4.2239883945e+000,3.0364486528e+000,4.3484481152e+000,3.3386958759e+000,3.7825428136e+000,3.3472664175e+000,3.1292736856e+000,
6.6562500000e+000,4.3842824514e+000,4.4020115871e+000,3.4523896968e+000,3.8458607539e+000,3.7225831375e+000,4.1609362946e+000,3.2203755373e+000,4.2189608412e+000,2.9559951006e+000,4.3856498407e+000,3.4638448013e+000,3.8243514283e+000,3.4733610829e+000,3.2648904468e+000,
6.7500000000e+000,4.3412988163e+000,4.3661010229e+000,3.4971069910e+000,3.7943153476e+000,3.5802546282e+000,3.9779248668e+000,2.9814792227e+000,4.0100248238e+000,2.7056977139e+000,4.3681042350e+000,3.7207534348e+000,4.0958569218e+000,3.5021737050e+000,3.2533207040e+000,
6.8437500000e+000,4.3752434951e+000,4.4371749635e+000,3.5484689738e+000,3.7973945916e+000,3.6837854130e+000,4.0217042103e+000,3.0261596058e+000,4.0701125196e+000,2.6644467783e+000,4.3917111769e+000,3.7810052922e+000,4.2522872498e+000,3.4906732464e+000,3.4264213457e+000,
6.9375000000e+000,4.3903919333e+000,4.3180612440e+000,3.5346757194e+000,3.3706741260e+000,3.7723642124e+000,3.8126518907e+000,2.8782193600e+000,3.7714417787e+000,2.6743270364e+000,4.3498761748e+000,3.7817124289e+000,4.1719753310e+000,3.5231978515e+000,3.4606733669e+000,
7.0312500000e+000,4.4474368662e+000,4.3191698554e+000,3.4974724391e+000,3.4579788902e+000,3.9018462338e+000,3.8887712204e+000,2.9573004846e+000,3.8870058952e+000,2.7137647954e+000,4.3959641005e+000,3.7277963015e+000,4.2572747619e+000,3.3758798549e+000,3.4553738457e+000,
7.1250000000e+000,4.3504010450e+000,4.3649983307e+000,3.5108563318e+000,3.4613883205e+000,4.0481570238e+000,3.8651249577e+000,3.0637281902e+000,4.0118731263e+000,2.8448504485e+000,4.4271057767e+000,3.6472217624e+000,4.3605977874e+000,3.3931169737e+000,3.5883957640e+000,
7.2187500000e+000,4.3909123045e+000,4.4136535036e+000,3.4573874629e+000,3.5874895943e+000,4.2884941119e+000,3.9220949374e+000,3.1951301770e+000,4.0478329864e+000,2.9684544197e+000,4.4264363847e+000,3.7031438667e+000,4.3189316268e+000,3.4534111851e+000,3.6756830711e+000,
7.3125000000e+000,4.3675208109e+000,4.4111004427e+000,3.4912620675e+000,3.6390927201e+000,4.4235426270e+000,3.9411669119e+000,3.3280877207e+000,4.0934571741e+000,3.0208624879e+000,4.4901902315e+000,3.7724942667e+000,4.3292675914e+000,3.4949198529e+000,3.7822213777e+000,
7.4062500000e+000,4.1701744666e+000,4.3658286568e+000,3.3989576203e+000,3.5761378875e+000,4.3818808044e+000,3.9466088117e+000,3.3642328028e+000,4.0897439840e+000,3.0213346525e+000,4.5546234159e+000,3.8660922030e+000,4.3985173424e+000,3.5546445329e+000,3.8303198303e+000,
7.5000000000e+000,4.1719743823e+000,4.3143354953e+000,3.3701806427e+000,3.5706591352e+000,4.4257086776e+000,3.9709388814e+000,3.3762817378e+000,4.1020326281e+000,3.2176528976e+000,4.6050035600e+000,3.9332163748e+000,4.4285116437e+000,3.4536232491e+000,3.8883384555e+000,
7.5937500000e+000,4.1704233141e+000,4.2485796837e+000,3.3819444884e+000,3.5626515620e+000,4.4753146762e+000,4.0233954409e+000,3.3650507055e+000,4.0881250368e+000,3.2556133242e+000,4.6423746898e+000,3.8952596196e+000,4.4519941461e+000,3.4647476595e+000,3.8587441273e+000,
7.6875000000e+000,4.2704894481e+000,4.2064548398e+000,3.4375814566e+000,3.5990755624e+000,4.4999478271e+000,4.0476933506e+000,3.4831466282e+000,4.1178729114e+000,3.2716009050e+000,4.7554772753e+000,3.7641147686e+000,4.3699258965e+000,3.4205296904e+000,3.8185175453e+000,
7.7812500000e+000,4.3204582362e+000,4.1846809713e+000,3.3804321482e+000,3.5828279441e+000,4.4972884871e+000,4.1049734953e+000,3.5006137965e+000,4.1309080417e+000,3.2006336266e+000,4.7003691893e+000,3.5618257371e+000,4.2345412924e+000,3.4211329606e+000,3.7993966119e+000,
7.8750000000e+000,4.2365431702e+000,4.1392198400e+000,3.2200242404e+000,3.5799458749e+000,4.4629828505e+000,4.0612745532e+000,3.4350197398e+000,4.0551945962e+000,3.0997881831e+000,4.7027935805e+000,3.5813780162e+000,4.1526775924e+000,3.4852253783e+000,3.6195674077e+000,
7.9687500000e+000,4.2377307653e+000,4.2473370768e+000,3.2270808364e+000,3.6080947821e+000,4.4981964592e+000,4.0142669653e+000,3.4637884188e+000,4.0062405779e+000,3.1439024243e+000,4.6896452226e+000,3.9701224647e+000,4.3722754604e+000,3.7492127454e+000,4.2975162770e+000,
8.0625000000e+000,4.2991112788e+000,4.3857755306e+000,3.2938809885e+000,3.6086044795e+000,4.7050312833e+000,4.1088227091e+000,3.5168997797e+000,4.0880072124e+000,3.0301051792e+000,4.7165706911e+000,4.1925556532e+000,4.3608878161e+000,3.7912190447e+000,4.2959616235e+000,
8.1562500000e+000,4.3969758210e+000,4.5998656758e+000,3.3348240344e+000,3.5906705472e+000,4.5924699893e+000,4.1840083412e+000,3.5106966935e+000,4.0994867188e+000,2.9347453915e+000,4.8286146082e+000,4.2611670035e+000,4.4821064496e+000,3.7412953077e+000,4.3744967049e+000,
8.2500000000e+000,4.3403381716e+000,4.6934734104e+000,3.3250691340e+000,3.5745191323e+000,4.5085060412e+000,4.1086041642e+000,3.4467384838e+000,4.0313715238e+000,2.9380456819e+000,4.8319971243e+000,4.2389619867e+000,4.5293886138e+000,3.7621816908e+000,4.3962335069e+000,
8.3437500000e+000,4.4890618290e+000,4.7781835948e+000,3.4813567290e+000,3.6803830890e+000,6.0047355066e+000,4.3425687304e+000,4.3667755359e+000,4.3822273682e+000,3.3556541457e+000,5.0472874295e+000,4.2459097020e+000,4.4597984051e+000,3.7883133192e+000,4.3419827309e+000,
8.4375000000e+000,4.6767175932e+000,5.0009950248e+000,3.5154151508e+000,3.7435332183e+000,6.2584193054e+000,4.4534141591e+000,4.5707210016e+000,4.4967097649e+000,3.3719042634e+000,5.0663702564e+000,4.2004654788e+000,4.5092794094e+000,3.8002370593e+000,4.3649869781e+000,
8.5312500000e+000,4.8491507744e+000,5.3446728263e+000,3.4669586105e+000,3.7853582915e+000,6.3079093579e+000,4.4800497588e+000,4.9099393076e+000,4.5512508036e+000,3.5866449430e+000,5.0451749751e+000,4.2656514931e+000,4.5034705332e+000,3.8976118612e+000,4.3805982263e+000,
8.6250000000e+000,4.9450985188e+000,5.4108454449e+000,3.7833034345e+000,3.7980386508e+000,6.3139831512e+000,4.4996246965e+000,4.9184787011e+000,4.6472264716e+000,3.5480379165e+000,5.0154919827e+000,4.3106468394e+000,4.4830710005e+000,3.9087526054e+000,4.3776598823e+000,
8.7187500000e+000,4.9856657699e+000,5.5468398083e+000,3.7697962856e+000,3.7779876608e+000,6.3540417363e+000,4.4679171939e+000,4.9819254032e+000,4.6312352026e+000,3.5756037231e+000,4.9640145527e+000,4.3574199632e+000,4.5119098813e+000,3.8978648487e+000,4.4337748770e+000,
8.8125000000e+000,5.2292354126e+000,5.6066294802e+000,3.7973199404e+000,3.8476056664e+000,6.3684412012e+000,4.4860078353e+000,4.9861414274e+000,4.6637545150e+000,3.5699832905e+000,5.0314204122e+000,4.4309566459e+000,4.5647487987e+000,3.9575121902e+000,4.5212899392e+000,
8.9062500000e+000,5.5662764421e+000,5.7052681097e+000,3.8390198127e+000,3.9546246360e+000,6.5281202606e+000,4.5779659376e+000,5.0866462636e+000,4.7081457722e+000,3.7689711793e+000,5.1287617676e+000,4.5591276051e+000,4.5606934755e+000,4.0951411322e+000,4.5147020692e+000,
9.0000000000e+000,5.6419952970e+000,5.7112027806e+000,3.8151319912e+000,3.9340162334e+000,6.4960895192e+000,4.6410747262e+000,5.0567359263e+000,4.7050572450e+000,3.8057322035e+000,5.2612512293e+000,4.4177443965e+000,4.3766818918e+000,3.9576019600e+000,4.1277622090e+000,
9.0937500000e+000,5.6798941094e+000,5.6495689695e+000,3.8186571222e+000,3.9090536815e+000,6.4816294683e+000,4.5913670948e+000,5.0404050934e+000,4.5855245469e+000,3.8293336963e+000,5.2541516996e+000,4.2872803049e+000,4.2940695515e+000,3.9782417024e+000,4.1009776687e+000,
9.1875000000e+000,5.6779561719e+000,5.6614837258e+000,3.8331837231e+000,3.9297759849e+000,6.4840935782e+000,4.5511847729e+000,5.0393229467e+000,4.5346525541e+000,3.8343091101e+000,5.1309005559e+000,4.2761746093e+000,4.1552463586e+000,4.0216786932e+000,4.0445092784e+000,
9.2812500000e+000,5.7213963997e+000,5.6863359882e+000,3.8232974293e+000,4.0040603543e+000,6.4828170245e+000,4.5584228807e+000,5.0134318097e+000,4.5239814696e+000,3.7755202161e+000,5.1080680105e+000,4.3539615271e+000,4.1599243862e+000,4.0345164506e+000,4.0768507387e+000,
9.3750000000e+000,5.6766168009e+000,5.6319468856e+000,3.7135523815e+000,3.8841329937e+000,5.5645493441e+000,4.3586434226e+000,4.4966008513e+000,4.2189588822e+000,3.5788761540e+000,4.9205597752e+000,4.3512137042e+000,4.1030590875e+000,4.0314664263e+000,4.1732632172e+000,
9.4687500000e+000,5.7566906669e+000,5.6005027190e+000,3.7747437143e+000,3.9029378294e+000,5.5018684406e+000,4.3040270263e+000,4.5102551892e+000,4.2681129498e+000,3.5788361614e+000,4.9418015012e+000,4.3965165454e+000,4.1531895768e+000,4.1850020088e+000,4.0930531432e+000,
9.5625000000e+000,5.7003529827e+000,5.3760183957e+000,3.7664606144e+000,3.8416909413e+000,5.4933439465e+000,4.2485393348e+000,3.9669861283e+000,4.2393128915e+000,3.3265356460e+000,4.9374267446e+000,4.3549922196e+000,4.1243743149e+000,4.1608492630e+000,4.2456397823e+000,
9.6562500000e+000,5.6619413895e+000,5.2799560486e+000,3.3301759575e+000,3.8150340731e+000,5.4530262718e+000,4.1697624370e+000,3.7261686419e+000,4.1443586902e+000,3.3680105585e+000,4.9260414401e+000,4.2902807819e+000,4.1017204495e+000,4.1118172006e+000,4.2895389355e+000,
9.7500000000e+000,5.6331767706e+000,5.1699992474e+000,3.3369156385e+000,4.2251948484e+000,5.4179360828e+000,4.2155074779e+000,3.7629985061e+000,4.2530988047e+000,3.3448600646e+000,4.9599001564e+000,4.2747811345e+000,4.0657818897e+000,4.1084653736e+000,4.2627308706e+000,
9.8437500000e+000,5.4185109695e+000,4.9620569747e+000,3.3808243350e+000,5.4307729421e+000,5.3133038699e+000,4.2109619536e+000,3.7485513985e+000,4.2741291798e+000,3.3172480292e+000,4.9438170984e+000,4.2290164916e+000,4.0548797380e+000,4.1072608097e+000,4.1971846696e+000,
9.9375000000e+000,5.3356301371e+000,4.9522861291e+000,3.7244281158e+000,5.4476895844e+000,4.8724301049e+000,4.1629869087e+000,3.4572362457e+000,4.2737551653e+000,3.0663287441e+000,5.0763180282e+000,4.2144656205e+000,4.0915079590e+000,4.1221774060e+000,4.2291362239e+000,
1.0031250000e+001,5.2874267840e+000,4.9547388244e+000,3.7404415598e+000,5.4394119333e+000,4.8888193574e+000,3.9937318112e+000,3.4892581264e+000,4.2493855933e+000,3.1103270128e+000,5.1918148531e+000,4.0612888942e+000,3.9957816672e+000,4.1289133617e+000,4.2277118816e+000,
1.0125000000e+001,5.2786439867e+000,4.9503868920e+000,3.7909642390e+000,5.4431965337e+000,4.9472874361e+000,4.0739636843e+000,3.5383861398e+000,4.3322844251e+000,3.1576704282e+000,5.1937245244e+000,4.0585638665e+000,3.9633155278e+000,4.0701678234e+000,4.2441201801e+000,
1.0218750000e+001,5.2646313144e+000,4.9137438653e+000,3.7877898293e+000,5.4331368935e+000,4.9631873171e+000,4.2243337246e+000,3.4841582080e+000,4.4430442765e+000,3.2404137001e+000,5.1971413635e+000,4.1047716643e+000,4.0057490185e+000,4.0831071506e+000,4.2038748626e+000,
1.0312500000e+001,5.1811555045e+000,4.6800231343e+000,3.8103336685e+000,5.4232373801e+000,4.9565617879e+000,4.2444849678e+000,3.6131323961e+000,4.4603849807e+000,3.2456286260e+000,5.1841179506e+000,3.9696107481e+000,3.9491091425e+000,4.0852058716e+000,4.1146591735e+000,
1.0406250000e+001,5.0123534183e+000,4.6957506305e+000,3.7755810207e+000,5.4239442097e+000,4.8881353098e+000,4.2424028200e+000,3.5150186771e+000,4.4049376196e+000,3.2520075183e+000,5.1294241090e+000,3.9092701462e+000,3.9319716472e+000,3.9289919313e+000,4.1132327695e+000,
1.0500000000e+001,5.0411215252e+000,4.7634015411e+000,3.7809965306e+000,5.4322269074e+000,4.7096951872e+000,4.3208460025e+000,3.5393723599e+000,4.4028078099e+000,3.2374392671e+000,5.1332907959e+000,3.7950361934e+000,3.9137988719e+000,3.7292936654e+000,4.0960745761e+000,
1.0593750000e+001,5.0420205826e+000,4.7716373909e+000,3.8012529106e+000,5.4289587178e+000,4.6176376293e+000,4.3975013656e+000,3.5092326472e+000,4.3959528816e+000,3.2307601767e+000,5.1572854613e+000,3.7273925034e+000,3.9804647651e+000,3.7434840527e+000,3.9751922695e+000,
1.0687500000e+001,5.0371776260e+000,4.6900160847e+000,3.7854631921e+000,5.4246628781e+000,4.5634032937e+000,4.3430197745e+000,3.5039033252e+000,4.2592996924e+000,3.1606630858e+000,5.1135843706e+000,3.7470056906e+000,3.9655220540e+000,3.8092913814e+000,3.8912126546e+000,
1.0781250000e+001,5.0079452392e+000,4.6629586564e+000,3.7787514920e+000,4.6054431610e+000,4.4877023011e+000,4.3266952281e+000,3.4578281727e+000,4.1815672247e+000,3.1831852562e+000,5.0426965425e+000,3.7892126228e+000,3.9002126511e+000,3.8353213151e+000,3.8159404546e+000,
1.0875000000e+001,4.9403811640e+000,4.6110790452e+000,3.7313646732e+000,3.7056252747e+000,4.4146697510e+000,4.3468935935e+000,3.4772187634e+000,4.1967596132e+000,3.2755284738e+000,5.0281458820e+000,3.5089480952e+000,3.7970879426e+000,3.5938117429e+000,3.7605474979e+000,
1.0968750000e+001,4.7117779443e+000,4.6295088591e+000,3.3875983008e+000,3.4810966742e+000,4.2850722043e+000,4.2192432556e+000,3.3926364641e+000,4.0991920946e+000,3.2313180724e+000,4.3202822224e+000,3.3146574903e+000,3.7644432278e+000,3.3704985537e+000,3.6601036545e+000,
1.1062500000e+001,4.5672869892e+000,4.4880637046e+000,3.3553762510e+000,3.4915351168e+000,4.2317306869e+000,4.2312088896e+000,3.4021282727e+000,4.1422757070e+000,3.0041182236e+000,4.1838216716e+000,3.3646692050e+000,3.7896257827e+000,3.3599090420e+000,3.6093050376e+000,
1.1156250000e+001,4.4474579966e+000,4.3841072139e+000,3.2864589626e+000,3.3492358107e+000,4.0841018427e+000,4.0714403480e+000,3.3383359803e+000,3.9722531017e+000,2.9583681219e+000,4.0889833529e+000,3.3471424943e+000,3.7570031608e+000,3.3742386357e+000,3.5706091312e+000,
1.1250000000e+001,4.5037299103e+000,4.4189443550e+000,3.1265875271e+000,3.2789065034e+000,3.9191535813e+000,3.9289153542e+000,3.1848837859e+000,3.7833423643e+000,2.9354499707e+000,4.0454697844e+000,3.1593130625e+000,3.7086852005e+000,3.3075350436e+000,3.5208228356e+000,
1.1343750000e+001,4.4961885651e+000,4.5312123461e+000,3.1794492178e+000,3.2544282063e+000,3.8357229104e+000,3.9628383704e+000,3.1761188503e+000,3.7566257263e+000,2.9078786617e+000,4.0617731118e+000,3.1696024110e+000,3.7265151431e+000,3.3006267982e+000,3.5402740841e+000,
1.1437500000e+001,4.5145348359e+000,4.4353653612e+000,3.1233594294e+000,3.2189295925e+000,3.7816960623e+000,3.8567626407e+000,3.1734961712e+000,3.7362180227e+000,2.7373315979e+000,4.0407568099e+000,3.2330232355e+000,3.6694590170e+000,3.3781366223e+000,3.5140167549e+000,
1.1531250000e+001,4.3889422799e+000,4.3621587276e+000,3.0976333845e+000,3.1073989481e+000,3.5916742595e+000,3.8075517702e+000,3.1038811881e+000,3.6874047876e+000,2.6615945183e+000,3.9471155035e+000,3.3434838645e+000,3.6576007755e+000,3.4554812931e+000,3.6725051086e+000,
1.1625000000e+001,4.4118345006e+000,4.3409001574e+000,3.1020672283e+000,3.1354812176e+000,3.6205186987e+000,3.7459805352e+000,3.0576086013e+000,3.6474165491e+000,2.6840308095e+000,3.8099879380e+000,3.3023094871e+000,3.4473975616e+000,3.4288942214e+000,3.6529533748e+000,
1.1718750000e+001,4.5055970615e+000,4.4960193130e+000,3.1730705823e+000,3.2485017353e+000,3.7769053924e+000,3.9206826503e+000,3.2420319236e+000,3.7594664959e+000,2.6861434837e+000,3.8019948659e+000,3.6370137746e+000,3.4337744342e+000,3.8453778795e+000,3.7646768230e+000,
1.1812500000e+001,4.5272984235e+000,4.5155245202e+000,3.2379536440e+000,3.2796805716e+000,3.7476911687e+000,3.9263772961e+000,3.2770777856e+000,3.7675286137e+000,2.6417040296e+000,3.8402077179e+000,3.6596118476e+000,3.6305884202e+000,3.8724570365e+000,3.9760936020e+000,
1.1906250000e+001,4.5761437046e+000,4.6733660041e+000,3.2623961670e+000,3.3171812818e+000,3.6991104920e+000,3.9492937243e+000,3.2343352675e+000,3.7803983120e+000,2.4902761999e+000,3.7937152773e+000,3.6118675524e+000,3.6325420556e+000,3.8839067123e+000,4.0559207341e+000,
1.2000000000e+001,4.5638523681e+000,4.5939000939e+000,3.1973987724e+000,3.3040542174e+000,3.7382694363e+000,3.9653557839e+000,3.1761484505e+000,3.7867092157e+000,2.5315605086e+000,3.8554151130e+000,3.6298248570e+000,3.6260579189e+000,3.9311998130e+000,4.0778872264e+000,
1.2093750000e+001,4.6755160147e+000,4.5287018029e+000,3.2255467522e+000,3.2669937227e+000,3.6875684208e+000,3.9691960863e+000,3.2285435004e+000,3.7227305491e+000,2.6580659777e+000,3.9169143159e+000,3.6802934517e+000,3.7461479648e+000,3.9539379374e+000,4.1012913978e+000,
1.2187500000e+001,4.7353740531e+000,4.5398629155e+000,3.4015542318e+000,3.3678810861e+000,3.6811137990e+000,4.0269421913e+000,3.2843005313e+000,3.8198887811e+000,2.6514040056e+000,3.9946751425e+000,3.7222464771e+000,3.8021985023e+000,3.9996409123e+000,4.1321305162e+000,
1.2281250000e+001,4.7688015088e+000,4.4515385477e+000,3.5031015884e+000,3.4105528923e+000,3.6246808992e+000,4.0923036533e+000,3.2797830184e+000,3.8602389567e+000,2.6086310754e+000,4.0186485938e+000,3.7728161554e+000,3.8479294968e+000,4.1005528535e+000,4.1572444479e+000,
1.2375000000e+001,4.8004832441e+000,4.4622812056e+000,3.4902969508e+000,3.4715118242e+000,3.6332167922e+000,4.1374510307e+000,3.2412883678e+000,3.8909035164e+000,2.7216631709e+000,4.0631684046e+000,3.7287237063e+000,3.8979594960e+000,4.1159823708e+000,4.2309255399e+000,
1.2468750000e+001,4.7463466433e+000,4.4307949524e+000,3.5328561236e+000,3.4611381419e+000,3.6744498183e+000,4.1167174712e+000,3.3236382943e+000,3.8282490622e+000,2.8424562626e+000,4.0279510566e+000,3.7025572121e+000,3.8368100488e+000,4.1020999930e+000,4.2047645996e+000,
1.2562500000e+001,4.7997574223e+000,4.4123086371e+000,3.5509061483e+000,3.4781989863e+000,3.7200022387e+000,4.1203517599e+000,3.3841912691e+000,3.8212538936e+000,2.9647833838e+000,4.0153910732e+000,3.6575176983e+000,3.8671094521e+000,4.0539588704e+000,4.1589189498e+000,
1.2656250000e+001,4.7089139802e+000,4.4143694614e+000,3.4825466252e+000,3.3741102803e+000,3.5162415437e+000,4.0535502166e+000,3.2829117527e+000,3.7590754223e+000,2.9584815746e+000,4.0612057041e+000,3.5542238127e+000,3.8779813403e+000,3.9319955468e+000,4.1354406588e+000,
1.2750000000e+001,4.6620837475e+000,4.3477600984e+000,3.4942320088e+000,3.4017565601e+000,3.4549786706e+000,3.9343873416e+000,3.1509313121e+000,3.6197237783e+000,2.9368662789e+000,4.0035004639e+000,3.2233220445e+000,3.7685728781e+000,3.6161876590e+000,3.9155386356e+000,
1.2843750000e+001,4.7113651322e+000,4.2963444109e+000,3.5100942646e+000,3.4281531713e+000,3.4856703241e+000,3.9742466460e+000,3.1437231337e+000,3.6856108421e+000,2.8561419837e+000,4.0588004075e+000,3.2060317537e+000,3.7879469926e+000,3.6386656628e+000,3.9082240033e+000,
1.2937500000e+001,4.6562294740e+000,4.3702698281e+000,3.5259111460e+000,3.4654025591e+000,3.3898191225e+000,4.0346908850e+000,3.0572174066e+000,3.7743564457e+000,2.8528471011e+000,4.1159689672e+000,3.1340877105e+000,3.7986312525e+000,3.5664251194e+000,3.8342918934e+000,
1.3031250000e+001,4.5989578632e+000,4.3733587001e+000,3.5047465378e+000,3.4479333902e+000,3.3697683076e+000,4.0231885470e+000,3.0784715962e+000,3.7126708273e+000,2.7810966837e+000,3.9878330150e+000,3.0212956132e+000,3.6291725814e+000,3.4908416748e+000,3.7430793538e+000,
1.3125000000e+001,4.4941754308e+000,4.3748261141e+000,3.5243658309e+000,3.5258667237e+000,3.4876003422e+000,4.0439402235e+000,3.1389992519e+000,3.8125212732e+000,2.8254000321e+000,4.0181828470e+000,3.2128019499e+000,3.6084059209e+000,3.5335697493e+000,3.7324622619e+000,
1.3218750000e+001,4.5344283662e+000,4.5000899610e+000,3.4064628234e+000,3.5901674742e+000,3.6365928165e+000,4.1848757027e+000,3.2425812101e+000,4.0061355724e+000,3.0200837858e+000,4.1494577247e+000,3.0731129036e+000,3.7015079721e+000,3.4421639049e+000,3.8009751740e+000,
1.3312500000e+001,4.4088699843e+000,4.4298507833e+000,3.3448345000e+000,3.5043333039e+000,3.6774098959e+000,4.0897736889e+000,3.2311711600e+000,4.0031134223e+000,3.0195391910e+000,4.1501594962e+000,3.0417142023e+000,3.7439791743e+000,3.4053953625e+000,3.7666856231e+000,
1.3406250000e+001,4.3981730352e+000,4.4132921331e+000,3.3377163959e+000,3.4907770355e+000,3.7100255566e+000,4.0568273338e+000,3.1680917539e+000,3.9836231002e+000,2.9474715738e+000,4.0289948205e+000,3.0270059925e+000,3.7895136367e+000,3.4193535584e+000,3.7620696351e+000,
1.3500000000e+001,4.3916404330e+000,4.4707479450e+000,3.3998006981e+000,3.6014676536e+000,3.8236908750e+000,4.0257151201e+000,3.2001548553e+000,4.1138576729e+000,2.9405280895e+000,4.0799137240e+000,3.2246769200e+000,3.9221498795e+000,3.5967158160e+000,3.7953038685e+000,
1.3593750000e+001,4.2965562883e+000,4.5003090875e+000,3.4312102621e+000,3.6199393471e+000,3.8583992003e+000,4.0214537457e+000,3.2752384924e+000,4.1535203135e+000,2.9456923284e+000,4.0820671362e+000,3.2888437532e+000,3.9595916392e+000,3.6185784397e+000,3.7922369173e+000,
1.3687500000e+001,4.3792877771e+000,4.5181031523e+000,3.4810371882e+000,3.6139027298e+000,4.0115911520e+000,4.1220399902e+000,3.4187432168e+000,4.2379071470e+000,3.0721576714e+000,4.1735592483e+000,3.2561002303e+000,3.9679937272e+000,3.5886046080e+000,3.8600454423e+000,
1.3781250000e+001,4.3780455466e+000,4.4800363847e+000,3.5020575389e+000,3.5639207029e+000,4.0612160919e+000,4.1040094534e+000,3.4593555657e+000,4.2481612910e+000,3.0696808071e+000,4.1563584293e+000,3.3842124840e+000,3.9760483242e+000,3.6018636140e+000,3.9549427088e+000,
1.3875000000e+001,4.5012105930e+000,4.4095456304e+000,3.5050972713e+000,3.6672019640e+000,4.1216080733e+000,4.1629509944e+000,3.5717772955e+000,4.3758627825e+000,3.1234571622e+000,4.1904111703e+000,3.5602362416e+000,3.9508292930e+000,3.8235831268e+000,3.9445755578e+000,
1.3968750000e+001,4.5281881967e+000,4.3290836339e+000,3.4803532119e+000,3.6360212029e+000,4.1392699749e+000,4.1103745560e+000,3.5946050191e+000,4.3108501373e+000,3.1572961732e+000,4.1648680147e+000,3.6079519022e+000,3.9564933760e+000,3.8960482844e+000,3.9728313148e+000,
1.4062500000e+001,4.4997142582e+000,4.3421396040e+000,3.4888296613e+000,3.7080961831e+000,4.1315575039e+000,4.0832382959e+000,3.5766053371e+000,4.3130591712e+000,3.1282724486e+000,4.2041729680e+000,3.7193324723e+000,3.9672610714e+000,3.9533763939e+000,3.9830772400e+000,
1.4156250000e+001,4.6456124345e+000,4.4252942238e+000,3.4874189290e+000,3.6983434378e+000,4.1113658565e+000,4.1578666976e+000,3.5151853708e+000,4.2847034680e+000,3.0747676751e+000,4.1260436578e+000,3.5742859052e+000,3.9881731762e+000,3.8134568993e+000,3.9236428896e+000,
1.4250000000e+001,4.5910265034e+000,4.3352119788e+000,3.4743461784e+000,3.6493687341e+000,3.9828832309e+000,3.9478337565e+000,3.3722357737e+000,4.0937969436e+000,2.8098962872e+000,3.9684230585e+000,3.5686663702e+000,3.8851557106e+000,3.8929889215e+000,3.9239510675e+000,
1.4343750000e+001,4.5536139227e+000,4.2982484720e+000,3.5016454662e+000,3.6467720010e+000,4.0011353099e+000,3.9409338549e+000,3.5368950027e+000,4.0528876153e+000,2.7532698940e+000,3.9273232061e+000,3.5723696798e+000,3.8988522440e+000,3.8883054641e+000,3.8874057353e+000,
1.4437500000e+001,4.5736696905e+000,4.3862658464e+000,3.6459188164e+000,3.6920985030e+000,4.0104991073e+000,4.0540980886e+000,3.6337418576e+000,4.1392752036e+000,2.7844660418e+000,3.9807866260e+000,3.5552290876e+000,3.8605977121e+000,3.8854031980e+000,3.7912363849e+000,
1.4531250000e+001,4.5459304474e+000,4.4087843084e+000,3.6380722211e+000,3.6771943355e+000,3.9809049016e+000,4.1242867379e+000,3.6341943366e+000,4.1488783451e+000,2.9294879494e+000,3.9556224945e+000,3.5811080749e+000,3.7774588041e+000,3.8708114829e+000,3.7959354843e+000,
1.4625000000e+001,4.6102951173e+000,4.5538744795e+000,3.9899541475e+000,3.7116550961e+000,3.9371060342e+000,4.1106883549e+000,3.5602062815e+000,4.1595925548e+000,2.8778074999e+000,3.9669046246e+000,3.6530907595e+000,3.8276942326e+000,3.9452703568e+000,3.8841835715e+000,
1.4718750000e+001,4.6023211937e+000,4.6596073673e+000,4.0054165204e+000,3.7865043055e+000,3.7603464178e+000,4.1762264947e+000,3.5292023313e+000,4.2255568894e+000,2.8837595633e+000,4.0545110796e+000,3.7343429257e+000,3.8772445140e+000,3.9827410624e+000,3.8464658956e+000,
1.4812500000e+001,4.5020536115e+000,4.6345480485e+000,3.9597302011e+000,3.7975269322e+000,3.6635232564e+000,4.2003859940e+000,3.4159804625e+000,4.1896149161e+000,2.8662419226e+000,4.1402931946e+000,3.6328914748e+000,3.8864407909e+000,3.9375598544e+000,3.7494024104e+000,
1.4906250000e+001,4.4571294859e+000,4.6197671625e+000,3.9720299257e+000,3.7191108472e+000,3.6928186196e+000,4.1746539999e+000,3.4032434656e+000,4.0805042235e+000,2.8245221410e+000,4.0735139797e+000,3.5376106052e+000,3.8449972047e+000,3.7915738337e+000,3.6802397212e+000,
1.5000000000e+001,4.4324847543e+000,4.6217750536e+000,3.9705508873e+000,3.6403098457e+000,3.7468354337e+000,4.1583755066e+000,3.3904142614e+000,4.0853614889e+000,2.9372599193e+000,4.0602386402e+000,3.4899702011e+000,3.8010383793e+000,3.8158011246e+000,3.7226540732e+000,
1.5093750000e+001,4.3266807857e+000,4.6081510807e+000,3.9636630043e+000,3.5606416743e+000,3.7674139088e+000,4.1860386138e+000,3.4104269517e+000,4.1452189566e+000,2.9421901959e+000,4.1354584712e+000,3.3952661857e+000,3.8695301353e+000,3.8313356004e+000,3.8838531190e+000,
1.5187500000e+001,4.1327719818e+000,4.5165449915e+000,3.9194742753e+000,3.4444811713e+000,3.8213126941e+000,4.1212264098e+000,3.4994712018e+000,4.0934381040e+000,2.9711455451e+000,4.1417207470e+000,3.3742032720e+000,3.8766618092e+000,3.8736679074e+000,3.9288418373e+000,
1.5281250000e+001,4.1949868527e+000,4.4408923688e+000,3.8708052288e+000,3.4280518065e+000,3.8102081396e+000,4.0698195665e+000,3.4112418701e+000,4.0759819789e+000,2.9662621369e+000,4.1544324396e+000,3.3527849585e+000,3.8014883564e+000,3.7784631484e+000,3.9016859432e+000,
1.5375000000e+001,4.2120783488e+000,4.4805322367e+000,3.8783732234e+000,3.4278704236e+000,3.8046792217e+000,4.0650539214e+000,3.3029926193e+000,4.0723782527e+000,2.9697003866e+000,4.1406129004e+000,3.3387382459e+000,3.7817014419e+000,3.6671083855e+000,3.8489325536e+000,
1.5468750000e+001,4.2329126348e+000,4.3947194660e+000,3.7030712330e+000,3.4000500742e+000,3.7452262993e+000,3.9255175241e+000,3.1653139420e+000,3.9485425112e+000,2.8737782105e+000,4.1254008760e+000,3.2910002319e+000,3.7239513737e+000,3.6084743365e+000,3.7989782434e+000,
1.5562500000e+001,4.2206409214e+000,4.3074149429e+000,3.4880568696e+000,3.4497726523e+000,3.6525390598e+000,3.8588914159e+000,3.0640002885e+000,3.9538934941e+000,2.6007991056e+000,4.1462132819e+000,3.0582883616e+000,3.6784341736e+000,3.5317123017e+000,3.7420268803e+000,
1.5656250000e+001,4.0829768935e+000,3.9539250418e+000,2.8681748223e+000,3.2977511378e+000,3.5691609140e+000,3.7502577883e+000,2.9346764816e+000,3.7743985353e+000,2.5618687774e+000,4.1750159901e+000,3.0367967910e+000,3.6411055608e+000,3.5803167316e+000,3.6990989896e+000,
1.5750000000e+001,4.1362571281e+000,3.9882845367e+000,2.9447245504e+000,3.2750227434e+000,3.5927627278e+000,3.7322162424e+000,2.9403033317e+000,3.7928270624e+000,2.4509000609e+000,4.0693120386e+000,2.9270498208e+000,3.4707613513e+000,3.5395669520e+000,3.6380753122e+000,
1.5843750000e+001,4.0733320330e+000,3.9552874641e+000,2.8864651077e+000,3.2914523173e+000,3.5310635505e+000,3.6960646060e+000,2.9714299684e+000,3.8114404174e+000,2.5283749161e+000,4.3650416180e+000,2.9839533701e+000,3.4968391616e+000,3.5262498100e+000,3.6537305738e+000,
1.5937500000e+001,4.1253974782e+000,3.9031441363e+000,2.8372592940e+000,3.3510249330e+000,3.4917785117e+000,3.5783706094e+000,2.9644463600e+000,3.7552264919e+000,2.5709874648e+000,4.4950943105e+000,3.0678850810e+000,3.4968252667e+000,3.3791650645e+000,3.5660292819e+000,
1.6031250000e+001,4.1954035333e+000,3.8730652109e+000,2.8970520905e+000,3.3682435894e+000,3.5557550787e+000,3.5953124104e+000,3.0156535641e+000,3.7789193586e+000,2.5794348478e+000,4.5352757590e+000,3.1063598653e+000,3.5555745712e+000,3.2392593332e+000,3.3966043113e+000,
1.6125000000e+001,4.3127302947e+000,3.8778849191e+000,2.9486665943e+000,3.4731073607e+000,3.6548339261e+000,3.5800379613e+000,3.0728661142e+000,3.7758270563e+000,2.6420380285e+000,4.5675311779e+000,3.1039187196e+000,3.5293887875e+000,3.1975850191e+000,3.2835898695e+000,
1.6218750000e+001,4.3925019212e+000,3.9562213991e+000,3.3244339396e+000,3.5787422610e+000,3.6799949560e+000,3.6033419790e+000,2.9991762887e+000,3.7918734726e+000,2.6073954877e+000,4.5875810494e+000,3.1916003757e+000,3.4570429347e+000,3.2019092850e+000,3.0874431435e+000,
1.6312500000e+001,4.3730535875e+000,4.0287917058e+000,3.4016507890e+000,3.5839555246e+000,3.6828705387e+000,3.7351597578e+000,3.0251434101e+000,3.8296846400e+000,2.6980769548e+000,4.6092827115e+000,3.2042096381e+000,3.4879545559e+000,3.1860893499e+000,3.0570092056e+000,
1.6406250000e+001,4.3959589813e+000,3.9794348493e+000,3.6433676652e+000,3.5038889032e+000,3.7035500848e+000,3.8707616344e+000,3.0638705271e+000,3.8123534676e+000,2.7116068751e+000,4.6368247808e+000,3.1743033766e+000,3.4279470677e+000,3.3289962213e+000,3.1258931296e+000,
1.6500000000e+001,4.3741540985e+000,3.9500212821e+000,3.7823979758e+000,3.4398693077e+000,3.6613775186e+000,3.8615933915e+000,3.0887464752e+000,3.7522322988e+000,2.7137246605e+000,4.5961608951e+000,3.2287444968e+000,3.4581793867e+000,3.3109429303e+000,3.1308505810e+000,
1.6593750000e+001,4.4368125982e+000,4.1641492254e+000,3.9661104117e+000,3.5608225940e+000,3.7480946600e+000,3.9060020006e+000,3.3335122288e+000,3.6881907591e+000,2.6843848429e+000,4.5548489485e+000,3.2702482769e+000,3.6452718936e+000,3.3269292115e+000,3.1167247896e+000,
1.6687500000e+001,4.5618753075e+000,4.3723101347e+000,4.0479637154e+000,3.6021204597e+000,3.7723610850e+000,4.0231366435e+000,3.4835502741e+000,3.7261236343e+000,2.8489948732e+000,4.5941512139e+000,3.3582985335e+000,3.7805441928e+000,3.4324621762e+000,3.2479017856e+000,
1.6781250000e+001,4.7466280997e+000,4.3705870301e+000,4.1750630726e+000,3.7467103742e+000,3.9204578915e+000,4.0673651142e+000,3.6528476508e+000,3.8746594200e+000,2.9337272117e+000,4.6476225007e+000,3.3821563855e+000,3.9131237193e+000,3.4130764438e+000,3.1750169541e+000,
1.6875000000e+001,4.7961594572e+000,4.4117135806e+000,4.2380551445e+000,3.8162802595e+000,4.0130054785e+000,4.1633815482e+000,3.7123232913e+000,3.9554030188e+000,2.9337300020e+000,4.3278635023e+000,3.3268630240e+000,3.9541569013e+000,3.4392335965e+000,3.2789439318e+000,
1.6968750000e+001,4.8235152870e+000,4.6672964718e+000,4.3223480159e+000,3.9057878409e+000,4.0601484958e+000,4.4224141565e+000,3.7421203874e+000,4.1090097443e+000,2.9521206257e+000,4.4599815853e+000,3.2898487073e+000,4.0806832203e+000,3.4044074791e+000,3.4177130293e+000,
1.7062500000e+001,4.8596359497e+000,4.7334539519e+000,4.3412455991e+000,3.8630600326e+000,3.9571809360e+000,4.4490585206e+000,3.7818925820e+000,4.0884425614e+000,2.8628412207e+000,4.4297210383e+000,3.3196984002e+000,4.0476129047e+000,3.4735589899e+000,3.3919639412e+000,
1.7156250000e+001,4.8006464246e+000,4.7332015543e+000,4.4116890588e+000,3.8870246262e+000,3.8973443587e+000,4.4847896398e+000,3.7599288182e+000,4.0936887871e+000,2.9341500853e+000,4.3665975475e+000,3.3327472512e+000,4.1358124031e+000,3.5355452975e+000,3.5298115929e+000,
1.7250000000e+001,4.7945995476e+000,4.7854690852e+000,4.3042722562e+000,3.8698651887e+000,3.9040440042e+000,4.4895441056e+000,3.7549367925e+000,4.0833252197e+000,2.9121425352e+000,4.3788876344e+000,3.3283220351e+000,4.1510406396e+000,3.5286732926e+000,3.6637719647e+000,
1.7343750000e+001,4.7793297599e+000,4.7714722671e+000,4.2970942062e+000,3.9117630464e+000,3.8997656514e+000,4.4449368703e+000,3.7525536353e+000,4.1111437468e+000,2.9016567603e+000,4.3715709139e+000,3.3369317087e+000,4.1743837080e+000,3.5039172487e+000,3.5802724488e+000,
1.7437500000e+001,4.8377936659e+000,4.8079640945e+000,4.1931286113e+000,3.9380958916e+000,3.8855300281e+000,4.4207837428e+000,3.7560942894e+000,4.1430617173e+000,2.9686042336e+000,4.3718089718e+000,3.3907037362e+000,4.1225440294e+000,3.4673124107e+000,3.6251317882e+000,
1.7531250000e+001,4.8684552071e+000,4.9053459091e+000,4.2613012123e+000,3.9936748466e+000,4.0201907317e+000,4.5624286943e+000,3.8451884549e+000,4.3289350076e+000,3.0469027698e+000,4.4828436502e+000,3.3594535667e+000,4.2588554202e+000,3.5071758180e+000,3.7336141166e+000,
1.7625000000e+001,4.8290620175e+000,4.8161977065e+000,4.2054500364e+000,3.9470352209e+000,4.0982846204e+000,4.5888070289e+000,3.6985368951e+000,4.4108650770e+000,3.0491826663e+000,4.5390283442e+000,3.3035643410e+000,4.2695243715e+000,3.3760540271e+000,3.9325788139e+000,
1.7718750000e+001,4.9025394035e+000,4.8538348530e+000,4.1866717865e+000,4.0130980799e+000,4.1692796508e+000,4.6519319565e+000,3.6956103687e+000,4.4224720117e+000,2.9862790965e+000,4.4935991247e+000,3.1230438403e+000,4.2375036182e+000,3.4272620529e+000,3.9852351859e+000,
1.7812500000e+001,4.7029821191e+000,4.8354074244e+000,4.0786843453e+000,3.8489675610e+000,4.1023559412e+000,4.6316157197e+000,3.6351787935e+000,4.2677752247e+000,2.9850106110e+000,4.3933182349e+000,3.2718223531e+000,4.1573429974e+000,3.5842847064e+000,4.0661504061e+000,
1.7906250000e+001,4.7143689409e+000,4.8870731784e+000,4.1339422486e+000,4.0469757627e+000,4.1627115812e+000,4.6699366118e+000,3.6760466796e+000,4.4183750710e+000,3.0718818589e+000,4.6212782581e+000,3.2535520082e+000,4.1817499237e+000,3.6633829593e+000,4.0107026522e+000,
1.8000000000e+001,4.6929859350e+000,4.7829262267e+000,4.1550773957e+000,4.0547636752e+000,4.0584165302e+000,4.5639511868e+000,3.6307900698e+000,4.3717137243e+000,2.8760581045e+000,4.5834968296e+000,3.1677809532e+000,4.1672895219e+000,3.8218526085e+000,3.9870597188e+000,
1.8093750000e+001,4.6961898460e+000,4.8261727607e+000,4.2099910660e+000,4.1874745468e+000,4.1211407842e+000,4.5730862237e+000,3.7095357494e+000,4.4737559072e+000,3.0322150288e+000,4.6635206578e+000,3.1735878358e+000,4.2709350990e+000,3.8969651713e+000,4.0702077809e+000,
1.8187500000e+001,4.7766047322e+000,4.8148589766e+000,4.1493374735e+000,4.1347683355e+000,4.1633491443e+000,4.5301328601e+000,3.7317392863e+000,4.4978564236e+000,2.9775465300e+000,4.6744994111e+000,3.3524590005e+000,4.1950235819e+000,3.9519760702e+000,4.0246740082e+000,
1.8281250000e+001,4.7632803387e+000,4.8413199691e+000,4.1521394581e+000,4.2028609667e+000,4.2372093339e+000,4.5448367370e+000,3.7755775655e+000,4.5486719852e+000,3.0548020848e+000,4.6585067679e+000,3.2726106418e+000,4.2388279714e+000,3.9195014159e+000,4.0570041972e+000,
1.8375000000e+001,4.8348072546e+000,4.9073722737e+000,4.1951421117e+000,4.2239872744e+000,4.4229069139e+000,4.5772786657e+000,3.9880919139e+000,4.6252266080e+000,3.2505081481e+000,4.7920034586e+000,3.3003735005e+000,4.3527908400e+000,3.9222237169e+000,4.1004020406e+000,
1.8468750000e+001,4.8025751321e+000,4.9581936135e+000,4.1550035781e+000,4.2559767742e+000,4.4498381977e+000,4.5813409516e+000,3.9974879848e+000,4.6284264128e+000,3.1948073510e+000,4.8222058675e+000,3.2646413093e+000,4.3684357352e+000,3.9206883275e+000,4.0767432496e+000,
1.8562500000e+001,4.7925723275e+000,4.9239956645e+000,4.0742955527e+000,4.2563617869e+000,4.3666934747e+000,4.4459066626e+000,3.9256737174e+000,4.5511648229e+000,3.2511891831e+000,4.7746666066e+000,3.3226748788e+000,4.2143352685e+000,3.9395706331e+000,3.9304939914e+000,
1.8656250000e+001,4.7584686437e+000,4.8723900765e+000,4.0198121176e+000,4.2381999068e+000,4.2613668939e+000,4.2991903696e+000,3.8585356040e+000,4.5157147682e+000,3.2075275830e+000,4.6643917416e+000,3.3240008095e+000,4.0665399891e+000,3.9553850739e+000,3.7212360839e+000,
1.8750000000e+001,4.7236622805e+000,4.7729810555e+000,3.9723433211e+000,4.1618811844e+000,4.2492031397e+000,4.1683065291e+000,3.8534263283e+000,4.5014060978e+000,3.1961061513e+000,4.6467017678e+000,3.4588397901e+000,4.0060856769e+000,4.0002931515e+000,3.5628877664e+000,
1.8843750000e+001,4.7042424997e+000,4.7342781462e+000,3.9549432375e+000,4.1424180088e+000,4.1545207549e+000,4.0538253608e+000,3.7896634524e+000,4.4346855210e+000,3.2306846997e+000,4.5669829372e+000,3.3682615659e+000,4.0091037355e+000,3.9400028848e+000,3.5098407723e+000,
1.8937500000e+001,4.6812920740e+000,4.7478492226e+000,3.7697688910e+000,3.9102163787e+000,4.1815060048e+000,3.9015264549e+000,3.8292492021e+000,4.2684393859e+000,3.1824328294e+000,4.3302688336e+000,3.4358973013e+000,3.9126082160e+000,3.8878069706e+000,3.4724808972e+000,
1.9031250000e+001,4.5617372973e+000,4.6203367443e+000,3.5821212155e+000,3.6859331182e+000,4.1653801878e+000,3.7851609696e+000,3.7585913730e+000,4.1003603088e+000,3.2032272752e+000,4.1792069175e+000,3.4224506262e+000,3.6675588180e+000,3.6397799576e+000,3.2908079083e+000,
1.9125000000e+001,4.4457505178e+000,4.5931170319e+000,3.4080898435e+000,3.5948853914e+000,4.1062114242e+000,3.7876081435e+000,3.6259858013e+000,4.0348944795e+000,3.1600875523e+000,4.1495612143e+000,3.3175268749e+000,3.6153290501e+000,3.4919863568e+000,3.3335343607e+000,
1.9218750000e+001,4.4333742921e+000,4.6362174437e+000,3.5157603398e+000,3.5865093522e+000,4.1398794083e+000,4.0529133344e+000,3.6675224156e+000,4.1116835304e+000,3.1511821004e+000,4.2854591167e+000,3.3614604109e+000,3.7845958210e+000,3.4763236992e+000,3.2716764366e+000,
1.9312500000e+001,4.4082144671e+000,4.5343767117e+000,3.3480895178e+000,3.4861699633e+000,3.9479943658e+000,3.9630020113e+000,3.5390726223e+000,3.9921358552e+000,3.0644817626e+000,4.2688956005e+000,3.3334979348e+000,3.7158673079e+000,3.4768977907e+000,3.1884466101e+000,
1.9406250000e+001,4.2790274114e+000,4.3937685738e+000,3.4362791496e+000,3.3980735716e+000,3.6351307931e+000,3.8628439271e+000,3.3420176872e+000,3.8243602734e+000,2.9728493145e+000,3.9569246262e+000,3.3676361055e+000,3.5694107789e+000,3.6083764461e+000,3.3120906422e+000,
1.9500000000e+001,4.2710282254e+000,4.3608774035e+000,3.3985510325e+000,3.3228416378e+000,3.6927065245e+000,3.8547907861e+000,3.4556456510e+000,3.7390893566e+000,2.8676717075e+000,4.0258732024e+000,3.3548292496e+000,3.5576265705e+000,3.7441765310e+000,3.3364122784e+000,
1.9593750000e+001,4.3605125525e+000,4.3000095641e+000,3.4275195966e+000,3.2876940034e+000,3.7835479128e+000,3.8334812577e+000,3.5477085045e+000,3.6829741309e+000,2.9053756811e+000,4.4903730555e+000,3.3001190682e+000,3.6775823990e+000,3.7609298697e+000,3.3427990101e+000,
1.9687500000e+001,4.2697229584e+000,4.3936930134e+000,3.3655044382e+000,3.3772379775e+000,3.7106082991e+000,3.8746018519e+000,3.5472864092e+000,3.7411055056e+000,3.1262820575e+000,4.5586757242e+000,3.2718118765e+000,3.9164987037e+000,3.5658463488e+000,3.3848758725e+000,
1.9781250000e+001,4.3027228723e+000,4.4240861455e+000,3.4381201536e+000,3.3435309589e+000,3.7121625227e+000,3.8762574531e+000,3.5303117459e+000,3.7519440390e+000,3.1727431846e+000,5.1896008153e+000,3.2249822960e+000,3.9273834185e+000,3.5820647351e+000,3.3959911885e+000,
1.9875000000e+001,4.3522509631e+000,4.3570922248e+000,3.4318606440e+000,3.3704787085e+000,3.7614920269e+000,3.8948423883e+000,3.5282846680e+000,3.7444697823e+000,3.2185427928e+000,5.8512543752e+000,3.1507852094e+000,3.9077871164e+000,3.5105660219e+000,3.4430527934e+000,
1.9968750000e+001,4.4641812347e+000,4.4077164427e+000,3.4157127610e+000,3.4322231940e+000,3.8119198172e+000,3.9201148156e+000,3.4925563890e+000,3.7938403428e+000,3.2084019049e+000,5.9995098144e+000,3.1212374664e+000,4.0521413201e+000,3.5698231035e+000,3.5397190536e+000,
2.0062500000e+001,4.5390651509e+000,4.5146038668e+000,4.0140384564e+000,3.4897714437e+000,3.9003279277e+000,4.0362935054e+000,3.6345130095e+000,4.0207915715e+000,3.6760180448e+000,6.1502593273e+000,3.7187338391e+000,4.3789459895e+000,3.7946235242e+000,4.0231402397e+000,
2.0156250000e+001,4.5245453279e+000,4.5579579104e+000,4.1169813968e+000,3.5532831751e+000,3.9216094978e+000,4.1130244843e+000,3.6855508854e+000,4.1357688938e+000,3.6684259337e+000,6.1964225799e+000,3.8207264974e+000,4.4679034992e+000,3.8165210255e+000,4.2242923426e+000,
2.0250000000e+001,4.5446875258e+000,4.4947011579e+000,4.0892535067e+000,3.5071564666e+000,3.9732465000e+000,3.9422716410e+000,3.7133018352e+000,4.0358507285e+000,3.6719522838e+000,6.1706037374e+000,3.8463803185e+000,4.3878697482e+000,3.8983644954e+000,4.2199467326e+000,
2.0343750000e+001,4.5537481028e+000,4.5043822942e+000,4.1206755859e+000,3.4829555142e+000,4.1490810758e+000,4.0263165001e+000,3.7920862419e+000,4.0476625994e+000,3.6728961376e+000,6.2373477136e+000,3.8575276227e+000,4.3482577429e+000,3.9143054339e+000,4.2753265870e+000,
2.0437500000e+001,4.5267622113e+000,4.4875016793e+000,4.0591937630e+000,3.4445683293e+000,4.1726637301e+000,4.0104906130e+000,3.6686832014e+000,4.0737806180e+000,3.6673402004e+000,6.3231888188e+000,3.8196396255e+000,4.3514903951e+000,3.7695501838e+000,4.2571920588e+000,
2.0531250000e+001,4.6299612803e+000,4.5343418488e+000,4.0857358959e+000,3.5478061784e+000,4.1937052157e+000,4.1376047523e+000,3.6486466231e+000,4.2236341017e+000,3.6519024153e+000,6.2934470567e+000,3.7994432649e+000,4.4045764626e+000,3.7558183439e+000,4.2613911689e+000,
2.0625000000e+001,4.5102687651e+000,4.5698705631e+000,4.1081148622e+000,3.5461408216e+000,4.1267299183e+000,4.2622513466e+000,3.5768499847e+000,4.2725777358e+000,3.5726611417e+000,6.2670332232e+000,3.8572792575e+000,4.3717661171e+000,3.7947716548e+000,4.2974742792e+000,
2.0718750000e+001,4.5771015193e+000,4.7016666848e+000,4.0878624185e+000,3.6045104720e+000,4.1906843849e+000,4.4877629432e+000,3.5742941497e+000,4.4051073218e+000,3.5527855054e+000,6.3485230243e+000,3.8364552529e+000,4.3603871262e+000,3.8945826945e+000,4.3347832438e+000,
2.0812500000e+001,4.6011989118e+000,4.7397023968e+000,4.1397617947e+000,3.7219332680e+000,4.2894275229e+000,4.6629456308e+000,3.6185719619e+000,4.5209767411e+000,3.5759699823e+000,6.1413040537e+000,3.8713309343e+000,4.3968680670e+000,3.8936844184e+000,4.3317623978e+000,
2.0906250000e+001,4.6919865251e+000,4.7437526600e+000,4.2279477005e+000,3.7463510878e+000,4.3640089538e+000,4.7271087086e+000,3.7626524284e+000,4.5930633396e+000,3.5316957802e+000,5.7928967147e+000,4.0376949924e+000,4.4125058372e+000,4.1280388683e+000,4.3575110072e+000,
2.1000000000e+001,4.5920937069e+000,4.6940353895e+000,4.0503488039e+000,3.7420430936e+000,4.2874014457e+000,4.6716435063e+000,3.6949738324e+000,4.5596446838e+000,3.3702860115e+000,5.6068818873e+000,3.8972650291e+000,4.2113845992e+000,4.1119672620e+000,4.2901375885e+000,
2.1093750000e+001,4.6452445112e+000,4.6780110309e+000,3.6976853966e+000,3.7740042001e+000,4.2393585094e+000,4.5787522747e+000,3.6220891527e+000,4.4545442810e+000,3.0324843523e+000,5.3612195411e+000,3.5944203603e+000,3.9983624221e+000,4.0247971102e+000,3.8871319214e+000,
2.1187500000e+001,4.7081391088e+000,4.6277290996e+000,3.7166121848e+000,3.7613474935e+000,4.2273109367e+000,4.5480031386e+000,3.6631342679e+000,4.4325289991e+000,3.0338466824e+000,5.3403981973e+000,3.5887450643e+000,3.9461196247e+000,4.0313121833e+000,3.7302604203e+000,
2.1281250000e+001,4.7553489734e+000,4.6793941659e+000,3.7423634849e+000,3.8851280034e+000,4.2073189681e+000,4.5376811857e+000,3.6632026275e+000,4.4455455080e+000,2.9852599660e+000,5.3266298626e+000,3.6600004773e+000,3.9732112747e+000,4.0021932206e+000,3.5933217771e+000,
2.1375000000e+001,4.7975719785e+000,4.6810694147e+000,3.7201985966e+000,3.9483118508e+000,4.2275222501e+000,4.5910826609e+000,3.6138906433e+000,4.4928772349e+000,3.0171006694e+000,5.3103835022e+000,3.6830040480e+000,4.1212942658e+000,4.0395268742e+000,3.7278957565e+000,
2.1468750000e+001,4.6949277831e+000,4.6909650235e+000,3.7344308032e+000,3.9759465525e+000,4.2318322462e+000,4.6232667913e+000,3.6130155514e+000,4.4914146134e+000,3.0495474820e+000,5.2400247372e+000,3.6786268222e+000,4.1083193247e+000,4.0127880175e+000,3.7785949931e+000,
2.1562500000e+001,4.7107014373e+000,4.7443005423e+000,3.8091525350e+000,3.9953926453e+000,4.2491189959e+000,4.6003268737e+000,3.7421424577e+000,4.4591273467e+000,3.1065929600e+000,5.2624416948e+000,3.7465527793e+000,4.1116024918e+000,4.0576054462e+000,3.7565096000e+000,
2.1656250000e+001,4.7090691072e+000,4.7055199605e+000,3.8622681037e+000,3.8917967586e+000,4.2464259213e+000,4.3798654768e+000,3.7451152132e+000,4.2761994700e+000,3.0896441417e+000,5.1562263316e+000,3.6013360246e+000,3.9674472141e+000,3.9468579061e+000,3.6783040185e+000,
2.1750000000e+001,4.6283754731e+000,4.6286372336e+000,4.0939570556e+000,3.9679716558e+000,4.2190070082e+000,4.3241248069e+000,3.7669883077e+000,4.2521083942e+000,3.0964268673e+000,4.9155658309e+000,3.7915294709e+000,3.9949754114e+000,4.0000439155e+000,3.6603192171e+000,
2.1843750000e+001,4.6456693690e+000,4.5860413375e+000,4.6033651836e+000,4.2975219417e+000,4.5289257344e+000,4.1594484254e+000,3.7535922525e+000,4.2615680680e+000,3.4145300115e+000,4.8759135387e+000,3.8963002117e+000,4.1010988469e+000,3.9383958596e+000,3.7952121863e+000,
2.1937500000e+001,4.6906583997e+000,4.5585224877e+000,4.9994846861e+000,4.5056130381e+000,4.6881545484e+000,4.2838917272e+000,3.9117038438e+000,4.4394552379e+000,3.8036305697e+000,4.9590159875e+000,4.1127579891e+000,4.3117560788e+000,3.8205860468e+000,3.9436771708e+000,
2.2031250000e+001,4.6427163413e+000,4.4810750935e+000,5.0096592075e+000,4.5333942503e+000,4.7354968633e+000,4.3337919263e+000,3.9311547857e+000,4.4728972781e+000,3.8634637957e+000,4.9439140641e+000,4.1762498286e+000,4.3363880847e+000,3.8391546877e+000,3.9863384129e+000,
2.2125000000e+001,4.6684215456e+000,4.5310570631e+000,4.9949508884e+000,4.5573204858e+000,4.9191065245e+000,4.3920227170e+000,3.9647910683e+000,4.5709524563e+000,3.8889319881e+000,4.9327979124e+000,4.2106547035e+000,4.3871366494e+000,3.9407065933e+000,4.0895074699e+000,
2.2218750000e+001,4.6035483741e+000,4.5206155058e+000,4.9914916546e+000,4.5269570157e+000,4.9749049892e+000,4.4135038241e+000,3.9380009828e+000,4.5891862684e+000,3.9269646124e+000,4.8868556240e+000,4.2304611840e+000,4.4412490242e+000,4.1061029496e+000,4.2457015852e+000,
2.2312500000e+001,4.4969440529e+000,4.5451692956e+000,4.9876931360e+000,4.5001236899e+000,4.9695901386e+000,4.4447555861e+000,3.8643657825e+000,4.6071619839e+000,3.9617562282e+000,4.8853002666e+000,4.2804411561e+000,4.4259858718e+000,4.1629719219e+000,4.2406483770e+000,
2.2406250000e+001,4.5278255937e+000,4.6104091676e+000,5.0011457225e+000,4.4784498464e+000,4.9067462625e+000,4.4177946823e+000,3.9754701537e+000,4.6052530923e+000,4.0488678370e+000,4.3993766382e+000,4.2919345792e+000,4.3199474352e+000,4.1454782634e+000,4.1274677437e+000,
2.2500000000e+001,4.7037599956e+000,4.6258610563e+000,4.9953242789e+000,4.4858970127e+000,4.9571618886e+000,4.4225292351e+000,4.0479979118e+000,4.7046691880e+000,4.1276576774e+000,4.2733701922e+000,4.3207466125e+000,4.3009264017e+000,4.1665592234e+000,4.0797130450e+000,
2.2593750000e+001,4.8347074703e+000,4.6973951235e+000,5.0057083735e+000,4.5306139208e+000,5.0262610134e+000,4.7601657121e+000,4.1798097687e+000,4.8573078526e+000,4.1734525654e+000,4.4345595593e+000,4.2941634868e+000,4.4383990705e+000,4.2155779426e+000,4.1586139315e+000,
2.2687500000e+001,4.8437756559e+000,4.7466119496e+000,4.9742761636e+000,4.5582871159e+000,5.0822194517e+000,4.8524174309e+000,4.1949120077e+000,4.9021440365e+000,4.1759854877e+000,4.5704549502e+000,4.2472537860e+000,4.5789548671e+000,4.2061680019e+000,4.3471197138e+000,
2.2781250000e+001,4.8147077046e+000,4.6356984991e+000,4.7422195958e+000,4.3874677043e+000,5.0467902914e+000,4.8030384920e+000,4.1578937364e+000,4.8877422991e+000,4.1833349388e+000,4.5202556300e+000,4.1296092243e+000,4.6085853566e+000,4.1408223328e+000,4.3981368741e+000,
2.2875000000e+001,4.6335289010e+000,4.5823216202e+000,3.7937689940e+000,3.9109603590e+000,4.7729488081e+000,4.6785813476e+000,3.9418396852e+000,4.6755544694e+000,3.8848408158e+000,4.3166459182e+000,3.7360326476e+000,4.4638316618e+000,3.9944560277e+000,4.3570825642e+000,
2.2968750000e+001,4.6185768268e+000,4.6113214414e+000,3.6405695666e+000,3.8339428961e+000,4.7482964151e+000,4.6715458746e+000,3.9035445564e+000,4.6563234513e+000,3.7965954970e+000,4.3054425652e+000,3.7555974951e+000,4.4229160213e+000,4.0497702015e+000,4.2979322136e+000,
2.3062500000e+001,4.6266678394e+000,4.6539064570e+000,3.6295490367e+000,3.8390450874e+000,4.6579130585e+000,4.7237081766e+000,3.9464637179e+000,4.6638660000e+000,3.7497490099e+000,4.3661621997e+000,3.6197751099e+000,4.3691594126e+000,4.0015267077e+000,4.2288889154e+000,
2.3156250000e+001,4.5219849033e+000,4.5489424492e+000,3.6659057058e+000,3.7702414415e+000,4.5152315051e+000,4.6944833372e+000,3.9439267553e+000,4.5683698993e+000,3.7423226318e+000,4.3718894387e+000,3.5230368360e+000,4.2516593150e+000,3.8875777487e+000,4.0411804807e+000,
2.3250000000e+001,4.5990859487e+000,4.5012046471e+000,3.7016491998e+000,3.7662732006e+000,4.5792707770e+000,4.6949309159e+000,3.9641243446e+000,4.5556710519e+000,3.7231164080e+000,4.3914386704e+000,3.4612320634e+000,4.2882433105e+000,3.7052125539e+000,4.0584121408e+000,
2.3343750000e+001,4.5629195178e+000,4.4373414509e+000,3.7424253189e+000,3.7194284155e+000,4.5832122479e+000,4.6848597398e+000,3.9517784389e+000,4.5116170583e+000,3.7356617969e+000,4.4024541659e+000,3.3942515138e+000,4.2835863375e+000,3.7501921990e+000,4.0308288050e+000,
2.3437500000e+001,4.4493734189e+000,4.2899265159e+000,3.5824213667e+000,3.6479100701e+000,4.5226461048e+000,4.5678554641e+000,3.8037296771e+000,4.3493366128e+000,3.5267566484e+000,4.3998934029e+000,3.5224851876e+000,4.3171947157e+000,3.9237588508e+000,4.1523819180e+000,
2.3531250000e+001,4.2305312983e+000,4.1299248713e+000,3.4829478622e+000,3.5821435678e+000,4.4189787503e+000,4.2829861022e+000,3.5036361143e+000,4.1204433893e+000,3.3368694347e+000,4.2541257699e+000,3.5153187908e+000,4.2986563230e+000,3.8821180609e+000,4.2624666545e+000,
2.3625000000e+001,4.0350424761e+000,4.0909891977e+000,3.3053402876e+000,3.3547661571e+000,4.2979236075e+000,4.0536046822e+000,3.3000152803e+000,3.9473828896e+000,3.2721290423e+000,4.0649850351e+000,3.4775714349e+000,4.1174196128e+000,3.8767846763e+000,4.2516560830e+000,
2.3718750000e+001,3.9807026604e+000,4.1399393331e+000,3.2570386896e+000,3.3433065135e+000,4.3745693991e+000,4.0555404554e+000,3.2825775514e+000,4.0872985269e+000,3.2436542910e+000,4.0241238646e+000,3.4886058751e+000,4.0284175829e+000,3.8774712719e+000,4.0997341640e+000,
2.3812500000e+001,4.1265544612e+000,4.3150099589e+000,3.5080166142e+000,3.4146753475e+000,4.5790472878e+000,4.2658915335e+000,3.6046677111e+000,4.2337744077e+000,3.5169956586e+000,4.1477690655e+000,3.8924067171e+000,4.0134932696e+000,4.0919623465e+000,4.1530002874e+000,
2.3906250000e+001,4.3420889771e+000,4.3771342244e+000,3.6010967623e+000,3.3975542657e+000,4.6217132514e+000,4.3243317509e+000,3.7201373707e+000,4.2718885260e+000,3.5518684463e+000,4.2530680029e+000,3.8719760845e+000,3.9932265242e+000,4.0784979835e+000,4.0596204606e+000,
2.4000000000e+001,4.6231049647e+000,4.3176461258e+000,3.5681987207e+000,3.3807369941e+000,4.6431304620e+000,4.2476264560e+000,3.7782722017e+000,4.2053485178e+000,3.5405074131e+000,4.1941325309e+000,3.8622326051e+000,4.0233386450e+000,4.1312051926e+000,4.1033650428e+000,
2.4093750000e+001,4.5875828106e+000,4.2775577211e+000,3.4957839739e+000,3.3195071678e+000,4.6258572988e+000,4.1411167770e+000,3.6401409796e+000,4.1022351140e+000,3.5001763349e+000,4.1753967198e+000,3.8394840865e+000,4.0772193236e+000,4.1309322204e+000,4.2295953057e+000,
2.4187500000e+001,4.5706633939e+000,4.2695438070e+000,3.4485920495e+000,3.3549909076e+000,4.7298658411e+000,4.1931438301e+000,3.6636086876e+000,4.1075204868e+000,3.5426795235e+000,4.2004977048e+000,3.9640167193e+000,4.1884127478e+000,4.2615765443e+000,4.3511155350e+000,
2.4281250000e+001,4.4823055415e+000,4.2520381945e+000,3.4676768818e+000,3.5138335597e+000,4.6216640247e+000,4.1347215439e+000,3.6667879626e+000,4.0620889030e+000,3.4350187888e+000,3.9919525228e+000,3.9264471359e+000,4.0399043078e+000,4.1966531750e+000,4.2966226435e+000,
2.4375000000e+001,4.5261532118e+000,4.2705022375e+000,3.4191900193e+000,3.6220966370e+000,4.6225819092e+000,4.1514153917e+000,3.7220084926e+000,4.1077924579e+000,3.5270861224e+000,3.9846212398e+000,3.8480825304e+000,4.0260878533e+000,4.1360699834e+000,4.3126131868e+000,
2.4468750000e+001,4.4937798944e+000,4.2534262191e+000,3.4775707609e+000,3.6073918761e+000,4.7550423117e+000,4.1630610679e+000,3.6760911896e+000,4.0957855140e+000,3.5684590146e+000,3.9404689224e+000,3.7306360638e+000,3.9851261708e+000,3.9478225072e+000,4.2637130597e+000,
2.4562500000e+001,4.5663169799e+000,4.2670404984e+000,3.5629672891e+000,3.6312418305e+000,4.8545295320e+000,4.1772586011e+000,3.7427458312e+000,4.1478925268e+000,3.7841033433e+000,4.0761839045e+000,3.8236224863e+000,4.0552072697e+000,3.9342256471e+000,4.1664555527e+000,
2.4656250000e+001,4.6969638409e+000,4.2645798240e+000,3.6436656749e+000,3.6754872615e+000,4.9201199287e+000,4.2417205304e+000,3.8287119302e+000,4.2351554912e+000,3.8957151436e+000,4.1743469863e+000,3.9710654082e+000,4.1462621796e+000,4.0456244037e+000,4.2304551101e+000,
2.4750000000e+001,4.6541894022e+000,4.1310408260e+000,3.6158187065e+000,3.6038773118e+000,4.7871498264e+000,3.9785974456e+000,3.8313093521e+000,3.9992520325e+000,3.8166770065e+000,4.0529525873e+000,3.7797122465e+000,4.1271767074e+000,4.0137984104e+000,4.3016394385e+000,
2.4843750000e+001,4.5668568255e+000,3.9617054598e+000,3.4524066199e+000,3.4968485164e+000,4.7265031479e+000,3.7694652977e+000,3.5782280238e+000,3.8149267476e+000,3.5103888274e+000,3.9412251486e+000,3.5706368686e+000,4.0229649099e+000,3.8943645674e+000,4.2915120113e+000,
2.4937500000e+001,4.3490209416e+000,4.0141794158e+000,3.3863645446e+000,3.5183763199e+000,4.7391958596e+000,3.7664462592e+000,3.5125716513e+000,3.9198894360e+000,3.5541132520e+000,4.0189614650e+000,3.6552012315e+000,4.0681891345e+000,4.0240359083e+000,4.4104010923e+000,
2.5031250000e+001,4.1806371824e+000,3.9951378617e+000,3.3622545677e+000,3.4605879869e+000,4.7180551884e+000,3.7792934901e+000,3.4908920152e+000,3.9090557211e+000,3.5489672747e+000,4.0147446920e+000,3.6516250285e+000,4.0834825292e+000,4.0069461762e+000,4.4087687285e+000,
2.5125000000e+001,4.2735417277e+000,4.1011218539e+000,3.3758159512e+000,3.4518442409e+000,4.7182802619e+000,3.8711433291e+000,3.5462526907e+000,3.9537470787e+000,3.5585591801e+000,4.0744982864e+000,3.7406926890e+000,4.0331524460e+000,3.9756361355e+000,4.3523189383e+000,
2.5218750000e+001,4.3348861847e+000,4.1244990708e+000,3.4435402799e+000,3.4038325131e+000,4.8359371830e+000,3.9552183712e+000,3.6226658027e+000,4.0212621640e+000,3.5094851434e+000,4.1188293500e+000,3.8660286115e+000,4.0263032947e+000,4.0190119251e+000,4.3238061360e+000,
2.5312500000e+001,4.3634323611e+000,4.0231981567e+000,3.4405601962e+000,3.2443206740e+000,5.0583561857e+000,3.9751460964e+000,3.6415188174e+000,3.9773067171e+000,3.4783307435e+000,4.3674056303e+000,3.8775730374e+000,4.2599168122e+000,4.0719479398e+000,4.4610806930e+000,
2.5406250000e+001,4.7017104276e+000,4.0855114785e+000,3.6018878599e+000,3.3806232203e+000,5.1044564385e+000,4.1511068380e+000,3.8152147879e+000,4.0862697859e+000,3.4808374748e+000,4.5769358361e+000,4.0309677060e+000,4.3285858715e+000,4.1093695706e+000,4.4785185573e+000,
2.5500000000e+001,4.7466967564e+000,4.2218866403e+000,3.6600479456e+000,3.4295172601e+000,5.0472597353e+000,4.1798506416e+000,3.9034432672e+000,4.1112483919e+000,3.5001481261e+000,4.6334089451e+000,4.1407812668e+000,4.4291833614e+000,4.1683138877e+000,4.5042296881e+000,
2.5593750000e+001,4.8598067730e+000,4.3070189174e+000,3.7352339570e+000,3.5057958617e+000,5.1599631002e+000,4.3656556476e+000,4.0783286904e+000,4.2701312394e+000,3.1128194215e+000,4.8279968200e+000,4.4496599215e+000,4.4452083237e+000,4.4560320192e+000,4.5845018822e+000,
2.5687500000e+001,4.9667252942e+000,4.4516594021e+000,3.8613337147e+000,3.6485466725e+000,5.4703080023e+000,4.4937772337e+000,4.1794907012e+000,4.4454523188e+000,3.0501966067e+000,4.9341058319e+000,4.5929531922e+000,4.5705022648e+000,4.3969542496e+000,4.7138806721e+000,
2.5781250000e+001,5.0116461139e+000,4.3810478149e+000,3.8559298905e+000,3.6857428624e+000,5.4839810416e+000,4.5484974486e+000,4.2069993306e+000,4.5232559659e+000,3.1203663777e+000,5.2431451319e+000,4.6401254603e+000,4.5785416418e+000,4.4282343867e+000,4.6660068189e+000,
2.5875000000e+001,4.9936275729e+000,4.3672498819e+000,3.9121806226e+000,3.7333015993e+000,5.4300914009e+000,4.5113646848e+000,4.2361896377e+000,4.4949626763e+000,3.1299026261e+000,5.2265808168e+000,4.6403490296e+000,4.5443619747e+000,4.4253177937e+000,4.5941230705e+000,
2.5968750000e+001,4.9687469504e+000,4.3739067576e+000,3.9051713373e+000,3.7155813311e+000,5.4220596734e+000,4.4619013067e+000,4.2315461997e+000,4.4541560801e+000,3.1212014629e+000,5.1972140572e+000,4.6072430594e+000,4.5404126514e+000,4.3876288287e+000,4.5348177478e+000,
2.6062500000e+001,4.9840780019e+000,4.4584753666e+000,3.9396526521e+000,3.8070609793e+000,5.4074621283e+000,4.5672023698e+000,4.2257025157e+000,4.4980783743e+000,3.1628282604e+000,5.1843132985e+000,4.5880887842e+000,4.5015907227e+000,4.3485608560e+000,4.4865798115e+000,
2.6156250000e+001,4.9401782027e+000,4.4331794616e+000,3.9055796504e+000,3.7511696890e+000,5.3498575654e+000,4.4931385089e+000,4.1759786170e+000,4.4356184158e+000,3.2083955723e+000,5.1547540654e+000,4.5327225340e+000,4.4497562873e+000,4.2773949587e+000,4.4153539461e+000,
2.6250000000e+001,4.9012738332e+000,4.4368912413e+000,3.8687987702e+000,3.7329602668e+000,5.2544557718e+000,4.4921649935e+000,4.1144498068e+000,4.4401227666e+000,3.2223622964e+000,5.1116793729e+000,4.4270313098e+000,4.4186361264e+000,4.2141756282e+000,4.3444381487e+000,
2.6343750000e+001,4.8956871454e+000,4.4375303146e+000,3.8186603964e+000,3.6928903593e+000,5.1788978375e+000,4.4350357543e+000,4.0727866112e+000,4.3918143844e+000,3.1551433298e+000,5.0002735007e+000,4.4173364436e+000,4.2422383945e+000,4.1901738376e+000,4.1959400930e+000,
2.6437500000e+001,4.6171684182e+000,4.3822341098e+000,3.6322821707e+000,3.5261148612e+000,5.1369373331e+000,4.3145358506e+000,3.9267290240e+000,4.2745417254e+000,3.1610662087e+000,4.8739936128e+000,4.3449167288e+000,4.2213431887e+000,4.1654550950e+000,4.2554248682e+000,
2.6531250000e+001,4.5570884573e+000,4.3803912974e+000,3.5701572676e+000,3.4064726802e+000,5.3569585825e+000,4.2966941087e+000,3.7858302968e+000,4.2226230807e+000,3.1190544541e+000,4.8277274697e+000,4.1428829033e+000,4.1028096634e+000,4.0068484758e+000,4.2737746518e+000,
2.6625000000e+001,4.5799319566e+000,4.5275718375e+000,3.9747309030e+000,3.2516049968e+000,5.3692035554e+000,3.9878597412e+000,3.6848011043e+000,3.9724610897e+000,3.2341369955e+000,4.7236241482e+000,3.4909632736e+000,4.0043467666e+000,3.5564029524e+000,4.0819343532e+000,
2.6718750000e+001,4.3629935429e+000,4.4311219874e+000,3.9450226066e+000,3.0597798101e+000,5.2425321792e+000,3.9553620064e+000,3.5107814673e+000,3.7999738019e+000,3.3496924704e+000,4.3645998160e+000,3.3842513327e+000,3.6908570564e+000,3.6711979860e+000,3.7451339633e+000,
2.6812500000e+001,4.4294654087e+000,4.4863930600e+000,3.9359054890e+000,3.0315236587e+000,5.3387488463e+000,4.0147164383e+000,3.4567135502e+000,3.7639336269e+000,3.3016964875e+000,3.9786276134e+000,3.6848555616e+000,3.6951253724e+000,3.9229449409e+000,3.8223855001e+000,
2.6906250000e+001,4.4473639440e+000,4.4057026636e+000,3.9316328362e+000,2.8635190861e+000,5.3643430931e+000,4.0029127803e+000,3.3568156724e+000,3.6566534077e+000,3.2619999490e+000,4.0010746373e+000,3.7234752817e+000,3.7240638215e+000,3.8925796310e+000,3.7778592474e+000,
2.7000000000e+001,4.5183856982e+000,4.4272141831e+000,3.9168366137e+000,2.8822168584e+000,5.3679243682e+000,3.9963888736e+000,3.3759734321e+000,3.6574016778e+000,3.2457673258e+000,4.0305766634e+000,3.7138764210e+000,3.6684140107e+000,3.8307628754e+000,3.7315239507e+000,
2.7093750000e+001,4.5234195373e+000,4.3020175092e+000,3.9270760816e+000,2.7563042761e+000,5.4022234599e+000,3.7257107013e+000,3.3182164394e+000,3.5317456497e+000,3.1905344208e+000,4.0232470552e+000,3.7095725797e+000,3.6432421208e+000,3.8264249693e+000,3.7897091829e+000,
2.7187500000e+001,4.5646603756e+000,4.2999537625e+000,3.9977361996e+000,2.9771563518e+000,5.5509590260e+000,3.7717511701e+000,3.4471550884e+000,3.6513594933e+000,3.1858446445e+000,4.0881781769e+000,3.7191449799e+000,3.6968038924e+000,3.8300288189e+000,3.8344782813e+000,
2.7281250000e+001,4.6014095314e+000,4.3805861436e+000,4.0405828609e+000,3.0023245201e+000,5.5745979084e+000,3.7596421783e+000,3.4886072687e+000,3.6957088335e+000,3.1771744816e+000,4.2117925104e+000,3.7302338927e+000,3.6777849526e+000,3.8073808245e+000,3.8195655965e+000,
2.7375000000e+001,4.6369984765e+000,4.4730803482e+000,4.0578337502e+000,3.1101270948e+000,5.5585139606e+000,3.7252909000e+000,3.5176292901e+000,3.6821325781e+000,3.2756454696e+000,4.2193444500e+000,3.7269524572e+000,3.6886787702e+000,3.8082727230e+000,3.7925017620e+000,
2.7468750000e+001,4.8287138721e+000,4.6412208873e+000,4.0851229844e+000,3.3438461285e+000,5.5894817776e+000,3.9579967822e+000,3.7632898535e+000,3.8766571259e+000,3.3353905440e+000,4.3790079199e+000,3.7628936001e+000,3.6350949497e+000,3.8088310990e+000,3.7688443796e+000,
2.7562500000e+001,4.6426503892e+000,4.4469817773e+000,4.0118041507e+000,3.3773602317e+000,5.3299529996e+000,3.8837053722e+000,3.6244740366e+000,3.8102753570e+000,3.3726245911e+000,4.1669391134e+000,3.7823744681e+000,3.5845266272e+000,3.8219137581e+000,3.6404632097e+000,
2.7656250000e+001,4.6470268254e+000,4.3848668951e+000,3.4543979941e+000,3.4243891028e+000,5.0941903816e+000,4.0064981015e+000,3.7618491221e+000,3.9849524352e+000,3.3664716979e+000,4.2262375259e+000,3.9482441456e+000,3.9439345954e+000,4.1293099010e+000,4.2310708471e+000,
2.7750000000e+001,4.6532667375e+000,4.5601545733e+000,3.6039690596e+000,3.6395362014e+000,4.9318054258e+000,4.0138952615e+000,3.8977091959e+000,3.9771409571e+000,3.5455294554e+000,4.4275728440e+000,4.0234198103e+000,4.3719477846e+000,4.2091972854e+000,4.5782915092e+000,
2.7843750000e+001,4.7295857783e+000,4.7043972125e+000,3.9752038358e+000,3.9149986053e+000,4.8444931281e+000,4.1570009359e+000,4.0452649819e+000,4.2194320700e+000,3.7610683070e+000,4.6292066571e+000,4.1121704056e+000,4.6134324903e+000,4.1523473494e+000,4.6501576756e+000,
2.7937500000e+001,4.7196731543e+000,4.7820325247e+000,4.0850257526e+000,3.9284553256e+000,4.8629963671e+000,4.2070494792e+000,4.1046867487e+000,4.2968460200e+000,3.9200603584e+000,4.6579206529e+000,4.1756294138e+000,4.6213541994e+000,4.1965618096e+000,4.6374978020e+000,
2.8031250000e+001,4.8082528916e+000,4.8315348441e+000,4.1310007476e+000,3.9909175183e+000,4.8700827996e+000,4.2306678793e+000,4.1471737374e+000,4.3490279382e+000,3.9471612714e+000,4.7113083388e+000,4.2314535735e+000,4.6498417823e+000,4.2414908091e+000,4.6453238467e+000,
2.8125000000e+001,4.8793989268e+000,4.8651238385e+000,4.1473822486e+000,3.9665031666e+000,4.6061488573e+000,4.2706989512e+000,4.1435320914e+000,4.3850192817e+000,4.0381252113e+000,4.7464820156e+000,4.3492011646e+000,4.6402547934e+000,4.2998164344e+000,4.6085275240e+000,
2.8218750000e+001,4.8687086555e+000,4.8278715985e+000,4.1112983420e+000,3.9174702061e+000,4.4283541345e+000,4.3008446413e+000,4.1736027682e+000,4.3521771574e+000,4.0800315091e+000,4.7896945830e+000,4.3760630910e+000,4.6322244456e+000,4.3097568495e+000,4.6305314152e+000,
2.8312500000e+001,4.8703468506e+000,4.7612384875e+000,4.1368109862e+000,3.9204809547e+000,4.3991082658e+000,4.2754908495e+000,4.1942537911e+000,4.3652979240e+000,4.0654793644e+000,4.7506078679e+000,4.3709228509e+000,4.6306433888e+000,4.3627617875e+000,4.6298180364e+000,
2.8406250000e+001,4.8580720570e+000,4.6574355333e+000,4.1470361674e+000,3.8409680884e+000,4.3876967089e+000,4.2112373339e+000,4.1341180982e+000,4.3094239681e+000,4.0018504592e+000,4.7481800959e+000,4.3994048881e+000,4.6585236618e+000,4.4487539605e+000,4.7080124861e+000,
2.8500000000e+001,4.8196457713e+000,4.5633869963e+000,4.1561678509e+000,3.7826322613e+000,4.3342806001e+000,4.1083788458e+000,4.0816858076e+000,4.2374115588e+000,3.9876447427e+000,4.7151456549e+000,4.4263896899e+000,4.6513806300e+000,4.5218876144e+000,4.7172365535e+000,
2.8593750000e+001,4.8055674212e+000,4.5860348605e+000,4.1738442305e+000,3.7758209606e+000,4.2596389398e+000,4.0759236803e+000,4.0411946573e+000,4.2143468543e+000,3.9378786608e+000,4.7298783931e+000,4.3438476286e+000,4.6336264550e+000,4.4007921072e+000,4.6674899118e+000,
2.8687500000e+001,4.8619253831e+000,4.5919733511e+000,4.2007252525e+000,3.7997276592e+000,4.1743594168e+000,4.1228382510e+000,3.9565604586e+000,4.1927394754e+000,3.8501608270e+000,4.6594111265e+000,4.2871860182e+000,4.4607410528e+000,4.3740375978e+000,4.3725837698e+000,
2.8781250000e+001,4.7909911969e+000,4.4236837147e+000,3.8909514430e+000,3.5935935436e+000,4.1232352550e+000,4.2009452560e+000,3.7492158515e+000,4.1511308904e+000,3.6390950393e+000,4.4667459253e+000,4.1373580512e+000,3.8643079510e+000,4.2483077828e+000,3.8932635898e+000,
2.8875000000e+001,4.7583876651e+000,4.3645157661e+000,3.8085361295e+000,3.5414972254e+000,4.1481700271e+000,4.2813288170e+000,3.7605180189e+000,4.1461009611e+000,3.4271404305e+000,4.4182652534e+000,4.0484893471e+000,3.6919911052e+000,4.2238414519e+000,3.8144185777e+000,
2.8968750000e+001,4.7107161588e+000,4.2163221719e+000,3.7322615106e+000,3.5141435372e+000,4.0863112618e+000,4.2434566290e+000,3.6777643537e+000,4.0296829956e+000,3.1713637414e+000,4.3092938881e+000,3.9420983603e+000,3.5254648996e+000,4.1526785672e+000,3.7912615717e+000,
2.9062500000e+001,4.6098993541e+000,4.1536858964e+000,3.6960155480e+000,3.4950435483e+000,4.0690153454e+000,4.2380941245e+000,3.6560377000e+000,4.0218850348e+000,3.1511690358e+000,4.3177003446e+000,3.8297142275e+000,3.4894567993e+000,4.1026938601e+000,3.7540079960e+000,
2.9156250000e+001,4.4897351198e+000,4.1390816249e+000,3.6637497963e+000,3.4759574426e+000,3.9417512560e+000,4.1962647753e+000,3.5829615909e+000,3.9683566353e+000,2.8018477019e+000,4.3306399430e+000,3.7051677947e+000,3.6141320256e+000,4.1235161289e+000,3.8498432657e+000,
2.9250000000e+001,4.5361106472e+000,4.2056050653e+000,3.6646053506e+000,3.5302315205e+000,3.9277969708e+000,4.1730514365e+000,3.5539471474e+000,3.9698806390e+000,2.7836546489e+000,4.2322090047e+000,3.6798689559e+000,3.7233984428e+000,4.0966589016e+000,3.8823309745e+000,
2.9343750000e+001,4.4561165332e+000,4.3072441458e+000,3.7105677657e+000,3.6439002846e+000,3.8926312020e+000,4.2365909137e+000,3.5097592837e+000,4.0062231023e+000,2.8992014261e+000,4.2990395755e+000,3.6276606523e+000,3.8149214948e+000,3.9741728106e+000,3.9432735034e+000,
2.9437500000e+001,4.3477017468e+000,4.3368234501e+000,3.6774814578e+000,3.6785165851e+000,3.8228746414e+000,4.2968194899e+000,3.4726513007e+000,4.0372430299e+000,2.9714556695e+000,4.2922392658e+000,3.5678273488e+000,3.8898537441e+000,3.9210307959e+000,3.8088823369e+000,
2.9531250000e+001,4.3357374151e+000,4.3805755517e+000,3.6476793233e+000,3.7145993630e+000,3.8005282379e+000,4.3301357072e+000,3.4520534249e+000,4.0047543885e+000,2.9828858938e+000,4.3086605053e+000,3.4660693832e+000,3.8685605464e+000,3.7533180477e+000,3.7168429094e+000,
2.9625000000e+001,4.2895413854e+000,4.4111082156e+000,3.5394917051e+000,3.7928199091e+000,3.8506058340e+000,4.3649323443e+000,3.4225042573e+000,4.0683696202e+000,2.9839112595e+000,4.4810995497e+000,3.4345794602e+000,3.9672177484e+000,3.7253776702e+000,3.8364411458e+000,
2.9718750000e+001,4.2436288848e+000,4.3419238551e+000,3.4530790901e+000,3.6574856573e+000,3.8272751347e+000,4.1745821284e+000,3.3844547024e+000,3.8476578245e+000,2.9972290495e+000,4.4562245906e+000,3.3315738366e+000,3.9989722355e+000,3.5468956058e+000,3.8324971577e+000,
2.9812500000e+001,4.2928485256e+000,4.1923296885e+000,3.7688105897e+000,3.4917471405e+000,3.8682670639e+000,3.9141363655e+000,3.3010611865e+000,3.5726409812e+000,3.1866909139e+000,4.3809121787e+000,2.9630358106e+000,3.9670162957e+000,3.3291634185e+000,3.8294221090e+000,
2.9906250000e+001,4.3518437759e+000,4.2688193919e+000,4.1700889387e+000,3.4931958709e+000,3.9175301709e+000,4.1106741513e+000,3.4239633590e+000,3.8896817747e+000,3.2750630087e+000,4.5550232600e+000,2.9291281162e+000,4.1060743945e+000,3.3381016712e+000,3.8754690806e+000,
3.0000000000e+001,4.3280545400e+000,4.3835200034e+000,4.1893752648e+000,3.5237142924e+000,3.8667935648e+000,4.1099475377e+000,3.4185254635e+000,3.8983468230e+000,3.2018481871e+000,4.5303674896e+000,2.9550278797e+000,4.1084823500e+000,3.3973280981e+000,3.8648054922e+000,
3.0093750000e+001,4.3928877265e+000,4.4479181174e+000,4.2154344126e+000,3.6678072676e+000,3.9528044486e+000,4.1900287688e+000,3.5370315445e+000,3.9568496101e+000,3.1581748637e+000,4.4926399083e+000,2.8948882852e+000,4.0637769781e+000,3.2318868495e+000,3.8274539937e+000,
3.0187500000e+001,4.5024156702e+000,4.4975296620e+000,4.3025647841e+000,3.7851086778e+000,3.9774371042e+000,4.2767483433e+000,3.5371204884e+000,4.0229176318e+000,3.1871590135e+000,4.5404449079e+000,3.0070191211e+000,4.1095817027e+000,3.4374070456e+000,3.9860903050e+000,
3.0281250000e+001,4.5448316657e+000,4.5278586986e+000,4.3294771051e+000,3.8741041316e+000,4.0308868361e+000,4.3380857540e+000,3.5988406701e+000,4.0731671547e+000,3.2104785999e+000,4.5589578895e+000,3.0295514537e+000,4.0528144196e+000,3.4600286823e+000,3.9317079114e+000,
3.0375000000e+001,4.5625010363e+000,4.4723742081e+000,4.3370644858e+000,3.8699835050e+000,4.0005583786e+000,4.2827596122e+000,3.5999949706e+000,4.0491676185e+000,3.1408838158e+000,4.4989084204e+000,3.0154402195e+000,3.8929673554e+000,3.5801793265e+000,3.8561502283e+000,
3.0468750000e+001,4.5471379789e+000,4.4013523042e+000,4.3536518013e+000,3.8828197352e+000,3.9234853378e+000,4.2810880651e+000,3.5118312808e+000,4.0750195163e+000,3.0292750721e+000,4.5088110614e+000,3.0350434468e+000,3.8583751301e+000,3.6915397266e+000,3.9150515011e+000,
3.0562500000e+001,4.5524847622e+000,4.4327701665e+000,4.3936897469e+000,3.8912245736e+000,3.9952534334e+000,4.2730065405e+000,3.5546412491e+000,4.1449720002e+000,2.9566611323e+000,4.4539346825e+000,3.1480213413e+000,3.8697439546e+000,3.7566049985e+000,3.9344436330e+000,
3.0656250000e+001,4.6625717017e+000,4.5549876745e+000,4.4143198870e+000,3.9240332165e+000,4.1820831349e+000,4.2983271089e+000,3.6790874874e+000,4.1317338266e+000,2.9083543442e+000,4.2736411273e+000,3.0822824976e+000,3.7763095237e+000,3.7001297446e+000,3.8270717438e+000,
3.0750000000e+001,4.5993460358e+000,4.5456161852e+000,4.3824703696e+000,3.9205819004e+000,4.1438241822e+000,4.3827292042e+000,3.6582922487e+000,4.2419815295e+000,2.8863951188e+000,4.3438307795e+000,3.1546746293e+000,3.8024799581e+000,3.7089444488e+000,3.8575994828e+000,
3.0843750000e+001,4.5424138519e+000,4.5205692287e+000,4.0454518232e+000,3.9693344771e+000,4.1499417545e+000,4.3043669663e+000,3.6592422072e+000,4.1984820855e+000,2.6207404861e+000,4.2308326270e+000,3.0556698731e+000,3.6822870354e+000,3.6563130057e+000,3.7959774897e+000,
3.0937500000e+001,4.4699543992e+000,4.4798647323e+000,3.8450245765e+000,3.9604326865e+000,4.0773214825e+000,4.2355898551e+000,3.5648897895e+000,4.0668208007e+000,2.5961868118e+000,4.0762181692e+000,3.1304461639e+000,3.7382004856e+000,3.6259201936e+000,3.8613317011e+000,
3.1031250000e+001,4.5329082624e+000,4.4342771142e+000,3.8322048508e+000,3.9857739946e+000,4.0610810661e+000,4.2906256779e+000,3.4846165451e+000,4.1915976326e+000,2.5985465827e+000,4.1206772033e+000,3.1059923137e+000,3.7797432809e+000,3.6732350186e+000,3.9226036035e+000,
3.1125000000e+001,4.5067482507e+000,4.3941410006e+000,3.7312775079e+000,3.8795272892e+000,4.0248091593e+000,4.2292111322e+000,3.5484642115e+000,4.2524966202e+000,2.6727623344e+000,4.2531558015e+000,3.2054276145e+000,3.9565610846e+000,3.7606273470e+000,3.8413564625e+000,
3.1218750000e+001,4.3756240328e+000,4.3603280432e+000,3.6178964433e+000,3.8644055530e+000,4.0093249179e+000,4.2877805546e+000,3.6621970198e+000,4.2947135305e+000,3.2467501970e+000,4.2662281216e+000,3.6576328603e+000,3.9171935540e+000,3.8345124939e+000,3.7839396662e+000,
3.1312500000e+001,4.3452225206e+000,4.4479021901e+000,3.5364943707e+000,3.7845338944e+000,4.0094392063e+000,4.3255688706e+000,3.6529914835e+000,4.2947082632e+000,3.4608180859e+000,4.2534023373e+000,3.7902481017e+000,3.9438706252e+000,3.8270422682e+000,3.8246513235e+000,
3.1406250000e+001,4.3087615357e+000,4.5040334939e+000,3.4706549788e+000,3.8038935266e+000,4.0161923752e+000,4.3536691774e+000,3.6357153719e+000,4.3494899616e+000,3.4825162321e+000,4.3647306826e+000,3.9044109530e+000,4.0263464221e+000,3.8646723322e+000,4.0694421781e+000,
3.1500000000e+001,4.3231204486e+000,4.7272051824e+000,3.4762299208e+000,3.9228763834e+000,3.9370246812e+000,4.3639101069e+000,3.6694748009e+000,4.3535404147e+000,3.4828809036e+000,4.3183171562e+000,3.8862454876e+000,4.0276894253e+000,3.8035101117e+000,4.3447126896e+000,
3.1593750000e+001,4.3333928981e+000,4.7205112682e+000,3.5378219451e+000,4.0353862850e+000,3.7842462180e+000,4.4081642180e+000,3.6860333357e+000,4.4006166158e+000,3.5299245451e+000,4.3833502305e+000,3.8823797936e+000,4.0819478808e+000,3.7376916018e+000,4.3385362982e+000,
3.1687500000e+001,4.2980893780e+000,4.6734432594e+000,3.7378303267e+000,3.9922403497e+000,3.7477762902e+000,4.4975699785e+000,3.5395658601e+000,4.3767050831e+000,3.6233722770e+000,4.3766865846e+000,3.9333817262e+000,4.0763354642e+000,3.7858764292e+000,4.3432036255e+000,
3.1781250000e+001,4.2922748209e+000,4.6554618415e+000,3.9670318858e+000,3.9279550372e+000,3.6728718060e+000,4.4438446091e+000,3.5708160672e+000,4.3387868470e+000,3.5779338705e+000,4.3926448114e+000,3.9492748922e+000,4.1057272214e+000,3.8112309856e+000,4.3231535226e+000,
3.1875000000e+001,4.3180092033e+000,4.6952637500e+000,4.0083151714e+000,3.9562087274e+000,3.5681201055e+000,4.4425456065e+000,3.4488337976e+000,4.3399145586e+000,3.6256289832e+000,4.3962410128e+000,3.9978156037e+000,3.9942981008e+000,3.7946693731e+000,4.2901409487e+000,
3.1968750000e+001,4.3345178756e+000,4.6723895750e+000,4.0361778958e+000,3.9694518690e+000,3.6438523763e+000,4.4550824212e+000,3.4721322925e+000,4.3732659100e+000,3.6405477883e+000,4.4426799025e+000,3.9840718710e+000,4.0636423100e+000,3.8251610716e+000,4.3779503564e+000,
3.2062500000e+001,4.3175796162e+000,4.6121238388e+000,4.1092513826e+000,3.9085383532e+000,3.6417244311e+000,4.3822511741e+000,3.4814975256e+000,4.2327627378e+000,3.6561596067e+000,4.4119461161e+000,3.9565420032e+000,4.0044524359e+000,3.6741532979e+000,4.3170129286e+000,
3.2156250000e+001,4.2378097460e+000,4.5935916023e+000,4.1750581311e+000,3.9130724803e+000,3.6748993580e+000,4.4218346044e+000,3.3520173932e+000,4.2432912975e+000,3.6504659231e+000,4.4650064329e+000,3.8337855332e+000,3.9729427694e+000,3.5663066426e+000,4.2816959678e+000,
3.2250000000e+001,4.3350302246e+000,4.6588522867e+000,4.1503788464e+000,3.9358262422e+000,3.6468257043e+000,4.3605267464e+000,3.1278825020e+000,4.2172956338e+000,3.2815391087e+000,4.4522908108e+000,3.5782702899e+000,4.0409036493e+000,3.4880899230e+000,4.3099034272e+000,
3.2343750000e+001,4.3029254530e+000,4.6587578618e+000,4.1499596702e+000,3.8941806945e+000,3.6664073187e+000,4.3397349519e+000,3.1962579910e+000,4.2455079404e+000,3.2341356783e+000,4.3231418168e+000,3.5380506542e+000,4.0271762295e+000,3.5343278304e+000,4.2616563879e+000,
3.2437500000e+001,4.3084448476e+000,4.6776215026e+000,4.1338634553e+000,3.8696256135e+000,3.7216199189e+000,4.3395834795e+000,3.2899764599e+000,4.2561215068e+000,3.2754318843e+000,4.3353081960e+000,3.4092017300e+000,4.0045536639e+000,3.4271919856e+000,3.8620003083e+000,
3.2531250000e+001,4.3411253621e+000,4.4683228237e+000,4.0816796929e+000,3.6985637015e+000,3.7122822486e+000,4.2730288547e+000,3.2098715190e+000,4.2645361907e+000,3.2999838455e+000,4.3256273518e+000,3.4280278405e+000,3.9641270200e+000,3.4199498475e+000,3.6699457043e+000,
3.2625000000e+001,4.3060141689e+000,4.3701507585e+000,4.0541095933e+000,3.6322977685e+000,3.7799331963e+000,4.2304502122e+000,3.2668360395e+000,4.1922512187e+000,3.2331467874e+000,4.2854626989e+000,3.3390919883e+000,3.9138833891e+000,3.4310790114e+000,3.6200072700e+000,
3.2718750000e+001,4.2817393173e+000,4.3229967609e+000,3.7650569861e+000,3.5753000351e+000,3.8432544536e+000,4.0807968632e+000,3.2864824989e+000,4.1508084222e+000,3.2523012071e+000,4.1642259543e+000,3.2925315069e+000,3.8662576368e+000,3.4247341886e+000,3.6584700251e+000,
3.2812500000e+001,4.2853717750e+000,4.2375132423e+000,3.6126697295e+000,3.4822800256e+000,3.8345033069e+000,4.0687453723e+000,3.2812581071e+000,4.1388953721e+000,3.2363538974e+000,4.1192755926e+000,3.1913381399e+000,3.8219271322e+000,3.3664622609e+000,3.6739791616e+000,
3.2906250000e+001,4.3829255529e+000,4.3727630274e+000,3.6203596928e+000,3.5124726187e+000,3.8604008359e+000,4.1710560002e+000,3.3239070453e+000,4.0588688070e+000,3.1848226152e+000,4.0540666255e+000,3.2797456625e+000,3.7859386063e+000,3.4161375576e+000,3.5581714838e+000,
3.3000000000e+001,4.3998663500e+000,4.5052154512e+000,3.5820346039e+000,3.5701152189e+000,3.8283262631e+000,4.2353505285e+000,3.3279664265e+000,4.0681309627e+000,3.1676526447e+000,4.0666279317e+000,3.3726021748e+000,3.7258740715e+000,3.3768318280e+000,3.3909411919e+000,
3.3093750000e+001,4.3482630886e+000,4.5045466267e+000,3.3876910438e+000,3.4841554430e+000,3.9151463302e+000,4.2452289576e+000,3.3798539389e+000,4.0609930563e+000,3.1122705161e+000,3.9663283388e+000,3.3601843855e+000,3.5881340208e+000,3.4186355894e+000,3.3493693160e+000,
3.3187500000e+001,4.4246378533e+000,4.7105764838e+000,3.4037629815e+000,3.4891963054e+000,3.9051351942e+000,4.2289626537e+000,3.4625390324e+000,4.0760533046e+000,3.1044945910e+000,3.9572260601e+000,3.3467104052e+000,3.9055698491e+000,3.4052388877e+000,3.4706006342e+000,
3.3281250000e+001,4.3779442012e+000,4.6685805430e+000,3.4417383877e+000,3.4215082475e+000,3.9185546915e+000,4.2269948181e+000,3.4617781545e+000,4.0141380822e+000,3.0209086279e+000,3.8976605439e+000,3.3205196454e+000,3.8069657701e+000,3.3462004041e+000,3.4060667623e+000,
3.3375000000e+001,4.3304025944e+000,4.5819226586e+000,3.3705552305e+000,3.3241804602e+000,3.8542801791e+000,4.1163753573e+000,3.3529266146e+000,3.8116009274e+000,2.8712410767e+000,3.8608374000e+000,3.3169660046e+000,3.7555941189e+000,3.4880738849e+000,3.4079255377e+000,
3.3468750000e+001,4.2506713556e+000,4.6373471478e+000,3.3888651803e+000,3.2920732415e+000,3.8428000907e+000,4.2621356355e+000,3.2478529522e+000,3.8328854463e+000,2.8285276990e+000,3.7740743303e+000,3.3173347662e+000,3.7785497704e+000,3.4568402591e+000,3.2983258769e+000,
3.3562500000e+001,4.1970868341e+000,4.6514887082e+000,3.4275814229e+000,3.2438276182e+000,3.8313339785e+000,4.2614404359e+000,3.2395601765e+000,3.8224938083e+000,2.8125317997e+000,3.7682043527e+000,3.2639745320e+000,3.7789044413e+000,3.4558005538e+000,3.3201694451e+000,
3.3656250000e+001,4.1652713690e+000,4.6428259793e+000,3.5232594301e+000,3.2833269720e+000,3.6643031040e+000,4.1551395129e+000,3.0924929176e+000,3.7720623798e+000,2.6198752269e+000,3.7643611729e+000,3.3461077335e+000,3.7016420662e+000,3.5467587495e+000,3.3045513112e+000,
3.3750000000e+001,4.1589826617e+000,4.7185624447e+000,3.6132689048e+000,3.3822464361e+000,3.6969135897e+000,4.1463420588e+000,3.0884010593e+000,3.8455436121e+000,2.5307440466e+000,3.8013555737e+000,3.3707600350e+000,3.7753808199e+000,3.5166439285e+000,3.2966451228e+000,
3.3843750000e+001,4.2413778886e+000,4.7300718472e+000,3.6123150876e+000,3.4672631122e+000,3.7059255566e+000,4.1484841266e+000,3.1112259557e+000,3.8660900533e+000,2.5146551103e+000,3.7940747362e+000,3.2714292823e+000,3.7560052948e+000,3.4499879551e+000,3.2753980161e+000,
3.3937500000e+001,4.1630810404e+000,4.6392321639e+000,3.5853021897e+000,3.4133644637e+000,3.7126874860e+000,4.0189319875e+000,3.0803356919e+000,3.8915951602e+000,2.4210171060e+000,3.7511615386e+000,3.3239199049e+000,3.7234057654e+000,3.5528078053e+000,3.2151683207e+000,
3.4031250000e+001,4.2747039250e+000,4.5956035273e+000,3.5461272622e+000,3.3770337537e+000,3.7041904091e+000,3.9159608308e+000,3.1842035421e+000,3.8996528258e+000,2.5984884032e+000,3.8110575860e+000,3.2890697647e+000,3.7291543797e+000,3.5293839818e+000,3.1911432922e+000,
3.4125000000e+001,4.2174431723e+000,4.5630795288e+000,3.4297759317e+000,3.4299328999e+000,3.6488322323e+000,3.9268630898e+000,3.0925668172e+000,3.7906477100e+000,2.6521821594e+000,3.7001812709e+000,3.2426198546e+000,3.6304498456e+000,3.4626927810e+000,3.2248905311e+000,
3.4218750000e+001,4.2320410596e+000,4.3556849786e+000,3.4908953316e+000,3.5168212632e+000,3.7128230902e+000,3.9671967987e+000,2.9675386196e+000,3.8684635932e+000,2.6289945675e+000,3.7212777014e+000,3.2466670745e+000,3.3097893395e+000,3.4663566145e+000,3.0211195026e+000,
3.4312500000e+001,4.2495003573e+000,4.3351161713e+000,3.4813919842e+000,3.4755267942e+000,3.6569777280e+000,3.9987240322e+000,2.9430570141e+000,3.9171706823e+000,2.5808738008e+000,3.7303138239e+000,3.2539020350e+000,3.3607062207e+000,3.3566167859e+000,2.9757627740e+000,
3.4406250000e+001,4.3498083148e+000,4.4054674013e+000,3.5110316428e+000,3.5144269495e+000,3.5884414958e+000,3.9436045930e+000,2.9347105468e+000,3.9296139611e+000,2.5973911548e+000,3.7389754923e+000,3.2717248433e+000,3.3570985501e+000,3.4012326757e+000,2.8753173260e+000,
3.4500000000e+001,4.6102008075e+000,4.4435515220e+000,3.6222231830e+000,3.5244957877e+000,3.7174449200e+000,3.9056561996e+000,3.1282704047e+000,3.9354726017e+000,2.6752676557e+000,3.9026083620e+000,3.2811289623e+000,3.3511635173e+000,3.4412512007e+000,2.9437581514e+000,
3.4593750000e+001,4.6333302525e+000,4.4760382387e+000,3.5862445463e+000,3.5651944959e+000,3.7981500296e+000,4.0139773128e+000,3.2885166172e+000,4.0156309966e+000,2.8536912052e+000,3.9491465848e+000,3.2325835595e+000,3.4393206716e+000,3.3078689277e+000,2.9983064316e+000,
3.4687500000e+001,4.6754308700e+000,4.4489011526e+000,3.5034867753e+000,3.4982605188e+000,3.7369287882e+000,3.9711586261e+000,3.2982591753e+000,3.8862300678e+000,2.8762707552e+000,3.8565507651e+000,3.1658849595e+000,3.3461113542e+000,3.2360307821e+000,3.0150152445e+000,
3.4781250000e+001,4.6062748874e+000,4.3165825504e+000,3.3755522984e+000,3.3961857065e+000,3.7250975317e+000,3.9460601515e+000,3.2800310779e+000,3.8256728706e+000,2.9170623920e+000,3.8618604908e+000,3.1598737412e+000,3.3364312461e+000,3.1774575210e+000,3.0251864037e+000,
3.4875000000e+001,4.6356165303e+000,4.2632246055e+000,3.3492734423e+000,3.3949829239e+000,3.7595660955e+000,3.9502677557e+000,3.3046746153e+000,3.7928777394e+000,2.9819637193e+000,3.8569130688e+000,3.0880372458e+000,3.3126376755e+000,3.1818967761e+000,2.9979800633e+000,
3.4968750000e+001,4.5952364783e+000,4.2959083704e+000,3.3598769077e+000,3.3947608154e+000,3.6982609858e+000,3.9182476603e+000,3.2957223190e+000,3.7401175815e+000,3.0227429012e+000,3.8946002849e+000,2.9153536772e+000,3.4382067919e+000,3.0860777734e+000,3.0695320313e+000,
3.5062500000e+001,4.5312420340e+000,4.3757685974e+000,3.4219230145e+000,3.5152618600e+000,3.6648728592e+000,3.9445640392e+000,3.2015482139e+000,3.7805432183e+000,2.9678548655e+000,3.8691088006e+000,2.9230179321e+000,3.4555010591e+000,3.0918379654e+000,3.1218327274e+000,
3.5156250000e+001,4.5044852810e+000,4.2778102388e+000,3.4464069421e+000,3.3830655960e+000,3.5369658976e+000,3.7656624976e+000,3.1889092630e+000,3.6633657354e+000,2.9147304046e+000,3.8165611067e+000,2.9532942921e+000,3.4450461047e+000,3.1292006571e+000,3.1976246856e+000,
3.5250000000e+001,4.4316699313e+000,4.2779880177e+000,3.4556877394e+000,3.3892970334e+000,3.4890067975e+000,3.7585986333e+000,3.2593851915e+000,3.6474917077e+000,2.9428274181e+000,3.8756738575e+000,2.9155927949e+000,3.4904512899e+000,3.0849841774e+000,3.2356236327e+000,
3.5343750000e+001,4.4393529130e+000,4.2725214455e+000,3.4045421326e+000,3.3910315587e+000,3.5530871329e+000,3.7441319400e+000,3.2826976160e+000,3.6921235828e+000,2.9514041509e+000,3.9388672705e+000,3.0183325546e+000,3.5427164038e+000,3.1294139570e+000,3.3255805396e+000,
3.5437500000e+001,4.1957230448e+000,4.1555267591e+000,3.3117774268e+000,3.2970179808e+000,3.4573059152e+000,3.7905466233e+000,3.1632534711e+000,3.7921334903e+000,2.9568451868e+000,3.9900421738e+000,2.9465638160e+000,3.6992962741e+000,3.1132952775e+000,3.3776701049e+000,
3.5531250000e+001,4.0915646872e+000,3.9940764543e+000,3.1660973386e+000,3.3006739791e+000,3.5782423019e+000,3.7978068122e+000,3.2568743085e+000,3.8163238649e+000,3.0078822811e+000,3.9822192600e+000,2.9383209872e+000,3.7754318045e+000,3.3062022541e+000,3.3378318128e+000,
3.5625000000e+001,4.0759362490e+000,3.9291433656e+000,3.2020479564e+000,3.2534644980e+000,3.4851893571e+000,3.7212121809e+000,3.1683065466e+000,3.7178564925e+000,2.9488987497e+000,3.9655820610e+000,2.9949197502e+000,3.7260344312e+000,3.4256702525e+000,3.3023328263e+000,
3.5718750000e+001,4.1278340010e+000,4.0210029478e+000,3.1683757761e+000,3.2995568671e+000,3.4865645229e+000,3.7935229784e+000,3.1777175462e+000,3.7517777370e+000,2.9815471082e+000,4.0138005482e+000,3.0078256878e+000,3.8032447593e+000,3.4322646283e+000,3.2689965546e+000,
3.5812500000e+001,4.3414577348e+000,4.0225836747e+000,3.1109485339e+000,3.3039887912e+000,3.6058223368e+000,3.9285612998e+000,3.2327613372e+000,3.8154143493e+000,2.8594107651e+000,4.0477405625e+000,3.0270784859e+000,3.8318627942e+000,3.4862731320e+000,3.3720330541e+000,
3.5906250000e+001,4.3635615030e+000,4.1104809144e+000,3.1017512906e+000,3.3359215001e+000,3.6281964759e+000,4.1725342648e+000,3.3606858582e+000,3.9085972659e+000,2.8746486486e+000,4.1478988563e+000,3.1776972987e+000,3.9180853605e+000,3.6211517638e+000,3.4765305386e+000,
3.6000000000e+001,4.3716619280e+000,4.0419846742e+000,3.1122434599e+000,3.2050553874e+000,3.6720925251e+000,4.1090510082e+000,3.3565012883e+000,3.8858163968e+000,2.8349668586e+000,4.1028761113e+000,3.1949268884e+000,3.8591913625e+000,3.6319364990e+000,3.5268039509e+000,
3.6093750000e+001,4.4085375157e+000,4.0060975036e+000,3.0812707477e+000,3.1702852328e+000,3.6700803722e+000,4.1958266339e+000,3.3714148071e+000,3.9323277605e+000,2.9021861570e+000,4.1420162056e+000,3.2263271512e+000,3.9568447118e+000,3.6697542314e+000,3.4782736723e+000,
3.6187500000e+001,4.4103878964e+000,4.0470163868e+000,2.9726641971e+000,3.0361023831e+000,3.6378348409e+000,4.1950941565e+000,3.3771359205e+000,3.9122840970e+000,2.8877132465e+000,4.1204773863e+000,3.2709138033e+000,3.9139751501e+000,3.6961506588e+000,3.3917284010e+000,
3.6281250000e+001,4.5149733406e+000,4.0723314353e+000,3.0698085376e+000,3.0170097796e+000,3.6752147910e+000,4.1333349258e+000,3.4626629265e+000,3.9227317081e+000,2.9729654400e+000,4.1095589356e+000,3.3046588036e+000,3.8949213307e+000,3.7550531488e+000,3.4695034513e+000,
3.6375000000e+001,4.4873172313e+000,4.0096740328e+000,3.1613291198e+000,3.0520177569e+000,3.6958767335e+000,4.1073631198e+000,3.4501404450e+000,3.8338971683e+000,3.0081575932e+000,4.0761585299e+000,3.3480861058e+000,3.9000192434e+000,3.7052686525e+000,3.4086930189e+000,
3.6468750000e+001,4.4513981408e+000,4.0562893016e+000,3.1818807761e+000,3.0158341056e+000,3.6147841864e+000,4.0422704274e+000,3.4078376265e+000,3.7602813826e+000,2.9935060371e+000,4.0687685107e+000,3.4222222081e+000,3.8164650067e+000,3.6848418242e+000,3.5262855977e+000,
3.6562500000e+001,4.3911056893e+000,4.0951759394e+000,3.1011546461e+000,3.0094017843e+000,3.5349283827e+000,4.0418714846e+000,3.2789701527e+000,3.7458208060e+000,2.7905500853e+000,3.9715710045e+000,3.3633218369e+000,3.7415414040e+000,3.6157228740e+000,3.5341570809e+000,
3.6656250000e+001,4.4678017816e+000,4.2182436782e+000,3.1993938788e+000,3.1814745748e+000,3.6465266391e+000,4.1539415316e+000,3.4305750223e+000,3.9440212155e+000,2.8169321524e+000,4.1563626637e+000,3.3380302066e+000,3.8068706272e+000,3.6090250120e+000,3.5000588472e+000,
3.6750000000e+001,4.2739800747e+000,4.2289779468e+000,3.6985321930e+000,3.4885607030e+000,3.7606725813e+000,4.2057337890e+000,3.4877487447e+000,4.0623466461e+000,3.0000005654e+000,4.2726574931e+000,3.3801797017e+000,3.8449293443e+000,3.6396040441e+000,3.5268748897e+000,
3.6843750000e+001,4.1749677100e+000,4.2840382733e+000,4.1222449008e+000,3.7131304977e+000,3.7567072692e+000,4.1681710781e+000,3.6031067448e+000,4.2092989921e+000,3.3262801204e+000,4.4550660119e+000,3.4700693693e+000,4.0254119137e+000,3.6425735428e+000,3.5742496080e+000,
3.6937500000e+001,4.2060281636e+000,4.2440068310e+000,4.1673090557e+000,3.6962686664e+000,3.7526618236e+000,4.0056987745e+000,3.5288777388e+000,4.1903666342e+000,3.3263525522e+000,4.4075153723e+000,3.4596613001e+000,3.9598356273e+000,3.5193570889e+000,3.4399252329e+000,
3.7031250000e+001,4.1931170148e+000,4.3073534683e+000,4.1929057617e+000,3.7149465964e+000,3.7568691862e+000,4.0381898120e+000,3.5437189055e+000,4.2192570409e+000,3.3149004904e+000,4.4506088199e+000,3.4895771725e+000,3.9338974612e+000,3.5484039405e+000,3.4300528946e+000,
3.7125000000e+001,4.1966067664e+000,4.2927181879e+000,4.1939516395e+000,3.7167894946e+000,3.8270020416e+000,3.9669523344e+000,3.5565770525e+000,4.1729588194e+000,3.3141804064e+000,4.4641181686e+000,3.4218375081e+000,3.8779247965e+000,3.4593174163e+000,3.4325954083e+000,
3.7218750000e+001,4.2367171474e+000,4.3502879150e+000,4.1822372488e+000,3.7259030899e+000,3.8968829754e+000,4.0119754082e+000,3.6115447373e+000,4.1694507924e+000,3.3416485931e+000,4.4652764662e+000,3.4129187485e+000,3.9026355849e+000,3.4212813445e+000,3.4658150339e+000,
3.7312500000e+001,4.1670889229e+000,4.3259721061e+000,4.1204512014e+000,3.6955433506e+000,3.8462843155e+000,4.0319112117e+000,3.5029776786e+000,4.1395714260e+000,3.2342559703e+000,4.4572676176e+000,3.3836898458e+000,3.8910626260e+000,3.3337007704e+000,3.4632870318e+000,
3.7406250000e+001,4.2400004198e+000,4.3191024708e+000,4.1464317707e+000,3.6854113594e+000,3.9383138803e+000,4.0161857729e+000,3.5392358397e+000,4.0756889989e+000,3.2271044937e+000,4.3715758206e+000,3.2725354578e+000,3.7707226270e+000,3.2758966672e+000,3.3892736317e+000,
3.7500000000e+001,4.3390220629e+000,4.3410890291e+000,4.1376794861e+000,3.7444421358e+000,4.0454371013e+000,4.0317829328e+000,3.5831349151e+000,4.0778350220e+000,3.2380540817e+000,4.3940699300e+000,3.3239801060e+000,3.7385408175e+000,3.2766413748e+000,3.2473662346e+000,
3.7593750000e+001,4.3397419266e+000,4.2653951881e+000,4.1131439126e+000,3.7166157661e+000,3.9826366234e+000,3.9093792831e+000,3.4982708475e+000,4.0433516723e+000,3.2577168679e+000,4.3913103529e+000,3.3339835304e+000,3.7205214017e+000,3.2055974146e+000,3.2116421227e+000,
3.7687500000e+001,4.2864492901e+000,4.1684180525e+000,4.0792857574e+000,3.5843418657e+000,3.9326330419e+000,3.7175351317e+000,3.4258886713e+000,3.8882769626e+000,3.2068523739e+000,4.2086725676e+000,3.3205390150e+000,3.5886083127e+000,3.1325636641e+000,3.1274047759e+000,
3.7781250000e+001,4.2887504085e+000,4.2707454596e+000,3.4316160429e+000,3.3047997063e+000,3.9200391496e+000,3.6114148752e+000,3.2110569134e+000,3.6848661250e+000,2.8022741413e+000,3.9285969663e+000,3.1965607265e+000,3.4155357935e+000,3.0496059170e+000,3.0286982698e+000,
3.7875000000e+001,4.2383840770e+000,4.2807307278e+000,3.0863241708e+000,3.1340820804e+000,3.8259715846e+000,3.5918472683e+000,3.0366672813e+000,3.5667572084e+000,2.5575093744e+000,3.9108449555e+000,3.1863441218e+000,3.3109801044e+000,3.1175606816e+000,3.0107914327e+000,
3.7968750000e+001,4.2692115058e+000,4.2058747264e+000,2.9550707617e+000,3.0819531611e+000,3.9637952276e+000,3.6047671424e+000,3.1510104526e+000,3.5086837177e+000,2.5092071113e+000,3.9266829524e+000,3.1134410857e+000,3.2837243248e+000,3.0727429685e+000,3.0107312620e+000,
3.8062500000e+001,4.1860859115e+000,4.1725732107e+000,2.9088371100e+000,3.0587564563e+000,3.9963209688e+000,3.5706003807e+000,3.1276707084e+000,3.5629788295e+000,2.4640513421e+000,3.8872972664e+000,3.1441235202e+000,3.2637950729e+000,3.1838483941e+000,2.9951907957e+000,
3.8156250000e+001,4.1624703287e+000,4.1332571954e+000,2.8013365775e+000,3.0687453747e+000,3.8937337153e+000,3.5265238922e+000,3.0312456854e+000,3.6035798134e+000,2.4273935837e+000,3.8372195140e+000,3.1707645751e+000,3.2483688227e+000,3.1979640002e+000,3.0312133572e+000,
3.8250000000e+001,4.0588676712e+000,4.1020473902e+000,2.8213522065e+000,3.0798100862e+000,3.8428498936e+000,3.5032726133e+000,2.9757883903e+000,3.6073549803e+000,2.4039698967e+000,3.8715484204e+000,3.2003528858e+000,3.4057706381e+000,3.2675504480e+000,3.1548217528e+000,
3.8343750000e+001,4.0446786222e+000,4.0514587027e+000,2.9487372554e+000,3.0938955549e+000,3.7287179742e+000,3.4283262994e+000,2.8880356066e+000,3.6058841996e+000,2.3186157146e+000,3.8492546642e+000,3.1140275058e+000,3.4334221157e+000,3.3135533618e+000,3.1998995258e+000,
3.8437500000e+001,3.9248209789e+000,4.1522693514e+000,3.1690373257e+000,3.1359034733e+000,3.8029033466e+000,3.5340081587e+000,3.0548739016e+000,3.6911712389e+000,2.5684336003e+000,3.9004411037e+000,3.0666123972e+000,3.5848490285e+000,3.2735879955e+000,3.3749833936e+000,
3.8531250000e+001,3.7869781634e+000,4.1651840146e+000,3.2225337284e+000,3.0546851906e+000,3.7089977664e+000,3.5469494799e+000,3.0131954939e+000,3.6750099108e+000,2.5287403249e+000,3.9085012082e+000,3.0055434259e+000,3.6278465915e+000,3.2536854918e+000,3.4571560760e+000,
3.8625000000e+001,3.7977889573e+000,4.1820792601e+000,3.2352444433e+000,3.0677611503e+000,3.7724821538e+000,3.6184487691e+000,3.0685427789e+000,3.6711324514e+000,2.6530378311e+000,3.9029167045e+000,2.9664942494e+000,3.6205675191e+000,3.2560735891e+000,3.4448275610e+000,
3.8718750000e+001,3.8091472514e+000,4.1556724553e+000,3.2661469573e+000,3.0706682410e+000,3.7343912508e+000,3.6463973368e+000,3.1299720624e+000,3.6738994482e+000,2.6192196766e+000,3.8937105516e+000,3.0082077713e+000,3.6128863760e+000,3.2973327759e+000,3.4932340047e+000,
3.8812500000e+001,3.8503241762e+000,4.0491348710e+000,3.2533066898e+000,3.0492854505e+000,3.7035787074e+000,3.6230436075e+000,3.1597679774e+000,3.5562944250e+000,2.5781929081e+000,3.8249232738e+000,3.0070849308e+000,3.5882681031e+000,3.4531912120e+000,3.4720962819e+000,
3.8906250000e+001,3.7865058233e+000,4.0145349365e+000,3.2764984589e+000,3.1248390358e+000,3.6057898206e+000,3.5687660571e+000,3.0001392788e+000,3.6005678335e+000,2.5913960686e+000,3.7337097529e+000,3.0555479551e+000,3.5772422765e+000,3.3706262309e+000,3.4436903011e+000,
3.9000000000e+001,3.8377017421e+000,4.0442194097e+000,3.1944716626e+000,3.1208323014e+000,3.3900465383e+000,3.6682369557e+000,2.9174458190e+000,3.5904665746e+000,2.5483882370e+000,3.6943527422e+000,3.0008548251e+000,3.5772813948e+000,3.3300323823e+000,3.4392096509e+000,
3.9093750000e+001,4.0590610972e+000,4.0748167718e+000,3.2858163438e+000,3.0774496554e+000,3.3875858051e+000,3.7098063387e+000,3.0137497213e+000,3.5314121586e+000,2.4704184848e+000,3.6864761134e+000,2.9229804900e+000,3.5548736678e+000,3.2237498320e+000,3.4110280810e+000,
3.9187500000e+001,4.0334451878e+000,4.1328361716e+000,3.4759956182e+000,3.1315539524e+000,3.4153135224e+000,3.7296467747e+000,3.0545943896e+000,3.4858237286e+000,2.5033445801e+000,3.6863430296e+000,2.8582987642e+000,3.5728068770e+000,3.2679156079e+000,3.5253382401e+000,
3.9281250000e+001,4.1261628430e+000,4.1905933918e+000,3.5091406963e+000,3.2057765875e+000,3.4821079343e+000,3.7730430328e+000,3.0046097989e+000,3.5475133406e+000,2.5197561659e+000,3.6837322569e+000,2.8312543081e+000,3.6022248293e+000,3.1896083607e+000,3.4745789965e+000,
3.9375000000e+001,4.4061496047e+000,4.5266092986e+000,3.3229994753e+000,3.2863231261e+000,3.6566302012e+000,3.8973455812e+000,2.9940953517e+000,3.4796698780e+000,2.4729334381e+000,3.5678960571e+000,2.9862042457e+000,3.5114771245e+000,3.3542826966e+000,3.4229572319e+000,
3.9468750000e+001,4.5297934538e+000,4.6088307142e+000,3.3854172652e+000,3.4111218632e+000,3.7436238403e+000,3.9644237334e+000,2.9607939240e+000,3.5804820909e+000,2.2962570202e+000,3.5580365822e+000,3.1077185508e+000,3.5123166917e+000,3.4064261962e+000,3.4324587795e+000,
3.9562500000e+001,4.6059260894e+000,4.6184441474e+000,3.4007220203e+000,3.4279590456e+000,3.7290332907e+000,4.0031584490e+000,2.9330809863e+000,3.6109419078e+000,2.2314506463e+000,3.5647287030e+000,3.0769204066e+000,3.4861696647e+000,3.3855958194e+000,3.4722928219e+000,
3.9656250000e+001,4.6381060181e+000,4.7043616135e+000,3.4055489109e+000,3.4350914373e+000,3.8228710046e+000,4.0413035547e+000,3.0506879458e+000,3.5964749504e+000,2.2183742576e+000,3.5303175921e+000,3.1122617469e+000,3.5364380586e+000,3.4850853672e+000,3.7618930102e+000,
3.9750000000e+001,4.6080685845e+000,4.6725455036e+000,3.3735796160e+000,3.3869742272e+000,3.8100776180e+000,4.0637106812e+000,2.9971277128e+000,3.6511729208e+000,2.3132418307e+000,3.5818649788e+000,3.1078567160e+000,3.5047649905e+000,3.4145362884e+000,3.7193920049e+000,
3.9843750000e+001,4.6062300279e+000,4.6774684226e+000,3.4860029557e+000,3.4347484982e+000,3.8510511035e+000,4.1273520078e+000,3.0319974692e+000,3.7471137354e+000,2.2979795587e+000,3.5952944485e+000,3.0609263761e+000,3.5648853882e+000,3.2729232430e+000,3.7803754209e+000,
3.9937500000e+001,4.6048585967e+000,4.6705644393e+000,3.4569757129e+000,3.4047643780e+000,3.8088222733e+000,4.1913082308e+000,3.0731500365e+000,3.7173616932e+000,2.3017216282e+000,3.6309565605e+000,3.0813395185e+000,3.6340313454e+000,3.3335518045e+000,3.7972636355e+000,
4.0031250000e+001,4.6520211806e+000,4.7506220073e+000,3.5503212192e+000,3.5551759377e+000,3.8931567894e+000,4.2972787318e+000,3.1505039401e+000,3.8283390965e+000,2.4157955735e+000,3.7469963568e+000,3.0801466242e+000,3.7207458545e+000,3.4607371769e+000,3.8405581314e+000,
4.0125000000e+001,4.6595008136e+000,4.8688991550e+000,3.5434524290e+000,3.7199109332e+000,3.9474173556e+000,4.5134589414e+000,3.0608252205e+000,3.9363938932e+000,2.4483263446e+000,3.8239703589e+000,3.0611720859e+000,3.7651906323e+000,3.4888299861e+000,3.9197738976e+000,
4.0218750000e+001,4.6181508614e+000,4.8255038951e+000,3.4393080297e+000,3.7120409823e+000,3.9294117275e+000,4.5454433632e+000,3.0773580677e+000,3.9943773065e+000,2.5012370326e+000,3.8149161185e+000,3.1157355145e+000,3.7618934381e+000,3.4989224003e+000,3.8491819042e+000,
4.0312500000e+001,4.5760135292e+000,4.8503787096e+000,3.4967718746e+000,3.7039705313e+000,3.8860431641e+000,4.5640415720e+000,3.1291560212e+000,4.0824940218e+000,2.5028462771e+000,3.9204063129e+000,3.1279400431e+000,3.7722014660e+000,3.4861247620e+000,3.8662757366e+000,
4.0406250000e+001,4.6599422656e+000,4.6791329174e+000,4.0621735881e+000,3.6703997980e+000,4.0484213979e+000,4.5484867429e+000,3.3544731813e+000,4.0738666663e+000,2.5542096113e+000,3.9727969944e+000,3.0664972706e+000,3.8436631832e+000,3.4141743836e+000,3.8701762319e+000,
4.0500000000e+001,4.6559430135e+000,4.5283296637e+000,4.0704367217e+000,3.5125818028e+000,3.9507631103e+000,4.4604288870e+000,3.2740551602e+000,4.0206424317e+000,2.6884507143e+000,3.9440354339e+000,3.0931336954e+000,3.8374203082e+000,3.4828583070e+000,3.8331784879e+000,
4.0593750000e+001,4.5441371688e+000,4.4922591254e+000,4.0674560741e+000,3.5013773589e+000,3.8864011709e+000,4.4093917966e+000,3.2048715878e+000,3.9497242733e+000,2.7094684139e+000,3.9352128760e+000,3.0572168394e+000,3.8206116810e+000,3.4549794962e+000,3.6045957057e+000,
4.0687500000e+001,4.5914965011e+000,4.5627245121e+000,4.1666466674e+000,3.5169389935e+000,3.8822671515e+000,4.4207719529e+000,3.1351909483e+000,4.0063574763e+000,2.6656627307e+000,3.9846931681e+000,2.9873386185e+000,3.8368049976e+000,3.4564736809e+000,3.5625505498e+000,
4.0781250000e+001,4.6711037384e+000,4.5591624388e+000,4.2875976026e+000,3.6533316024e+000,3.9427626904e+000,4.4585052031e+000,3.2728074322e+000,4.0623649277e+000,2.7885528288e+000,4.0519283053e+000,2.9652916131e+000,3.8675089516e+000,3.4630911933e+000,3.5859338155e+000,
4.0875000000e+001,4.7185120158e+000,4.6449620044e+000,4.3385658999e+000,3.6184779764e+000,3.9602449930e+000,4.3787549120e+000,3.3488474026e+000,3.9975437123e+000,2.8819998736e+000,4.0232132919e+000,2.8988183493e+000,3.9287501572e+000,3.4505252686e+000,3.6806334020e+000,
4.0968750000e+001,4.8053196176e+000,4.6556345507e+000,4.4323148463e+000,3.6230742971e+000,4.1779035061e+000,4.3999303016e+000,3.5629962848e+000,4.0771624610e+000,2.9576194908e+000,4.0681531319e+000,2.8859323436e+000,3.9418636868e+000,3.4280884590e+000,3.8041355473e+000,
4.1062500000e+001,4.7038555046e+000,4.4986431071e+000,4.3967211474e+000,3.4578844121e+000,4.1831571060e+000,4.2820858673e+000,3.5440983656e+000,4.0018038946e+000,2.9109111449e+000,4.0103166354e+000,2.9211780503e+000,3.8562218646e+000,3.2929165884e+000,3.7395047273e+000,
4.1156250000e+001,4.6784212229e+000,4.4987651877e+000,4.4041335230e+000,3.4625617079e+000,4.1384186376e+000,3.9881494422e+000,3.5517833552e+000,3.9443920324e+000,2.9737075251e+000,4.0065763343e+000,2.8859292466e+000,3.9254471921e+000,3.4010489352e+000,3.7648906094e+000,
