Time (s),AF3,AF4,F3,F4,F7,F8,FC5,FC6,T7,T8,P7,P8,O1,O2,Sampling Rate
0.0000000000e+000,3.6283195487e+000,3.8124323176e+000,3.2212382725e+000,3.5182071610e+000,3.8204442021e+000,4.2125408833e+000,3.3838394861e+000,3.8029407565e+000,3.5101706316e+000,3.9637380235e+000,3.4631584107e+000,3.8468146700e+000,2.9722085944e+000,3.3946540118e+000,1
9.3750000000e-002,3.6200063999e+000,3.7604695283e+000,3.1749527508e+000,3.5121215167e+000,3.7960863206e+000,4.0321587192e+000,3.3419275470e+000,3.7489028231e+000,3.3883513416e+000,3.9956567442e+000,3.2427565115e+000,3.8610559179e+000,2.9607348885e+000,3.4416055887e+000,
1.8750000000e-001,3.6939219158e+000,3.8285617744e+000,3.2187594068e+000,3.5696862297e+000,4.0105478275e+000,3.9976422755e+000,3.3250679444e+000,3.7596690047e+000,3.4352832810e+000,4.0782132487e+000,3.2566077441e+000,3.9012330116e+000,3.1043745480e+000,3.5885405408e+000,
2.8125000000e-001,4.0902680810e+000,4.5145886965e+000,3.3384285732e+000,3.6721455331e+000,4.3859247224e+000,4.6107156890e+000,3.4404858914e+000,3.9939808114e+000,3.4274586046e+000,4.1406443289e+000,3.2505025778e+000,3.9172491416e+000,3.2129294906e+000,3.6004948676e+000,
3.7500000000e-001,4.2744899855e+000,4.7837773859e+000,3.3121038220e+000,3.8093072267e+000,5.8491848545e+000,5.2486233637e+000,3.5838884901e+000,4.1905779373e+000,3.4446185880e+000,4.2836353590e+000,3.3324410712e+000,3.9653616780e+000,3.2086557905e+000,3.5675600972e+000,
4.6875000000e-001,4.2266573576e+000,4.7463125515e+000,3.2318153763e+000,3.7343041226e+000,7.3136747172e+000,5.3079730229e+000,3.6126257480e+000,4.1965303977e+000,3.3478414034e+000,4.1888028596e+000,3.3690612230e+000,3.8622541815e+000,3.3609006645e+000,3.5648661229e+000,
5.6250000000e-001,4.2679654563e+000,4.7673542514e+000,3.3680509943e+000,3.8544213616e+000,7.4725208778e+000,5.5008262714e+000,4.1302935501e+000,4.2958252079e+000,3.3369960908e+000,4.2681948359e+000,3.5464562033e+000,4.0060791071e+000,3.5815557048e+000,3.8072276443e+000,
6.5625000000e-001,4.2986286127e+000,4.7808940865e+000,3.4108088816e+000,3.8574094389e+000,7.4725822660e+000,5.5472988981e+000,4.3488168919e+000,4.3334665570e+000,3.4494747777e+000,4.3460828489e+000,3.6081373124e+000,4.1338035601e+000,3.7276835617e+000,3.9809009486e+000,
7.5000000000e-001,4.3031996700e+000,4.8024027968e+000,3.4224076112e+000,3.8547014984e+000,7.4730561726e+000,5.5490014007e+000,4.3871761443e+000,4.3846888137e+000,3.4135585197e+000,4.3581021351e+000,3.7099347655e+000,4.1367330469e+000,3.7964204110e+000,3.9978022905e+000,
8.4375000000e-001,4.3440186236e+000,4.8068570080e+000,3.3919498835e+000,3.8527743988e+000,7.4840392431e+000,5.5439988236e+000,4.3967907663e+000,4.4200899092e+000,3.3827351449e+000,4.3265997597e+000,3.6661584813e+000,4.1247522319e+000,3.8131943851e+000,3.9932451510e+000,
9.3750000000e-001,4.3664123506e+000,4.8394230623e+000,3.4287271500e+000,3.8872734298e+000,7.4947848684e+000,5.5432141615e+000,4.3953971792e+000,4.4582361108e+000,3.4349388778e+000,4.3422485825e+000,3.6717459584e+000,4.2093199640e+000,3.8744930908e+000,4.0910745760e+000,
1.0312500000e+000,4.3610691773e+000,4.8388027206e+000,3.4732221380e+000,3.8649252721e+000,7.5056989915e+000,5.5469767538e+000,4.4049081803e+000,4.4453599165e+000,3.4765966786e+000,4.3330052554e+000,3.7419191147e+000,4.2141106961e+000,3.9218271422e+000,4.0730329120e+000,
1.1250000000e+000,4.5916106631e+000,4.9620357431e+000,3.5247940595e+000,3.8906271261e+000,7.5287725049e+000,5.5784846119e+000,4.4460194079e+000,4.4376161410e+000,3.4073771356e+000,4.3242227292e+000,3.8157087329e+000,4.2480910998e+000,3.9313062590e+000,4.0797032219e+000,
1.2187500000e+000,4.6673006078e+000,5.0070040676e+000,3.5359921383e+000,3.9013089585e+000,7.5479740145e+000,5.5774433263e+000,4.5172267951e+000,4.4422510733e+000,3.2724398061e+000,4.2840714123e+000,3.8822587096e+000,4.2433670723e+000,3.9369501417e+000,4.0692461010e+000,
1.3125000000e+000,4.2696396519e+000,4.4702314649e+000,3.4130048186e+000,3.8123677388e+000,7.5337520427e+000,5.3664654289e+000,4.4384553311e+000,4.2554783584e+000,3.1798278904e+000,4.2136691837e+000,3.8952762795e+000,4.2222605965e+000,4.0005337570e+000,4.0701140652e+000,
1.4062500000e+000,4.3549922405e+000,4.5012021576e+000,3.5748672330e+000,3.9504200408e+000,6.7868629081e+000,5.3656564589e+000,4.4578088160e+000,4.3377963195e+000,3.2059008867e+000,4.1004593208e+000,3.7861056802e+000,4.1955845797e+000,3.9973608396e+000,4.1138985720e+000,
1.5000000000e+000,4.3566967226e+000,4.5149576914e+000,3.6114339556e+000,3.9379649362e+000,6.1024664331e+000,5.4595030789e+000,4.3024994913e+000,4.3380090485e+000,3.2613562102e+000,4.0808747019e+000,3.7319388537e+000,4.2346874565e+000,3.8559869146e+000,4.1273424626e+000,
1.5937500000e+000,4.3604552143e+000,4.5380088004e+000,3.6127129071e+000,3.8982789631e+000,5.5389201198e+000,5.4038150353e+000,4.0722487150e+000,4.4464949780e+000,3.1983809476e+000,4.0677102822e+000,3.6867202656e+000,4.2420704334e+000,3.8790595811e+000,4.0790464078e+000,
1.6875000000e+000,4.3635271720e+000,4.5331566702e+000,3.6085540151e+000,3.8343703003e+000,5.5689469876e+000,5.5641132977e+000,3.9511307043e+000,4.4077233980e+000,3.2656094405e+000,3.9437475464e+000,3.5989010440e+000,4.1592015434e+000,3.8630929375e+000,3.9932157313e+000,
1.7812500000e+000,4.3287974224e+000,4.5099063691e+000,3.5730943240e+000,3.8203739774e+000,5.5577344129e+000,5.5860122494e+000,3.9294274821e+000,4.3867831538e+000,3.2474499458e+000,4.0084648999e+000,3.5381497826e+000,4.2330402644e+000,3.8106791242e+000,4.0675594067e+000,
1.8750000000e+000,4.2843284019e+000,4.5064655158e+000,3.5491200142e+000,3.8219837273e+000,5.5117171866e+000,5.6846491447e+000,3.9833972199e+000,4.4589361666e+000,3.3507897919e+000,4.1030769275e+000,3.5918489536e+000,4.2829269102e+000,3.7843619204e+000,4.0876383854e+000,
1.9687500000e+000,4.2730346017e+000,4.5453052626e+000,3.5541352245e+000,3.8587865356e+000,5.6978328667e+000,5.9631465287e+000,4.0981618606e+000,4.5328338999e+000,3.2444494249e+000,4.3487304773e+000,3.5515245700e+000,4.4689346121e+000,3.7973353257e+000,4.2201367708e+000,
2.0625000000e+000,4.4175482670e+000,4.6814401238e+000,3.5657848333e+000,3.8468062032e+000,5.6949486557e+000,6.0321171914e+000,4.2801834692e+000,4.5724825684e+000,3.2483696127e+000,4.3522638234e+000,3.5185385143e+000,4.4139140942e+000,3.8082663947e+000,4.2191625450e+000,
2.1562500000e+000,4.2322876228e+000,4.6633297680e+000,3.6301798261e+000,3.9736011191e+000,5.6220265146e+000,6.0877421910e+000,4.2109094517e+000,4.6455746545e+000,3.2332854002e+000,4.5368659459e+000,3.4832038421e+000,4.5177018343e+000,3.8875801936e+000,4.3794802305e+000,
2.2500000000e+000,4.2475039479e+000,4.7219321857e+000,3.7591915762e+000,4.0727378155e+000,5.6610535708e+000,6.0868844871e+000,4.3841531910e+000,4.7032748677e+000,3.3097497185e+000,4.6154578584e+000,3.5439944092e+000,4.5149775211e+000,3.8485585684e+000,4.4313864210e+000,
2.3437500000e+000,4.2721722768e+000,4.7282250114e+000,3.7406588405e+000,3.9616678054e+000,7.2978982607e+000,6.0640250040e+000,4.4812566743e+000,4.6678446911e+000,3.3916864895e+000,4.6582189532e+000,3.5492578209e+000,4.5946671890e+000,3.7705942465e+000,4.4994889516e+000,
2.4375000000e+000,4.3274838358e+000,4.6687720905e+000,3.8939191040e+000,3.9445723941e+000,7.5374754226e+000,5.8336825256e+000,4.5325800595e+000,4.5876168377e+000,3.3480210366e+000,4.6399747641e+000,3.5489506732e+000,4.5479393082e+000,3.7832743600e+000,4.4350313797e+000,
2.5312500000e+000,4.3786264011e+000,4.6929854413e+000,3.9208498242e+000,4.0078135306e+000,7.5373349855e+000,5.7989082708e+000,4.5368450633e+000,4.6210224667e+000,3.3302373957e+000,4.6921213993e+000,3.5407176311e+000,4.4916116455e+000,3.7528423248e+000,4.3915945775e+000,
2.6250000000e+000,4.3647651302e+000,4.6813240764e+000,3.8917278765e+000,4.0107703918e+000,7.5374196588e+000,5.6579235147e+000,4.4600217364e+000,4.4696706012e+000,3.2353502155e+000,4.6968921020e+000,3.5326084390e+000,4.4624457912e+000,3.7058394023e+000,4.3579627241e+000,
2.7187500000e+000,4.3302501334e+000,4.6689420933e+000,3.8573179272e+000,3.9912026054e+000,7.5337000231e+000,5.6308135856e+000,4.4064082136e+000,4.4656405638e+000,3.2336286491e+000,4.6677155197e+000,3.6643656284e+000,4.4328982268e+000,3.5963320431e+000,4.2986875104e+000,
2.8125000000e+000,4.3760253989e+000,4.7030549349e+000,3.9215860742e+000,4.0538563363e+000,7.5323304354e+000,5.6286953524e+000,4.3487001563e+000,4.4606869818e+000,3.2467899233e+000,4.6606832755e+000,3.7009689715e+000,4.3896969323e+000,3.6301796510e+000,4.2536676485e+000,
2.9062500000e+000,4.4563194331e+000,4.7279342802e+000,4.0789634729e+000,4.0946823823e+000,7.5231652310e+000,5.3956649151e+000,4.3345510818e+000,4.4215620164e+000,3.1672830103e+000,4.5673078490e+000,3.6483018160e+000,4.2240232845e+000,3.7209865548e+000,4.2100425502e+000,
3.0000000000e+000,4.4241980954e+000,4.6660846987e+000,4.0668610673e+000,4.0433881907e+000,7.4923816124e+000,4.9812247137e+000,4.1906387969e+000,4.3252425045e+000,3.1531187563e+000,4.4080595364e+000,3.6548683627e+000,4.0149875310e+000,3.5976746713e+000,4.0786838935e+000,
3.0937500000e+000,4.1365784741e+000,4.3051069002e+000,4.0218739591e+000,3.9204880328e+000,7.4737500258e+000,4.7158485403e+000,3.9978568985e+000,4.1374827965e+000,3.1774412126e+000,4.3370447506e+000,3.5784329718e+000,3.9993263122e+000,3.5565210020e+000,3.9883155383e+000,
3.1875000000e+000,4.0163970565e+000,4.0626935779e+000,3.9615013298e+000,3.8301368325e+000,7.4678060956e+000,4.6891221350e+000,3.8982542845e+000,3.9970239073e+000,3.2174569915e+000,4.2325008231e+000,3.4104217398e+000,3.9165849368e+000,3.3890176900e+000,3.7435135367e+000,
3.2812500000e+000,4.0138555078e+000,3.9922323204e+000,3.9240321585e+000,3.7841418850e+000,7.4309848658e+000,4.7228744926e+000,3.4587239927e+000,4.0215638379e+000,3.0747378976e+000,4.1138255641e+000,3.3904934510e+000,3.9329794084e+000,3.4208028696e+000,3.6726417095e+000,
3.3750000000e+000,3.8402819377e+000,3.9140404949e+000,3.7032018909e+000,3.7377325063e+000,5.3866742497e+000,4.7014266169e+000,3.0995820520e+000,4.0763701844e+000,3.0679300395e+000,4.1285810100e+000,3.3791725532e+000,3.7265416565e+000,3.2129429193e+000,3.4618090581e+000,
3.4687500000e+000,3.6691641736e+000,3.8566144051e+000,3.6459819116e+000,3.6790919454e+000,4.5624103401e+000,4.6978798341e+000,3.0632809495e+000,4.0426386522e+000,3.1648577891e+000,4.0742543633e+000,3.3270586174e+000,3.6956153220e+000,3.1938154112e+000,3.4546724675e+000,
3.5625000000e+000,3.5858863942e+000,3.7960157079e+000,3.6301315486e+000,3.6257729301e+000,4.4606901386e+000,4.6337782858e+000,3.0631950528e+000,4.0022025242e+000,3.1632127027e+000,4.0804944639e+000,3.4040884451e+000,3.8509937397e+000,3.0458233965e+000,3.5398032187e+000,
3.6562500000e+000,3.6571192960e+000,3.8700573465e+000,3.6781071321e+000,3.6582873564e+000,4.5710725165e+000,4.6766222343e+000,3.0420250221e+000,4.0446211973e+000,3.1837070987e+000,4.0812273539e+000,3.3741241802e+000,3.8224734588e+000,3.0093345857e+000,3.5267847376e+000,
3.7500000000e+000,3.6676672600e+000,3.8622724853e+000,3.6130844670e+000,3.6675638091e+000,5.9671714881e+000,4.6260635581e+000,3.0000557807e+000,4.1034789728e+000,3.1121069113e+000,4.2473077749e+000,3.2093088742e+000,4.0005231109e+000,3.0430210785e+000,3.6249506326e+000,
3.8437500000e+000,3.5329628693e+000,3.8827472534e+000,3.5017335337e+000,3.5621824718e+000,6.2639636441e+000,4.6098684810e+000,3.0113486388e+000,3.9864323052e+000,3.1796218883e+000,4.2008370113e+000,3.1269945702e+000,3.9855734179e+000,2.8560042465e+000,3.6351850786e+000,
3.9375000000e+000,3.4039930010e+000,3.8355869898e+000,3.3266250180e+000,3.5027771537e+000,6.3077895062e+000,4.6856173893e+000,3.2620491443e+000,3.9635174992e+000,3.2783499895e+000,4.1862823400e+000,3.1399687269e+000,3.9911038712e+000,2.8394381646e+000,3.5783976991e+000,
4.0312500000e+000,3.4403985109e+000,3.8537006747e+000,3.3271762560e+000,3.5452101377e+000,6.3213471389e+000,4.6918737169e+000,3.3409639334e+000,3.9318554805e+000,3.3498810473e+000,4.0974419667e+000,3.1605316114e+000,3.9367952937e+000,2.9150069210e+000,3.6360184263e+000,
4.1250000000e+000,3.5586875576e+000,3.9267009714e+000,3.3669556184e+000,3.6394385318e+000,6.3302538998e+000,4.6868466651e+000,3.3848420257e+000,3.9849496245e+000,3.3117766656e+000,4.0826126408e+000,3.1533378596e+000,3.9205322163e+000,3.0265659511e+000,3.7012870405e+000,
4.2187500000e+000,3.5117268787e+000,3.8699808978e+000,3.3089147903e+000,3.6279669437e+000,6.3290856140e+000,4.5887084740e+000,3.4705099657e+000,3.9986510485e+000,3.2887799489e+000,4.0605262199e+000,3.2225651344e+000,3.8867398483e+000,3.0120952674e+000,3.6878872750e+000,
4.3125000000e+000,3.4779324699e+000,3.8691932288e+000,3.2852132400e+000,3.5867959908e+000,6.3288672191e+000,4.4992111176e+000,3.4410916735e+000,3.8692978643e+000,3.2670992436e+000,4.0913078011e+000,3.1600294217e+000,3.8883575389e+000,3.0116786873e+000,3.7139285628e+000,
4.4062500000e+000,3.4464312805e+000,3.8225018310e+000,3.2011321138e+000,3.5486567339e+000,6.3148166952e+000,4.4084764072e+000,3.3906472833e+000,3.8205039636e+000,3.2235165934e+000,4.0358760983e+000,3.1817765716e+000,3.8738083872e+000,2.9663898871e+000,3.7024816708e+000,
4.5000000000e+000,3.4852376377e+000,3.8252848449e+000,3.0802508179e+000,3.5155263726e+000,6.3135280633e+000,4.4533579541e+000,3.3956339971e+000,3.7479478993e+000,3.1385014187e+000,3.9562480487e+000,3.3200632243e+000,3.7677503317e+000,3.0122152868e+000,3.6092891190e+000,
4.5937500000e+000,3.4731564917e+000,3.8678873781e+000,3.0649432729e+000,3.6268683881e+000,6.3171072921e+000,4.5578866189e+000,3.4723669301e+000,3.7865899439e+000,3.0731595169e+000,3.9730422758e+000,3.2807216018e+000,3.7248849444e+000,3.1791607722e+000,3.5798192469e+000,
4.6875000000e+000,3.3357550935e+000,3.7523388963e+000,3.0283449276e+000,3.5303639201e+000,6.2996753263e+000,4.5015231129e+000,3.4772722010e+000,3.5833772334e+000,3.1921794277e+000,3.7905084201e+000,3.2757711922e+000,3.5876900598e+000,3.2466074897e+000,3.5754908119e+000,
4.7812500000e+000,3.4609822885e+000,3.7741481248e+000,3.0740153881e+000,3.5800294406e+000,5.3687058390e+000,4.5173846844e+000,3.4280533978e+000,3.6430079309e+000,3.1305503500e+000,3.7069865170e+000,3.3278887003e+000,3.5076809597e+000,3.3151515433e+000,3.5494349072e+000,
4.8750000000e+000,3.5229259483e+000,3.7296483445e+000,3.1749380587e+000,3.6153199690e+000,4.9730212633e+000,4.4940387439e+000,3.4626545808e+000,3.6299667881e+000,3.0793699138e+000,3.7102756162e+000,3.3405541487e+000,3.5120462670e+000,3.2502096013e+000,3.5421500054e+000,
4.9687500000e+000,3.5139979542e+000,3.7541786690e+000,3.4309453892e+000,3.5921413034e+000,4.8459852818e+000,4.5841242223e+000,3.2230705695e+000,3.6618702162e+000,2.8442634472e+000,3.6494486187e+000,3.2989514334e+000,3.6488029932e+000,3.2363810141e+000,3.4701231445e+000,
5.0625000000e+000,3.4199656902e+000,3.7380584397e+000,3.4270662563e+000,3.5828944845e+000,4.7425097471e+000,4.6615393771e+000,3.1248743097e+000,3.7298207350e+000,2.7981719286e+000,3.6818725599e+000,3.3257563382e+000,3.6865645242e+000,3.2122647078e+000,3.4205179812e+000,
5.1562500000e+000,3.3940214253e+000,3.6680350809e+000,3.5108375337e+000,3.5215961916e+000,4.6830789530e+000,4.6004307480e+000,3.1484337942e+000,3.7554545784e+000,2.8573524254e+000,3.6199978893e+000,3.4946184956e+000,3.7773221868e+000,3.2802470421e+000,3.4059818702e+000,
5.2500000000e+000,3.3912127453e+000,3.5885125528e+000,3.5171345397e+000,3.4233016573e+000,4.6438392057e+000,4.5478236821e+000,3.0590823574e+000,3.6691375814e+000,2.8591014586e+000,3.6594031491e+000,3.4583185073e+000,3.8295859009e+000,3.6413553688e+000,3.5782056525e+000,
5.3437500000e+000,3.4856868312e+000,3.6558330942e+000,3.6034469671e+000,3.5121642839e+000,6.4877242061e+000,4.5037298504e+000,3.0910536083e+000,3.6900571414e+000,2.8927124119e+000,3.6936674839e+000,3.4880663701e+000,3.9319950772e+000,3.7279737715e+000,3.6674220944e+000,
5.4375000000e+000,3.5177551783e+000,3.6579025533e+000,3.6154108542e+000,3.5640681066e+000,7.8078991887e+000,4.5233236031e+000,3.0759528382e+000,3.6613372353e+000,2.9105204608e+000,3.8280583977e+000,3.4978542069e+000,4.0404885307e+000,3.7453297460e+000,3.7103293650e+000,
5.5312500000e+000,3.4691195702e+000,3.6730999111e+000,3.5840646880e+000,3.5415405714e+000,7.8449292540e+000,4.4579041147e+000,2.9659977116e+000,3.7240287642e+000,2.9302312080e+000,3.8188784557e+000,3.4037433531e+000,4.0789796812e+000,3.7325613669e+000,3.7737340030e+000,
5.6250000000e+000,3.5604924222e+000,3.7034767552e+000,3.6802274197e+000,3.5372073316e+000,7.8492291056e+000,4.4198820288e+000,2.9662052961e+000,3.7381286146e+000,2.9051004032e+000,3.9225672323e+000,3.4044047839e+000,4.1496956937e+000,3.7272023423e+000,3.8047833340e+000,
5.7187500000e+000,3.5012177179e+000,3.6072210613e+000,3.7489680821e+000,3.4512118456e+000,7.8394320657e+000,4.4197545503e+000,2.9803445875e+000,3.7626798009e+000,2.8217055107e+000,3.9142208190e+000,3.3541786172e+000,4.1851086187e+000,3.6885758686e+000,3.7151348260e+000,
5.8125000000e+000,3.5106571656e+000,3.6695970090e+000,3.7682662108e+000,4.9132783947e+000,7.8375438791e+000,4.4158007002e+000,2.9814069160e+000,3.7438453860e+000,2.8496664311e+000,3.9549089292e+000,3.2867074932e+000,4.1967660974e+000,3.6913514528e+000,3.6936950418e+000,
5.9062500000e+000,4.0319413432e+000,4.4339662341e+000,3.6392038994e+000,6.0741105171e+000,7.8442095916e+000,4.7703653692e+000,3.0622302617e+000,3.9349733261e+000,2.8856773976e+000,4.0095236750e+000,3.4096204434e+000,4.1655248931e+000,3.7231726324e+000,3.6467041437e+000,
6.0000000000e+000,4.1122752262e+000,4.5075851248e+000,3.6228681950e+000,6.1499781395e+000,7.8442992707e+000,4.6693562469e+000,3.1545963060e+000,3.9426790159e+000,3.0127058823e+000,4.0361321590e+000,3.4319879092e+000,4.0940631998e+000,3.7007895662e+000,3.6385288735e+000,
6.0937500000e+000,4.1123795167e+000,4.4972017444e+000,3.5112493486e+000,6.2416722931e+000,7.8440679418e+000,4.6276261947e+000,3.1233015721e+000,3.8460632160e+000,3.0747747322e+000,3.9950021312e+000,3.3467413346e+000,3.9752050488e+000,3.6592225816e+000,3.5714829315e+000,
6.1875000000e+000,4.1055912425e+000,4.5309253815e+000,3.4225892720e+000,6.2502255073e+000,7.8433761298e+000,4.7133219239e+000,3.0635961068e+000,3.8402621703e+000,3.1260694703e+000,4.0297724084e+000,3.1769780940e+000,4.0030277388e+000,3.3754985853e+000,3.5194514717e+000,
6.2812500000e+000,4.1605256109e+000,4.4979845848e+000,3.4629210939e+000,6.2426997469e+000,7.8461669760e+000,4.6993196240e+000,3.1258579858e+000,3.8246963227e+000,3.1804876974e+000,4.0466960071e+000,3.2668963559e+000,4.4894750196e+000,3.1860893757e+000,3.4169258367e+000,
6.3750000000e+000,4.1204649848e+000,4.5072742235e+000,3.4264249353e+000,6.2401195108e+000,6.5482911579e+000,4.6961282249e+000,3.1499445625e+000,3.8438106040e+000,3.2702342698e+000,4.0333311465e+000,3.1923623327e+000,4.5705615283e+000,3.2604974055e+000,3.3706822640e+000,
6.4687500000e+000,4.1608795992e+000,4.5215869408e+000,3.5401342434e+000,6.2446667052e+000,5.0956753976e+000,4.7075089492e+000,3.2241959765e+000,3.9437726232e+000,3.2930322461e+000,4.0159517299e+000,3.2032446260e+000,4.5424100360e+000,3.3525978354e+000,3.3760771970e+000,
6.5625000000e+000,4.2149461282e+000,4.5328625731e+000,3.6756910543e+000,6.2465529284e+000,4.4582300358e+000,4.7238104214e+000,3.2563656332e+000,3.9442907842e+000,3.3643061855e+000,4.0748671575e+000,3.2865612304e+000,4.5429143885e+000,3.3545399377e+000,3.3224112669e+000,
6.6562500000e+000,4.2490141414e+000,4.5271892580e+000,3.7655546084e+000,6.2432511082e+000,4.3828245324e+000,4.6933025020e+000,3.2753164609e+000,3.9520553000e+000,3.3404379133e+000,4.1213938364e+000,3.2578514930e+000,4.5274082383e+000,3.2804008878e+000,3.3466720641e+000,
6.7500000000e+000,4.3253099625e+000,4.5969704535e+000,3.7991464848e+000,6.2550647000e+000,4.4159393222e+000,4.6724357696e+000,3.3640034976e+000,4.0215652502e+000,3.3491432637e+000,4.1885594880e+000,3.2764578286e+000,4.5394876543e+000,3.3254212807e+000,3.6705736704e+000,
6.8437500000e+000,4.2688698332e+000,4.5225986718e+000,3.8301346655e+000,5.4231101536e+000,4.3766502980e+000,4.6391930721e+000,3.4151986767e+000,4.1761279640e+000,3.4443076061e+000,4.2503274975e+000,3.2514535013e+000,4.5745461659e+000,3.3070159447e+000,3.7408200943e+000,
6.9375000000e+000,3.9447984993e+000,3.9964703224e+000,3.7983066156e+000,4.7595882314e+000,4.3223091726e+000,4.2233793813e+000,3.3354089172e+000,4.0378897808e+000,3.3890504196e+000,4.1884939331e+000,3.2456363906e+000,4.5949801121e+000,3.2769164762e+000,3.7792829493e+000,
7.0312500000e+000,3.8682244156e+000,3.8676956257e+000,3.7731666067e+000,4.0403790491e+000,4.5723244324e+000,4.2553745472e+000,3.3322039913e+000,4.0392677180e+000,3.3302303657e+000,4.2049091481e+000,3.2341642091e+000,4.5975357583e+000,3.2953536091e+000,3.7624969306e+000,
7.1250000000e+000,4.1901224259e+000,4.3703210805e+000,3.8439542261e+000,3.7836548707e+000,4.7385855469e+000,4.4790050186e+000,3.4480651127e+000,4.1307538996e+000,3.3528134993e+000,4.2431044503e+000,3.3413922623e+000,4.6190788130e+000,3.3682666172e+000,3.7587692465e+000,
7.2187500000e+000,4.7789935422e+000,4.9367972646e+000,4.0204923605e+000,4.0184226097e+000,4.9284709666e+000,4.8495857349e+000,3.6499182400e+000,4.9249872533e+000,3.3325537754e+000,4.5346565672e+000,3.4578028007e+000,4.6155193599e+000,3.3261731136e+000,3.7122303573e+000,
7.3125000000e+000,4.8186308987e+000,4.9937765148e+000,4.0191703675e+000,4.0462561179e+000,4.9793006202e+000,4.8942390105e+000,3.7208397621e+000,5.0257271173e+000,3.3186294580e+000,4.6443102101e+000,3.4575119415e+000,4.1194693790e+000,3.4406133083e+000,3.8374939796e+000,
7.4062500000e+000,4.8519341120e+000,5.0134905808e+000,4.0385486123e+000,4.0967976558e+000,5.0089887591e+000,4.9264317571e+000,3.7312590813e+000,5.0482120327e+000,3.3162110351e+000,4.6384500481e+000,3.4428371678e+000,4.1496695016e+000,3.3632659297e+000,3.7931427041e+000,
7.5000000000e+000,4.8406371151e+000,5.0020106773e+000,3.9743033347e+000,4.0455294067e+000,4.9963626484e+000,4.8886716305e+000,3.6982963336e+000,5.0155723597e+000,3.2041882074e+000,4.6047358599e+000,3.4003319928e+000,4.1067567297e+000,3.3601355882e+000,3.8026492223e+000,
7.5937500000e+000,4.8343694697e+000,4.9965786391e+000,3.9169955047e+000,4.0562754668e+000,5.0293854397e+000,4.8833562705e+000,3.7014566336e+000,5.0178819494e+000,3.2191725784e+000,4.5515392716e+000,3.4000247779e+000,4.0591148505e+000,3.3181197205e+000,3.7818411588e+000,
7.6875000000e+000,4.7811353565e+000,4.9876063249e+000,3.7609624710e+000,4.0427335773e+000,5.0106464794e+000,4.8777109975e+000,3.6297298250e+000,4.9943802540e+000,3.2958505555e+000,4.4521392058e+000,3.3430073396e+000,3.9465267443e+000,3.3323410195e+000,3.7256630142e+000,
7.7812500000e+000,4.7504690039e+000,4.9545959143e+000,3.6687371090e+000,3.9540799566e+000,5.0035075665e+000,4.9240255520e+000,3.5888130245e+000,4.9842175918e+000,3.2692340626e+000,4.5140001721e+000,3.4570173543e+000,3.9809508910e+000,3.3505325486e+000,3.4039798517e+000,
7.8750000000e+000,4.7595485741e+000,4.9453234966e+000,3.6266232982e+000,3.8866784888e+000,4.9966386284e+000,4.9332997023e+000,3.5664815881e+000,4.9638764007e+000,3.2004271647e+000,4.5398592920e+000,3.4899217231e+000,3.9744981442e+000,3.3953373546e+000,3.4521311818e+000,
7.9687500000e+000,4.7536459679e+000,4.9560473285e+000,3.6106531191e+000,3.9031283268e+000,4.9749388246e+000,4.9420027430e+000,3.5958861972e+000,4.9636561780e+000,3.2044169394e+000,4.5846441007e+000,3.4365582081e+000,4.0179247488e+000,3.4371582555e+000,3.4961399549e+000,
8.0625000000e+000,4.8033950519e+000,5.0228696225e+000,3.6309271869e+000,3.9951371051e+000,4.9644091161e+000,4.9755784740e+000,3.6498327649e+000,5.0068631715e+000,3.1782687084e+000,4.6669405483e+000,3.3888800030e+000,4.1035653869e+000,3.3921254974e+000,3.6367079145e+000,
8.1562500000e+000,4.3360120256e+000,4.6064502792e+000,3.3525203518e+000,3.8736531217e+000,4.7928071934e+000,4.7199862815e+000,3.4378613599e+000,4.8689208010e+000,3.1217440603e+000,4.5711004652e+000,3.2460973448e+000,4.0299691487e+000,3.3545856119e+000,3.6544670492e+000,
8.2500000000e+000,3.7766826644e+000,3.9433242526e+000,3.1755476950e+000,3.5938033797e+000,4.5566724991e+000,4.2629716679e+000,3.1856351020e+000,4.1427617850e+000,3.0528890969e+000,4.3566983736e+000,3.1482441348e+000,3.8965593828e+000,3.3817659342e+000,3.5215613180e+000,
8.3437500000e+000,3.6317520307e+000,3.9088677610e+000,3.0681889279e+000,3.5629190381e+000,4.4628745882e+000,4.2627887179e+000,3.0503181098e+000,3.9829519443e+000,2.9530860326e+000,4.2514853031e+000,3.1056006468e+000,3.8421644705e+000,3.2629567280e+000,3.4641444046e+000,
8.4375000000e+000,3.5960716384e+000,3.9339587793e+000,3.0299036460e+000,3.6017359385e+000,4.4433651607e+000,4.3956413169e+000,3.0188513730e+000,4.0092538680e+000,3.0144449372e+000,4.3554769163e+000,3.1107249915e+000,3.9198419849e+000,3.2393892996e+000,3.4013958047e+000,
8.5312500000e+000,3.6063444654e+000,3.9456159132e+000,2.9624161596e+000,3.6047814042e+000,4.4785063572e+000,4.4686456425e+000,3.0662948714e+000,4.0791781382e+000,3.0666164335e+000,4.4081731435e+000,3.0347185005e+000,3.9718782099e+000,3.2821870728e+000,3.4615626552e+000,
8.6250000000e+000,3.5526289422e+000,3.9316250450e+000,2.8296894787e+000,3.6046264087e+000,4.5072217328e+000,4.4378640454e+000,3.0648672322e+000,4.0754292962e+000,3.1310500740e+000,4.4494355761e+000,3.1565425046e+000,4.0160541830e+000,3.3549001616e+000,3.4702496938e+000,
8.7187500000e+000,3.5378931150e+000,3.8622202998e+000,2.8174006148e+000,3.5818766932e+000,4.5288447811e+000,4.4097821184e+000,3.0264813774e+000,4.0122570697e+000,3.0099901898e+000,4.4004490115e+000,3.1078603004e+000,4.0301280593e+000,3.3542831615e+000,3.4698458026e+000,
8.8125000000e+000,3.6176207099e+000,3.8307715856e+000,2.8470133644e+000,3.5612262973e+000,4.6203798166e+000,4.3535145366e+000,3.0445150546e+000,4.0460132691e+000,2.9997608055e+000,4.2203076283e+000,2.9428540663e+000,3.9775839358e+000,3.3903811513e+000,3.4788079456e+000,
8.9062500000e+000,3.5624472023e+000,3.7779532458e+000,2.8063079901e+000,3.5688471349e+000,4.5465906339e+000,4.3857667748e+000,2.9934814601e+000,4.0263316701e+000,2.9455159922e+000,4.2930402780e+000,2.9069346990e+000,4.0732028183e+000,3.3674715910e+000,3.7581093742e+000,
9.0000000000e+000,3.4435269584e+000,3.6196510256e+000,2.6425327206e+000,3.4199442071e+000,4.4061394524e+000,4.2278284837e+000,2.7196634557e+000,3.8885279814e+000,3.0399149943e+000,4.2003014063e+000,2.9432595382e+000,3.9986433834e+000,3.3808137506e+000,3.7737736440e+000,
9.0937500000e+000,3.3142046888e+000,3.5241541111e+000,2.6318412031e+000,3.3926864784e+000,4.2885498934e+000,4.2075409149e+000,2.9524256239e+000,3.8853130057e+000,3.1316912594e+000,4.2893377019e+000,2.9582130311e+000,4.1207280798e+000,3.4202035728e+000,3.8524762562e+000,
9.1875000000e+000,3.4109116709e+000,3.7129833852e+000,2.6950814556e+000,3.3859487913e+000,4.3267272660e+000,4.2810014088e+000,2.9946541139e+000,3.9460521313e+000,3.1173950039e+000,4.2873461688e+000,2.9166015634e+000,4.1841798589e+000,3.3749391878e+000,3.9108281087e+000,
9.2812500000e+000,3.4101441559e+000,3.7002681370e+000,2.6815249421e+000,3.3524577162e+000,4.4441947777e+000,4.1471789917e+000,3.0201527998e+000,3.9015559210e+000,3.1279220781e+000,4.3177014706e+000,2.9727104488e+000,4.2133309917e+000,3.4291936406e+000,3.9209066727e+000,
9.3750000000e+000,3.3975208591e+000,3.6363793255e+000,2.6468151270e+000,3.3183404261e+000,4.4365504142e+000,4.0228979728e+000,3.0542520386e+000,3.8588762534e+000,3.0765094347e+000,4.3247101412e+000,2.8668138151e+000,4.1867630045e+000,3.4866182786e+000,3.9405804978e+000,
9.4687500000e+000,3.3842855480e+000,3.7234602036e+000,2.6990846156e+000,3.3990757017e+000,4.5053418698e+000,3.9648234716e+000,3.0750731409e+000,3.8867439192e+000,3.1449015521e+000,4.2281308779e+000,2.9875934969e+000,4.0758632449e+000,3.4999564530e+000,3.9400431330e+000,
9.5625000000e+000,3.2871648065e+000,3.7185668284e+000,2.6919338770e+000,3.3441500736e+000,4.4526035877e+000,3.9609408490e+000,3.0086495594e+000,3.7717222277e+000,3.1434069757e+000,4.1834554912e+000,3.1723042150e+000,4.1375403169e+000,3.4660403996e+000,3.9908216775e+000,
9.6562500000e+000,3.3717820380e+000,3.7654738312e+000,2.8102566582e+000,3.3982521100e+000,4.4844193589e+000,4.0061847663e+000,3.0318468157e+000,3.7809165665e+000,3.1691219637e+000,4.1635980290e+000,3.1312689818e+000,4.1422233822e+000,3.3755820266e+000,3.9881597325e+000,
9.7500000000e+000,3.2498828618e+000,3.7897103761e+000,2.8627325320e+000,3.4848604196e+000,4.5232968738e+000,4.1566767140e+000,3.0276945483e+000,3.8747881974e+000,3.2125612057e+000,4.2457817709e+000,3.1033129552e+000,4.1986297673e+000,3.3253800657e+000,4.0676402284e+000,
9.8437500000e+000,3.2775573693e+000,3.7779014391e+000,2.9213600503e+000,3.5112681237e+000,4.5783700126e+000,4.2861486477e+000,3.2667059458e+000,3.8293996593e+000,3.1953316893e+000,4.2791502053e+000,3.1552614234e+000,4.2366473557e+000,3.4477918293e+000,4.0656819217e+000,
9.9375000000e+000,3.4012602625e+000,3.8362001620e+000,2.9485282473e+000,3.5467225280e+000,4.5567345141e+000,4.3540390831e+000,3.4096023700e+000,3.7987443259e+000,3.2048234652e+000,4.2442644937e+000,3.1831216892e+000,4.1502168348e+000,3.4466212896e+000,3.8830114278e+000,
1.0031250000e+001,3.4353187618e+000,3.9569485374e+000,2.9603319987e+000,3.5511717658e+000,4.5842476431e+000,4.5329151212e+000,3.3384890712e+000,3.8028960889e+000,3.1365131589e+000,4.1894493170e+000,3.2311935049e+000,4.1962826680e+000,3.3913646943e+000,3.8708707526e+000,
1.0125000000e+001,4.0154200221e+000,4.5013904359e+000,3.0492678099e+000,3.6419273649e+000,5.0947209616e+000,4.6860909584e+000,3.5095601013e+000,3.8977341905e+000,2.9901207568e+000,4.0878238257e+000,3.2905544283e+000,4.1383664948e+000,3.5480245710e+000,3.8940472886e+000,
1.0218750000e+001,4.3953429850e+000,4.7941409907e+000,3.1818616432e+000,3.7484439126e+000,7.9600890801e+000,4.7014306939e+000,3.7251958146e+000,4.1435645033e+000,2.9623241845e+000,4.0936375782e+000,3.3617208978e+000,4.2171112357e+000,3.6099190564e+000,3.9485659409e+000,
1.0312500000e+001,4.4692332360e+000,4.8583406713e+000,3.4314639309e+000,3.9489160804e+000,8.0389874318e+000,4.9424190106e+000,3.8499374959e+000,4.2379528420e+000,3.0968070291e+000,4.2118607152e+000,3.4355042462e+000,4.2558192669e+000,3.5923372241e+000,3.9458094671e+000,
1.0406250000e+001,4.4618010595e+000,4.8430209871e+000,3.4049787888e+000,3.9047776791e+000,8.0401879114e+000,5.0018741693e+000,3.8668905786e+000,4.2393084425e+000,3.0139273207e+000,4.2814305548e+000,3.3922444359e+000,4.2919719504e+000,3.5908392671e+000,3.9389567911e+000,
1.0500000000e+001,4.4730178749e+000,4.8361027738e+000,3.3959776092e+000,3.8733315567e+000,8.0432151689e+000,5.0373574108e+000,3.9015976458e+000,4.2634561858e+000,3.0676020751e+000,4.2823225789e+000,3.3892541146e+000,4.3453713375e+000,3.5784238452e+000,3.9334457251e+000,
1.0593750000e+001,4.5267000271e+000,4.8632526756e+000,3.4646058235e+000,3.9643067161e+000,8.0489162043e+000,5.0655541107e+000,3.9746933801e+000,4.4258345006e+000,3.1502336640e+000,4.3337248681e+000,3.2004904330e+000,4.3186159416e+000,3.6018106266e+000,3.9851909249e+000,
1.0687500000e+001,4.6159980915e+000,5.0654987480e+000,3.5930563847e+000,4.1558773606e+000,8.1294310516e+000,5.8860405798e+000,4.2731925849e+000,4.5734023661e+000,3.3179241938e+000,4.5344973003e+000,3.3748042445e+000,4.5291631307e+000,3.8736400611e+000,4.2754004946e+000,
1.0781250000e+001,4.6136855178e+000,5.1186910183e+000,3.5658211801e+000,4.1600974109e+000,8.1817917459e+000,6.2236166893e+000,5.1809452259e+000,4.8648765608e+000,3.3934964578e+000,4.5506544490e+000,3.5606292655e+000,4.5332775376e+000,4.0091038799e+000,4.3035767805e+000,
1.0875000000e+001,4.7290391213e+000,5.1792261491e+000,3.6111165899e+000,4.2082446430e+000,8.1978719679e+000,6.2685124927e+000,5.3510695940e+000,4.9422366361e+000,3.7559817756e+000,4.6090883561e+000,3.6909406245e+000,4.4939322307e+000,3.9793147313e+000,4.2658721115e+000,
1.0968750000e+001,4.7387568161e+000,5.1760691429e+000,3.6031004930e+000,4.1925298133e+000,8.2103040846e+000,6.4874892863e+000,5.4022254452e+000,5.1280930907e+000,3.8368121167e+000,4.6306790469e+000,3.7487384983e+000,4.4590053709e+000,4.0061580808e+000,4.2282194038e+000,
1.1062500000e+001,4.6886102815e+000,5.1303680978e+000,3.5846425959e+000,4.2185184007e+000,8.2180150548e+000,6.6135334187e+000,5.6339053680e+000,5.1424141790e+000,3.9713204875e+000,4.6999432775e+000,3.8310656027e+000,4.5349870824e+000,4.0659796735e+000,4.3271618027e+000,
1.1156250000e+001,4.3115483926e+000,4.7105041421e+000,3.5221883404e+000,4.1503125429e+000,7.8489477005e+000,6.6330811446e+000,5.6979331825e+000,5.0531147342e+000,4.2133892710e+000,4.6177548752e+000,3.8782720025e+000,4.4452838811e+000,3.9931995180e+000,4.2444005937e+000,
1.1250000000e+001,4.1999805956e+000,4.6126849116e+000,3.4981874272e+000,4.0813538358e+000,6.7514668782e+000,6.6671114353e+000,5.7023134572e+000,5.0585577840e+000,4.2321672115e+000,4.6071683198e+000,3.8516517445e+000,4.3757100161e+000,3.9299863477e+000,4.1738149842e+000,
1.1343750000e+001,4.2947919141e+000,4.6783956682e+000,3.5323906549e+000,4.1613409734e+000,6.6720818231e+000,6.7196966123e+000,5.7261189524e+000,5.1878708894e+000,4.2059696297e+000,4.7496443666e+000,3.9121907485e+000,4.5892075617e+000,3.9983813702e+000,4.3855177476e+000,
1.1437500000e+001,4.5535477009e+000,5.0334706887e+000,3.6729432811e+000,4.3698863440e+000,6.9718832445e+000,6.8547205430e+000,5.8797777607e+000,5.3934488239e+000,4.3071156124e+000,4.9297421194e+000,4.3520805468e+000,4.7460421631e+000,4.3469798728e+000,4.6575162377e+000,
1.1531250000e+001,4.6798588333e+000,5.1322586804e+000,3.8421879183e+000,4.4782325774e+000,6.9761414878e+000,6.8943761493e+000,6.0478170921e+000,5.4671354767e+000,4.3717066603e+000,5.0758906454e+000,4.4231930008e+000,4.8502501234e+000,4.4240060694e+000,4.7673827920e+000,
1.1625000000e+001,4.9003643664e+000,5.3871682779e+000,4.0281140005e+000,4.6739699288e+000,6.9582595333e+000,6.8608520125e+000,6.2270466558e+000,5.5044612122e+000,4.3807540425e+000,5.1485023876e+000,4.4871243063e+000,4.8950582265e+000,4.4673200910e+000,4.8361057868e+000,
1.1718750000e+001,4.9338260665e+000,5.2875443073e+000,4.0122946663e+000,4.6139545244e+000,7.9135043498e+000,6.6288687102e+000,6.3473982450e+000,5.4466894190e+000,4.3591046975e+000,5.0854719306e+000,4.5313458961e+000,4.7966314079e+000,4.3668397398e+000,4.7302138391e+000,
1.1812500000e+001,4.9704258699e+000,5.2805310790e+000,4.0193060511e+000,4.5796868542e+000,8.0911751436e+000,6.5454606914e+000,6.0998839609e+000,5.3204490489e+000,4.3123028858e+000,5.0554050977e+000,4.4421891732e+000,4.8281822651e+000,4.3118973599e+000,4.7241129753e+000,
1.1906250000e+001,4.8866876132e+000,5.2419184997e+000,4.0807788544e+000,4.5594914903e+000,8.1025384382e+000,6.5157713649e+000,6.0759103841e+000,5.2573414538e+000,4.1892759907e+000,5.0426270928e+000,4.4646860540e+000,4.8322532229e+000,4.3136954864e+000,4.7365485726e+000,
1.2000000000e+001,4.8712443840e+000,5.2289158931e+000,4.0811837986e+000,4.5568275896e+000,8.0805359087e+000,6.1768248018e+000,6.0170390693e+000,5.0853405591e+000,4.1217765503e+000,4.9765008556e+000,4.4826425544e+000,4.8087139118e+000,4.3234161241e+000,4.7160282319e+000,
1.2093750000e+001,4.8610662233e+000,5.2064392148e+000,4.1160266561e+000,4.5140252870e+000,8.0737698897e+000,6.0639853441e+000,5.8220884859e+000,5.0744751109e+000,4.0430094537e+000,4.9535802849e+000,4.4569551857e+000,4.7879919222e+000,4.3293544149e+000,4.7089865786e+000,
1.2187500000e+001,4.8428746972e+000,5.2170379290e+000,4.1229386536e+000,4.5184431848e+000,8.0549242300e+000,5.9535194145e+000,5.8018683287e+000,5.0658642953e+000,3.7464780039e+000,4.9808994090e+000,4.4584298828e+000,4.8057303517e+000,4.3215373843e+000,4.7029625835e+000,
1.2281250000e+001,4.8244333488e+000,5.2249613079e+000,4.1021641761e+000,4.5062181618e+000,8.0518885155e+000,5.8808180349e+000,5.7930075205e+000,5.0154795792e+000,3.8174162635e+000,4.9615235835e+000,4.4816982061e+000,4.7982974971e+000,4.3052847747e+000,4.6725306639e+000,
1.2375000000e+001,4.7457406948e+000,5.1172797650e+000,4.0758553905e+000,4.3900054778e+000,8.0268373217e+000,5.6031540871e+000,5.6794163950e+000,4.7304814319e+000,3.8505267882e+000,4.7228028741e+000,4.3798828538e+000,4.5936630903e+000,4.1524150766e+000,4.4935094859e+000,
1.2468750000e+001,4.5283503453e+000,4.8126748835e+000,3.9817741540e+000,4.1527069284e+000,7.9495252675e+000,4.9972621487e+000,5.5579322253e+000,4.2600250755e+000,3.7283985780e+000,4.4086597531e+000,3.9798263811e+000,4.3196528247e+000,3.8451801013e+000,4.2228200625e+000,
1.2562500000e+001,4.1377590249e+000,4.4104746333e+000,3.8380860028e+000,3.8729879158e+000,7.9387890429e+000,4.7991598742e+000,4.9110005618e+000,3.9305419927e+000,3.8166751726e+000,4.1956588930e+000,3.9004564699e+000,4.2613594897e+000,3.7842212469e+000,4.0391184436e+000,
1.2656250000e+001,3.9508112377e+000,4.0249638264e+000,3.7383379245e+000,3.5830850132e+000,7.9205880308e+000,4.6243287089e+000,4.0510114596e+000,3.7776975351e+000,3.7925356306e+000,4.1158975894e+000,3.7653261199e+000,4.1521682610e+000,3.6713057483e+000,3.8657655910e+000,
1.2750000000e+001,3.6422229325e+000,3.8161869889e+000,3.6271625469e+000,3.4230135651e+000,6.0179359941e+000,4.0401520489e+000,3.1763809448e+000,3.7799141785e+000,3.7605866118e+000,4.1007191754e+000,3.6945000318e+000,4.1907225791e+000,3.7596502498e+000,3.8994568226e+000,
1.2843750000e+001,3.5567257639e+000,3.7462122006e+000,3.6406186586e+000,3.4407176683e+000,4.1611690194e+000,3.9005006011e+000,2.9770042153e+000,3.8699861746e+000,3.7460359816e+000,4.1750595797e+000,3.6541373169e+000,4.2132952499e+000,3.6951767282e+000,3.8847311965e+000,
1.2937500000e+001,3.5681954485e+000,3.8003524861e+000,3.5333955914e+000,3.4647872057e+000,3.8354811246e+000,3.8843895100e+000,2.9018507320e+000,3.9623287931e+000,3.7107668538e+000,4.1809522019e+000,3.5950849885e+000,4.1516110159e+000,3.6287932756e+000,3.8443663370e+000,
1.3031250000e+001,3.6528350791e+000,3.8519986960e+000,3.5944845570e+000,5.1551921773e+000,3.7874397604e+000,3.8985494138e+000,2.9095099587e+000,3.9452918877e+000,3.7139726082e+000,4.1363000455e+000,3.5177346443e+000,4.1363629656e+000,3.5844063541e+000,3.8384023169e+000,
1.3125000000e+001,3.7057950135e+000,3.9673214288e+000,3.5501790165e+000,6.3830963159e+000,3.7931950415e+000,4.0655323121e+000,2.8323872327e+000,4.0089893849e+000,3.7048755148e+000,4.2039876275e+000,3.5796136599e+000,4.1201863474e+000,3.5431428571e+000,3.7689313263e+000,
1.3218750000e+001,3.7178655159e+000,3.9988599161e+000,3.5609510093e+000,6.4777722743e+000,3.8111839204e+000,4.2533750666e+000,2.8290708368e+000,4.0873564559e+000,3.7190573178e+000,4.3001774423e+000,3.4717423052e+000,4.1829298551e+000,3.5671181547e+000,3.7966417963e+000,
1.3312500000e+001,3.5856109421e+000,3.9470656741e+000,3.5017193644e+000,6.4756245687e+000,3.8223375693e+000,4.2267420624e+000,2.8643700843e+000,4.0789730596e+000,3.5969219866e+000,4.2820766087e+000,3.4491126102e+000,4.2131925265e+000,3.5333038850e+000,3.8407590772e+000,
1.3406250000e+001,3.4669169968e+000,3.9019044576e+000,3.3569446015e+000,6.4723917578e+000,3.5880317384e+000,4.2980970194e+000,2.7754755924e+000,4.0211152830e+000,3.4540935965e+000,4.2706439574e+000,3.4714538037e+000,4.1732379694e+000,3.4786317703e+000,3.7829409198e+000,
1.3500000000e+001,3.4959495656e+000,3.9070542701e+000,3.2194011472e+000,6.4641416871e+000,3.5353783314e+000,4.3305577914e+000,2.7390135934e+000,3.9637180463e+000,3.2545632010e+000,4.1611112250e+000,3.4364763224e+000,3.9750919337e+000,3.5306568183e+000,3.6314419609e+000,
1.3593750000e+001,3.4628128647e+000,3.8409642014e+000,3.0832771590e+000,6.4603073830e+000,3.5318642228e+000,4.3342309097e+000,2.8260836956e+000,3.9303880359e+000,3.1020117424e+000,4.1796265064e+000,3.4895176813e+000,3.9958397398e+000,3.4919112215e+000,3.5857056045e+000,
1.3687500000e+001,3.4598911402e+000,3.8369438484e+000,3.0478288302e+000,6.4598441516e+000,3.6791190847e+000,4.3227530427e+000,2.8871913816e+000,3.8162256721e+000,3.0963034796e+000,4.0973082085e+000,3.4934918144e+000,3.9055644911e+000,3.3985061086e+000,3.5151309326e+000,
1.3781250000e+001,3.6512606718e+000,3.9116715578e+000,3.2179243096e+000,6.4665722229e+000,4.0622431529e+000,4.4373517416e+000,2.9539678399e+000,3.8719814382e+000,3.1307980599e+000,4.1832903038e+000,3.7520188001e+000,3.9475140609e+000,3.3399305691e+000,3.6004895150e+000,
1.3875000000e+001,3.7911088683e+000,4.0714639830e+000,3.2722368492e+000,6.4787114291e+000,7.6926218243e+000,5.4415809258e+000,3.9280169375e+000,4.2616782116e+000,3.1318752748e+000,4.3006514366e+000,3.8215083887e+000,4.0742078776e+000,3.5402223561e+000,3.7379253639e+000,
1.3968750000e+001,3.8094654873e+000,4.1374602235e+000,3.3611218693e+000,6.4740984123e+000,7.9559595508e+000,5.5268828981e+000,4.0489751742e+000,4.3226623269e+000,3.0934609417e+000,4.3045439120e+000,4.0317088132e+000,4.1463750974e+000,3.5905795961e+000,3.8017439025e+000,
1.4062500000e+001,3.8578710907e+000,4.2493533880e+000,3.3872917303e+000,5.7555699188e+000,7.9927311639e+000,5.6994510973e+000,4.3322383128e+000,4.4490954168e+000,3.1785693690e+000,4.4058121720e+000,4.0861637638e+000,4.3493746198e+000,3.8424585657e+000,3.9516334354e+000,
1.4156250000e+001,4.0598219186e+000,4.4483420799e+000,3.5500079662e+000,4.1320674380e+000,7.9975117205e+000,6.0961020613e+000,4.6273969396e+000,4.6786574881e+000,3.2084693075e+000,4.5715382077e+000,4.1133275159e+000,4.4847588259e+000,3.9662068221e+000,4.0197179363e+000,
1.4250000000e+001,4.4357980500e+000,4.7697112977e+000,3.7596114580e+000,4.2324431831e+000,8.0279992292e+000,6.2400480177e+000,4.9551723162e+000,5.1342756062e+000,3.3720599946e+000,4.5921801147e+000,4.4016721072e+000,4.5996875636e+000,4.1856461740e+000,4.2691702632e+000,
1.4343750000e+001,4.7902513465e+000,5.1701232922e+000,3.8298421279e+000,4.3770413110e+000,8.0723523442e+000,6.4112400982e+000,5.2011937943e+000,5.4419411514e+000,3.5025886168e+000,4.8021241416e+000,4.5126589066e+000,4.7423873699e+000,4.3262803498e+000,4.3865930062e+000,
1.4437500000e+001,4.9983820370e+000,5.4865418121e+000,3.9801359718e+000,4.6283419805e+000,8.1389646515e+000,6.7563960438e+000,5.3441714756e+000,5.7233384676e+000,3.6802792554e+000,4.9068706404e+000,4.6104582380e+000,4.9113812204e+000,4.4089259690e+000,4.5544499330e+000,
1.4531250000e+001,5.0356115845e+000,5.5784996292e+000,4.0833653948e+000,4.7328694802e+000,8.1652143447e+000,7.0511504145e+000,5.4849966312e+000,5.8182287359e+000,3.7142729323e+000,5.0030159509e+000,4.6377030999e+000,5.0610706786e+000,4.6078390245e+000,4.7122889579e+000,
1.4625000000e+001,5.1188136200e+000,5.6810621498e+000,4.1324743995e+000,4.8339852858e+000,8.1767152791e+000,7.1245383234e+000,5.6170614675e+000,5.9446137012e+000,3.7671732852e+000,5.0553738758e+000,4.6981851180e+000,5.0785250848e+000,4.7289342763e+000,4.8066214974e+000,
1.4718750000e+001,5.1696713767e+000,5.7486588017e+000,4.1445417057e+000,4.8861019425e+000,8.1899847890e+000,7.2244216302e+000,5.6628658717e+000,6.0026014815e+000,3.9435313565e+000,5.1821629081e+000,4.7233493701e+000,5.1624589198e+000,4.7809132704e+000,4.9278820289e+000,
1.4812500000e+001,5.1325821162e+000,5.7450312634e+000,4.1025115412e+000,4.8679768015e+000,8.1952439458e+000,7.2147971778e+000,5.7168721105e+000,6.1007490761e+000,4.1170742462e+000,5.1864860910e+000,4.6553377397e+000,5.2314386048e+000,4.7835791053e+000,4.9260414043e+000,
1.4906250000e+001,5.1246312926e+000,5.7333100457e+000,4.1464264637e+000,4.8649186987e+000,7.3256323219e+000,7.1675110092e+000,5.7086901590e+000,6.1018402384e+000,4.1594473809e+000,5.2756026107e+000,4.6357372904e+000,5.3148756474e+000,4.8090757209e+000,4.9687698860e+000,
1.5000000000e+001,5.1010915037e+000,5.7228878194e+000,4.0795940893e+000,4.8833686865e+000,6.9309999097e+000,7.3474139904e+000,5.7422795361e+000,6.2048041182e+000,4.2729192762e+000,5.3664782383e+000,4.5987329974e+000,5.3987710951e+000,4.7734077668e+000,5.0065428545e+000,
1.5093750000e+001,5.1577251468e+000,5.7134348131e+000,4.1620201546e+000,4.9155562480e+000,7.0660648685e+000,7.3269006811e+000,5.7352015714e+000,6.2631359963e+000,4.2882893088e+000,5.3731803636e+000,4.5392421662e+000,5.3646819925e+000,4.8370876811e+000,5.0480783299e+000,
1.5187500000e+001,5.0822088249e+000,5.6536394724e+000,4.1069751564e+000,4.8612169696e+000,7.0859498927e+000,7.3419940021e+000,5.6476285704e+000,6.2810443521e+000,4.2760828802e+000,5.4170105582e+000,4.4836035687e+000,5.3766785753e+000,4.8247485456e+000,5.0818932399e+000,
1.5281250000e+001,4.9461422432e+000,5.5506762609e+000,4.0158033881e+000,4.7630060222e+000,7.0306500058e+000,7.3617548264e+000,5.4720000337e+000,6.1659109394e+000,4.2129424799e+000,5.3513981596e+000,4.2676085064e+000,5.3682407430e+000,4.7405635498e+000,4.9737748250e+000,
1.5375000000e+001,4.5737107364e+000,5.2333894193e+000,3.8953307389e+000,4.6504001006e+000,7.0026079217e+000,7.2442065392e+000,5.3970015946e+000,6.0530533954e+000,4.0815714293e+000,5.3607534143e+000,4.4069522124e+000,5.3503781331e+000,4.6484341836e+000,4.8822275858e+000,
1.5468750000e+001,4.5538006901e+000,5.0568074778e+000,3.8271700007e+000,4.4908452722e+000,6.8340290121e+000,7.0828755461e+000,5.4076907557e+000,5.8885231023e+000,4.0439307755e+000,5.3249558082e+000,4.3907570567e+000,5.3320934081e+000,4.5807714609e+000,4.8474517545e+000,
1.5562500000e+001,4.5401027535e+000,5.0933937550e+000,3.7454700369e+000,4.4690151878e+000,6.9119319363e+000,6.9575112524e+000,5.2680275881e+000,5.8534057208e+000,4.0979591366e+000,5.3627558572e+000,4.3120862965e+000,5.3736707056e+000,4.4675964666e+000,4.8447461665e+000,
1.5656250000e+001,4.3989269610e+000,4.8832811971e+000,3.7497348446e+000,4.6151841593e+000,6.8992826361e+000,6.8975920204e+000,5.2420968964e+000,5.7854829075e+000,4.0351277150e+000,5.3324925711e+000,4.3282670820e+000,5.3722806389e+000,4.3663403144e+000,4.7138212517e+000,
1.5750000000e+001,4.5920210760e+000,4.9921354922e+000,3.7980869686e+000,4.6409276712e+000,6.8904584615e+000,6.9176551632e+000,5.2180560424e+000,5.7684244415e+000,3.7411755912e+000,5.2561405025e+000,4.2646129460e+000,5.3143095477e+000,4.3586963092e+000,4.6837359971e+000,
1.5843750000e+001,4.8654269118e+000,5.2615628446e+000,3.8434349188e+000,4.7173319369e+000,6.7946187171e+000,7.0154375877e+000,5.1367667377e+000,5.6789045641e+000,3.6513219209e+000,5.1899631944e+000,4.5261801700e+000,5.2230353788e+000,4.3912031337e+000,4.6857203898e+000,
1.5937500000e+001,4.8364097701e+000,5.2612010889e+000,3.7638428814e+000,4.6716047111e+000,6.7732865304e+000,7.1026431806e+000,5.1399035638e+000,5.6067680137e+000,3.6786185797e+000,5.0575989259e+000,4.5423514977e+000,5.0733249309e+000,4.4023962293e+000,4.5632730080e+000,
1.6031250000e+001,4.9371774718e+000,5.3428518885e+000,3.9436452016e+000,4.7906923041e+000,6.7994690258e+000,6.8645633950e+000,5.0972698221e+000,5.4560345047e+000,3.6065169060e+000,5.1581587314e+000,4.7182518915e+000,5.2242484787e+000,4.3417757917e+000,4.6841052484e+000,
1.6125000000e+001,4.9825061161e+000,5.3902985308e+000,3.9330407494e+000,4.8027305090e+000,6.6362654333e+000,6.8483942619e+000,5.0661905256e+000,5.4266710717e+000,3.6380191050e+000,5.0536123537e+000,4.8076518028e+000,5.1486351543e+000,4.2937403701e+000,4.6447939122e+000,
1.6218750000e+001,4.9905791102e+000,5.3802587393e+000,3.9297909430e+000,4.8950495875e+000,6.6149012334e+000,6.6781394893e+000,5.0616704215e+000,5.3100986575e+000,3.6084235824e+000,4.9618198073e+000,4.8067296623e+000,5.0880686304e+000,4.2702597266e+000,4.6307421342e+000,
1.6312500000e+001,5.0093142364e+000,5.3610394872e+000,3.9277101751e+000,5.2239849820e+000,6.5335734115e+000,6.5822030125e+000,5.0237023645e+000,5.2749009118e+000,3.6479316629e+000,4.8718700182e+000,4.8437211808e+000,4.9547771151e+000,4.2633103915e+000,4.5871949345e+000,
1.6406250000e+001,4.9876921287e+000,5.3563662298e+000,3.9195235970e+000,5.2854163287e+000,6.4199243046e+000,6.5918888237e+000,4.8887806344e+000,5.2569411385e+000,3.7524174347e+000,4.8758436519e+000,4.7170540919e+000,4.8950959550e+000,4.2483530136e+000,4.5341349403e+000,
1.6500000000e+001,4.8888691212e+000,5.2428616311e+000,3.9196348248e+000,5.2879509040e+000,6.2375285529e+000,6.5614888157e+000,4.6812842624e+000,5.1819917800e+000,3.7229127495e+000,4.7947290614e+000,4.6853674857e+000,4.7985533367e+000,4.2573293859e+000,4.5062389439e+000,
1.6593750000e+001,4.8799019101e+000,5.1543854374e+000,3.9485024553e+000,5.2510802154e+000,6.1059633591e+000,6.5590010271e+000,4.6858651320e+000,5.1415076724e+000,3.7382542276e+000,4.9329789098e+000,4.6919376064e+000,5.0181859910e+000,4.1623483062e+000,4.4684240013e+000,
1.6687500000e+001,4.8861244211e+000,5.1072947332e+000,3.9742915732e+000,5.1337426038e+000,6.0063150478e+000,6.4473180372e+000,4.6023417917e+000,5.0983277746e+000,3.7819355689e+000,4.9644818169e+000,4.6533460598e+000,5.0342844725e+000,4.0869451187e+000,4.4129477475e+000,
1.6781250000e+001,4.6984241383e+000,4.8761374406e+000,4.0945368628e+000,5.1129749364e+000,5.8507287473e+000,6.2353427514e+000,4.4750650215e+000,5.0127579829e+000,3.8148862542e+000,4.9516588671e+000,4.6533841615e+000,5.0117862387e+000,4.1102968761e+000,4.4120239212e+000,
1.6875000000e+001,4.5644561699e+000,4.5515791922e+000,4.1064823395e+000,5.0650762371e+000,5.6193480307e+000,5.8230111624e+000,4.2434574327e+000,4.9322630823e+000,3.7099877193e+000,4.9074735832e+000,4.3931999685e+000,4.9520931391e+000,3.9352034480e+000,4.3203933683e+000,
1.6968750000e+001,4.6631651768e+000,4.5893701493e+000,4.2268980856e+000,5.0934926615e+000,5.5767709908e+000,5.6426074022e+000,4.1578677140e+000,4.8641987972e+000,3.6746941248e+000,4.8879904160e+000,4.3669998082e+000,4.8905259873e+000,3.7638022754e+000,4.1909498545e+000,
1.7062500000e+001,4.4790399641e+000,4.2224287502e+000,4.1063388640e+000,4.9164076615e+000,5.3101071539e+000,5.5246819719e+000,3.9380641174e+000,4.5627740057e+000,3.4928488539e+000,4.7692536666e+000,3.8962768009e+000,4.7078708753e+000,3.4820111433e+000,3.8104603921e+000,
1.7156250000e+001,4.4480432105e+000,4.1728767904e+000,4.1669911755e+000,4.9258283322e+000,5.3150129253e+000,5.4823730875e+000,3.8715399186e+000,4.5943724189e+000,3.5415279518e+000,4.8152841383e+000,3.9145377543e+000,4.7427559033e+000,3.3720113475e+000,3.7019211434e+000,
1.7250000000e+001,4.5049811144e+000,4.2177013230e+000,4.2459480467e+000,4.5630866855e+000,5.3059931613e+000,5.5138142142e+000,3.8197982595e+000,4.5865951192e+000,3.5858573006e+000,4.7803779519e+000,3.7835748949e+000,4.7385111094e+000,3.2923822470e+000,3.6763375605e+000,
1.7343750000e+001,4.5922527220e+000,4.2545827869e+000,4.2977802958e+000,4.1932640360e+000,5.3019813080e+000,5.5415417270e+000,3.7805857789e+000,4.5781760451e+000,3.5490304986e+000,4.6949864197e+000,3.7740279031e+000,4.6661239959e+000,3.3389067964e+000,3.7542139579e+000,
1.7437500000e+001,4.6367772463e+000,4.2086605135e+000,4.3794622901e+000,4.0723989676e+000,5.2545597928e+000,5.3531472149e+000,3.7191172134e+000,4.5356833368e+000,3.5055382304e+000,4.6924640633e+000,3.6897460487e+000,4.6792198657e+000,3.3776975634e+000,3.8158563462e+000,
1.7531250000e+001,4.6888499410e+000,4.2438308594e+000,4.4610624402e+000,4.0328549957e+000,5.2571842626e+000,5.3177357990e+000,3.5899417094e+000,4.4330941135e+000,3.4632584420e+000,4.5143528768e+000,3.4903384221e+000,4.3211926118e+000,3.2728393100e+000,3.6850659398e+000,
1.7625000000e+001,4.6882854764e+000,4.2745875663e+000,4.4791321202e+000,4.0383520065e+000,5.2167712265e+000,5.2433455695e+000,3.4850345846e+000,4.5112180297e+000,3.3591745207e+000,4.4303906098e+000,3.5142477312e+000,4.1464721444e+000,3.2742582311e+000,3.6983732774e+000,
1.7718750000e+001,4.6511026775e+000,4.3027617050e+000,4.4041288514e+000,4.0379152914e+000,4.9497584780e+000,5.1209796042e+000,3.4378951153e+000,4.4834297234e+000,3.2822282659e+000,4.3765475557e+000,3.4827010711e+000,4.1017833273e+000,3.3636190737e+000,3.7846883250e+000,
1.7812500000e+001,4.5910468682e+000,4.2698481877e+000,4.3494876820e+000,3.9976138648e+000,5.0386498427e+000,5.1463985622e+000,3.4168617923e+000,4.3990255960e+000,3.2825904246e+000,4.3364757585e+000,3.4451456057e+000,4.1013525703e+000,3.3810830277e+000,3.7014551536e+000,
1.7906250000e+001,4.5406236148e+000,4.2921391813e+000,4.2841286974e+000,3.9561392338e+000,5.0415859901e+000,5.2545952018e+000,3.4650937392e+000,4.4254119341e+000,3.3049138595e+000,4.3704233423e+000,3.3676612592e+000,4.1520038343e+000,3.4113473004e+000,3.7292622057e+000,
1.8000000000e+001,4.3790600556e+000,4.1682258516e+000,4.1475066545e+000,3.8343254845e+000,4.9532500099e+000,5.1667516796e+000,3.3636624606e+000,4.2678143828e+000,3.1687205875e+000,4.2144900555e+000,3.2201479760e+000,4.0634568905e+000,3.4746767545e+000,3.7094928748e+000,
1.8093750000e+001,4.2801318061e+000,4.1010297929e+000,4.0697421064e+000,3.7457614317e+000,4.8671253798e+000,5.1492447790e+000,3.4224313934e+000,4.1998879303e+000,3.1881398968e+000,4.0952934990e+000,3.2386422733e+000,3.9084729286e+000,3.5348458582e+000,3.6916602121e+000,
1.8187500000e+001,4.1834822448e+000,4.0396472673e+000,4.0097192381e+000,3.7325213048e+000,4.7899177091e+000,5.0765192961e+000,3.2227117339e+000,4.0954567158e+000,3.0884625257e+000,4.1583213752e+000,3.2238456774e+000,3.9560395558e+000,3.5753469016e+000,3.6876185141e+000,
1.8281250000e+001,4.0886379911e+000,3.9931797029e+000,3.9045352458e+000,3.6625412678e+000,4.6923901094e+000,4.9148426395e+000,3.2695290342e+000,4.1234059769e+000,3.1951770667e+000,4.2435663517e+000,3.3521288248e+000,3.9669121113e+000,3.6390823453e+000,3.8055926465e+000,
1.8375000000e+001,3.8905782485e+000,3.9299035574e+000,3.7592179489e+000,3.6328107920e+000,4.7214327266e+000,4.8596480369e+000,3.2869500150e+000,4.1294648827e+000,3.3093497368e+000,4.1872467985e+000,3.3068918695e+000,3.8839003948e+000,3.6176214938e+000,3.7895591666e+000,
1.8468750000e+001,3.6595639225e+000,3.9164753471e+000,3.4923542750e+000,3.5777722274e+000,4.8010475617e+000,4.7805926807e+000,3.3245318012e+000,4.1366275380e+000,3.2639845425e+000,4.2143531654e+000,3.2437180249e+000,3.8785908311e+000,3.5319884672e+000,3.6879641899e+000,
1.8562500000e+001,3.5267900690e+000,3.9207495282e+000,3.3053760566e+000,3.6217732537e+000,4.8325276850e+000,4.7668741640e+000,3.4318002615e+000,4.1556144425e+000,3.2629687999e+000,4.2006868538e+000,3.3587823602e+000,3.9120511420e+000,3.5123637090e+000,3.6412403359e+000,
1.8656250000e+001,3.4328862417e+000,3.8829120717e+000,3.1768467345e+000,3.5616693671e+000,4.8848454354e+000,4.7493049091e+000,3.4132635864e+000,3.9310398318e+000,3.2497890710e+000,4.1662812038e+000,3.3265215857e+000,3.8630070667e+000,3.4855152310e+000,3.6223910621e+000,
1.8750000000e+001,3.4322625775e+000,3.8809595402e+000,3.1871983068e+000,3.5654703084e+000,4.9012678153e+000,4.7646025143e+000,3.4242715514e+000,4.0106288179e+000,3.2249713779e+000,4.2345071330e+000,3.3416757026e+000,3.9143525047e+000,3.4050310163e+000,3.5956118569e+000,
1.8843750000e+001,3.4015795982e+000,3.8781813499e+000,3.1644638252e+000,3.5340976161e+000,4.8091081582e+000,4.6310949325e+000,3.4220413372e+000,3.9932179744e+000,3.2749138999e+000,4.2421392863e+000,3.3890605125e+000,3.9468506350e+000,3.3535886604e+000,3.5851029419e+000,
1.8937500000e+001,3.2267350864e+000,3.8103916842e+000,3.0393156893e+000,3.4840295255e+000,4.7747296013e+000,4.4424191943e+000,3.3430683638e+000,4.0409405375e+000,3.2602581316e+000,4.2394566346e+000,3.3719060390e+000,3.8876675511e+000,3.4042504804e+000,3.6491921112e+000,
1.9031250000e+001,3.2796232482e+000,3.7946312380e+000,2.9442490717e+000,3.4399331110e+000,4.7501999780e+000,4.5234117173e+000,3.3533222281e+000,3.9933798456e+000,3.2079822154e+000,4.1611958253e+000,3.4417751265e+000,3.7996644649e+000,3.3839993556e+000,3.6228949683e+000,
1.9125000000e+001,3.3284567857e+000,3.7810581602e+000,2.8934441715e+000,3.4163823425e+000,4.7554084376e+000,4.4854376100e+000,3.2575498841e+000,3.9067669069e+000,3.2418783557e+000,4.1187657571e+000,3.4495470190e+000,3.8550515865e+000,3.3082956980e+000,3.5590978435e+000,
1.9218750000e+001,3.4495812927e+000,3.9083773485e+000,2.9989255381e+000,3.5030647878e+000,4.7485702016e+000,4.4506510884e+000,3.2750140105e+000,3.9473275456e+000,3.2244300410e+000,4.1364331794e+000,3.4669151289e+000,3.7990485650e+000,3.4524052306e+000,3.5853740361e+000,
1.9312500000e+001,3.5410886347e+000,3.9521467711e+000,3.0787074665e+000,3.5295383676e+000,4.7885603469e+000,4.5471051612e+000,3.2509907598e+000,3.9230273129e+000,3.1332233528e+000,4.2304420132e+000,3.4673205441e+000,3.8902154071e+000,3.4541160658e+000,3.5533033164e+000,
1.9406250000e+001,3.4532143421e+000,3.8962129618e+000,3.0612831906e+000,3.4903786957e+000,4.7781931428e+000,4.6089358140e+000,3.2596380718e+000,3.9889268590e+000,2.9205946993e+000,4.3443405935e+000,3.4915357471e+000,3.9553267191e+000,3.3959219895e+000,3.4517411266e+000,
1.9500000000e+001,3.5785830608e+000,3.9331702580e+000,3.1513879184e+000,3.5418195780e+000,4.7546866975e+000,4.6198675130e+000,3.2153933289e+000,4.0941973675e+000,3.0679470296e+000,4.3590940530e+000,3.6095690918e+000,3.9115421905e+000,3.4507382999e+000,3.4524346320e+000,
1.9593750000e+001,3.6017453261e+000,3.9655283341e+000,3.2683105072e+000,3.6142386927e+000,4.6904809978e+000,4.6296136718e+000,3.3845644954e+000,4.1447945138e+000,3.3056492602e+000,4.3612527945e+000,3.7300533678e+000,3.9021366982e+000,3.5346262059e+000,3.5091479603e+000,
1.9687500000e+001,3.6481054951e+000,3.9587369530e+000,3.2457205618e+000,3.6100924710e+000,4.6260466926e+000,4.6247975070e+000,3.4271648334e+000,4.1305806147e+000,3.3288837430e+000,4.3595422794e+000,3.7356732477e+000,3.9723186537e+000,3.5122298432e+000,3.5279959587e+000,
1.9781250000e+001,3.5763015411e+000,3.9051834693e+000,3.1405427001e+000,3.5402063575e+000,4.5376072300e+000,4.6508951964e+000,3.3774968698e+000,4.0893837432e+000,3.2931980309e+000,4.3547129749e+000,3.6867490862e+000,3.9611953977e+000,3.5135698222e+000,3.5123159003e+000,
1.9875000000e+001,3.5777162629e+000,3.9116939835e+000,3.0809485200e+000,3.5352198331e+000,4.6016223226e+000,4.8097159322e+000,3.3573113461e+000,4.0507332763e+000,3.3152447202e+000,4.3203594330e+000,3.6841657970e+000,3.8933984136e+000,3.5552034752e+000,3.5218390428e+000,
1.9968750000e+001,3.5605251283e+000,3.8901264387e+000,3.1056105242e+000,3.4948573384e+000,4.6854737887e+000,4.9142965089e+000,3.3450013730e+000,4.0319493589e+000,3.3319935885e+000,4.2982550546e+000,3.5852660182e+000,3.9700018204e+000,3.4355010591e+000,3.4255037679e+000,
2.0062500000e+001,3.5293454600e+000,3.8719123548e+000,3.1420607394e+000,3.5047974063e+000,4.7374741509e+000,4.8065663149e+000,3.2754798459e+000,4.0608900722e+000,3.2770635010e+000,4.2868968292e+000,3.5340279437e+000,3.9471559427e+000,3.4658305193e+000,3.5310873300e+000,
2.0156250000e+001,3.5195766341e+000,3.8960368594e+000,3.1428562044e+000,3.5278679951e+000,4.7078258071e+000,4.8360272103e+000,3.4187461501e+000,4.1558134858e+000,3.2983728016e+000,4.3169433044e+000,3.4576761562e+000,3.9530574976e+000,3.4170576773e+000,3.5716099059e+000,
2.0250000000e+001,3.6428450772e+000,3.9227573113e+000,3.2627653483e+000,3.5976485545e+000,4.8496418401e+000,4.8709300128e+000,3.4305107255e+000,4.2328272351e+000,3.3856062209e+000,4.3173539525e+000,3.4910855020e+000,3.9135514388e+000,3.2595171872e+000,3.4964337909e+000,
2.0343750000e+001,3.5655953066e+000,3.8581391757e+000,3.1718621064e+000,3.5244589688e+000,4.6903295394e+000,4.8645334077e+000,3.3872408044e+000,4.2457439028e+000,3.4352688048e+000,4.2841643879e+000,3.4730958345e+000,3.9534115169e+000,3.3253935858e+000,3.4793001464e+000,
2.0437500000e+001,3.5913624661e+000,3.8822913911e+000,3.2099086040e+000,3.5302249587e+000,4.7567634876e+000,4.8304432474e+000,3.3912399171e+000,4.1699274408e+000,3.4909620630e+000,4.2044092725e+000,3.4927317877e+000,3.9534929208e+000,3.3845641736e+000,3.5308521564e+000,
2.0531250000e+001,3.4723709923e+000,3.8463653273e+000,3.0594645733e+000,3.4816668588e+000,4.7571124885e+000,4.8901089103e+000,3.1902147535e+000,4.1782679030e+000,3.1901801306e+000,4.1841727115e+000,3.2285751032e+000,3.9955421469e+000,3.3327229589e+000,3.4361377909e+000,
2.0625000000e+001,3.4612282543e+000,3.8077068734e+000,3.0443726046e+000,3.4336193035e+000,4.7846025898e+000,4.8910660737e+000,3.2352356356e+000,4.1188280798e+000,3.1565546786e+000,4.2199943028e+000,3.3106479510e+000,3.9837542981e+000,3.2545497632e+000,3.3680044336e+000,
2.0718750000e+001,3.4278130640e+000,3.8310316730e+000,3.1052434542e+000,3.4563202664e+000,4.8084815705e+000,4.8735533650e+000,3.1372241873e+000,4.1364819993e+000,3.2660480511e+000,4.2353894960e+000,3.3556208140e+000,3.9580707144e+000,3.2733403097e+000,3.3497911343e+000,
2.0812500000e+001,3.4180934065e+000,3.7627257056e+000,3.1016516511e+000,3.4196485716e+000,4.8303924263e+000,4.7776344394e+000,3.0626074080e+000,4.1077655253e+000,3.2490416904e+000,4.2523429755e+000,3.3206089681e+000,4.0167199933e+000,3.3026239250e+000,3.3876316779e+000,
2.0906250000e+001,3.4077957195e+000,3.7410445433e+000,3.0771136606e+000,3.4026721756e+000,4.8191583456e+000,4.7438770583e+000,3.0818157590e+000,4.0733534545e+000,3.2282335091e+000,4.2623866063e+000,3.3538250014e+000,4.0404155430e+000,3.2811516070e+000,3.4848735349e+000,
2.1000000000e+001,3.4607615413e+000,3.7620954549e+000,3.0258470184e+000,3.4308930620e+000,4.7713642048e+000,4.6790503419e+000,3.1373158006e+000,4.0453962726e+000,3.2043508418e+000,4.3214403629e+000,3.3449953326e+000,3.9997700618e+000,3.2854911706e+000,3.4426693044e+000,
2.1093750000e+001,3.4545515967e+000,3.7429212320e+000,2.9835637458e+000,3.4237448246e+000,4.7728717488e+000,4.7516231998e+000,3.1107388825e+000,4.0142019081e+000,3.1812876065e+000,4.3513620985e+000,3.5500021447e+000,4.0880827946e+000,3.4077786406e+000,3.3756985848e+000,
2.1187500000e+001,3.3681065209e+000,3.7058588671e+000,2.9542696405e+000,3.3783063007e+000,4.7905548911e+000,4.6945781188e+000,3.0487003936e+000,3.9294922896e+000,3.2237453415e+000,4.3972089732e+000,3.6152379291e+000,4.1195602347e+000,3.3971721103e+000,3.4426730787e+000,
2.1281250000e+001,3.5945840125e+000,3.7234271725e+000,3.2878850741e+000,3.4503401226e+000,4.7472577493e+000,4.6892629433e+000,3.1918045074e+000,3.9603273240e+000,3.0738338901e+000,4.3883158151e+000,3.5158262892e+000,4.1010358047e+000,3.3546740032e+000,3.6115428647e+000,
2.1375000000e+001,3.8774955285e+000,3.8459900476e+000,3.4774455598e+000,3.4830332251e+000,4.7606127844e+000,4.7143724006e+000,3.1853521004e+000,3.9992546354e+000,3.1103093566e+000,4.4075176133e+000,3.5178269520e+000,4.1531719434e+000,3.3736272513e+000,3.6359939700e+000,
2.1468750000e+001,3.9654193652e+000,3.8036939129e+000,3.5964089228e+000,3.4927714742e+000,4.7098250787e+000,4.7372791302e+000,3.1803623891e+000,3.9310582809e+000,3.0111916633e+000,4.3686947296e+000,3.4644186546e+000,4.1201864816e+000,3.2999175936e+000,3.5505626510e+000,
2.1562500000e+001,4.0128152305e+000,3.6682489179e+000,3.7004492946e+000,3.6164788735e+000,4.7015333923e+000,4.7450385714e+000,3.1511703943e+000,3.8426858811e+000,3.0132862017e+000,4.3514910229e+000,3.3550299633e+000,4.1152730140e+000,3.2782911011e+000,3.5207422603e+000,
2.1656250000e+001,4.0037810503e+000,3.6359703410e+000,3.7161255762e+000,3.9514479624e+000,4.7837357009e+000,4.6892167050e+000,3.0874011369e+000,3.7390026797e+000,3.0546262523e+000,4.2575704367e+000,3.2096345916e+000,4.0086677229e+000,3.3070138401e+000,3.4920264137e+000,
2.1750000000e+001,4.3867617510e+000,4.1736113584e+000,3.8362620997e+000,4.0235752306e+000,4.8325710377e+000,4.8391701958e+000,3.3107180763e+000,3.8671005038e+000,2.9151367478e+000,4.2472214443e+000,3.2282787466e+000,4.0596693106e+000,3.3482840722e+000,3.5253977744e+000,
2.1843750000e+001,4.6173562437e+000,4.5281749867e+000,3.8826493993e+000,4.0466877968e+000,4.9577075919e+000,4.9520515518e+000,3.5378933040e+000,3.9115495506e+000,2.9943150598e+000,4.1134756358e+000,3.2885486916e+000,3.9950673110e+000,3.3525415383e+000,3.4443991696e+000,
2.1937500000e+001,4.6381421879e+000,4.5644015025e+000,3.8846115625e+000,4.0331955726e+000,4.9822383232e+000,4.9289942728e+000,3.5009909359e+000,3.9256949650e+000,3.0392274964e+000,4.1974899733e+000,3.3255926293e+000,4.0169307547e+000,3.3730237872e+000,3.4527510480e+000,
2.2031250000e+001,4.6538899101e+000,4.6074637098e+000,3.9127644541e+000,4.0435369604e+000,5.0013719035e+000,4.8619553374e+000,3.4574102473e+000,3.9467807173e+000,3.2272258205e+000,4.0944315991e+000,3.3812104677e+000,3.9380532950e+000,3.3972325935e+000,3.4901541124e+000,
2.2125000000e+001,4.6587200227e+000,4.6112793088e+000,3.9271172652e+000,4.0517009182e+000,5.0226484861e+000,4.8943310305e+000,3.4075233019e+000,3.8822965943e+000,3.1559922382e+000,3.9892372205e+000,3.2165361787e+000,3.9467969833e+000,3.3140624624e+000,3.5282382709e+000,
2.2218750000e+001,4.6526568826e+000,4.5648899237e+000,3.8733191844e+000,4.0031470392e+000,5.0375876404e+000,4.8837112800e+000,3.3121731017e+000,3.8006737146e+000,3.2354152564e+000,3.8946781086e+000,3.2147191661e+000,3.9105473056e+000,3.2641130301e+000,3.4696968494e+000,
2.2312500000e+001,4.5881682504e+000,4.4822143200e+000,3.8850496999e+000,3.9193201227e+000,5.0157642433e+000,4.7340812499e+000,3.2085318750e+000,3.6105181806e+000,3.3107138709e+000,3.6991198855e+000,3.1498272461e+000,3.7582992814e+000,3.1217395005e+000,3.3098244184e+000,
2.2406250000e+001,4.5197222896e+000,4.4867389441e+000,3.7567281203e+000,3.9581900793e+000,4.9722540982e+000,4.7360061401e+000,3.3070422102e+000,3.7194770994e+000,3.2711871841e+000,3.6847140223e+000,3.2855785197e+000,3.7251760371e+000,3.0621655361e+000,3.3388190870e+000,
2.2500000000e+001,4.4598564225e+000,4.4826315093e+000,3.6315016582e+000,3.9066918313e+000,4.9261518314e+000,4.6921446138e+000,3.3022726421e+000,3.6856977664e+000,3.3194187849e+000,3.6236704232e+000,3.2409307341e+000,3.6842076895e+000,3.0890350855e+000,3.3643435383e+000,
2.2593750000e+001,4.5223309726e+000,4.4848421089e+000,3.7182588062e+000,3.4466946608e+000,4.8349332860e+000,4.6497308357e+000,3.3039259032e+000,3.6783772503e+000,3.3177816842e+000,3.6207985809e+000,3.2571395569e+000,3.6881940532e+000,2.9751124033e+000,3.3574740873e+000,
2.2687500000e+001,4.4764476974e+000,4.4668058037e+000,3.6206304752e+000,3.3818751809e+000,4.7890370397e+000,4.6244038715e+000,3.2776713259e+000,3.7163422234e+000,3.2680689030e+000,3.6785678037e+000,3.2701741654e+000,3.8018730275e+000,3.0348946070e+000,3.3819153843e+000,
2.2781250000e+001,4.1189012381e+000,3.9380814137e+000,3.5525327651e+000,3.3155111222e+000,4.5734973117e+000,4.4229318387e+000,3.0032818300e+000,3.5664352051e+000,3.2328859323e+000,3.7987403304e+000,3.1822545681e+000,3.8146955118e+000,2.9118093447e+000,3.3335931439e+000,
2.2875000000e+001,3.7483481378e+000,3.3903443953e+000,3.5030861102e+000,3.2392408045e+000,4.2410675516e+000,4.1483633380e+000,2.8632234921e+000,3.5204853674e+000,3.1901499747e+000,3.8646875763e+000,3.1629052985e+000,3.8158114700e+000,3.0081523639e+000,3.3759616258e+000,
2.2968750000e+001,3.8207695693e+000,3.5808799363e+000,3.5548703239e+000,3.4823092015e+000,4.2559664494e+000,4.1984424986e+000,2.9751083963e+000,3.7087165698e+000,3.1040591804e+000,3.8792659041e+000,3.0136432420e+000,3.8897547126e+000,3.0107164477e+000,3.4194950035e+000,
2.3062500000e+001,3.7883931060e+000,3.4376651999e+000,3.5080804673e+000,3.4975475121e+000,4.3100586213e+000,4.2311129915e+000,3.1572631294e+000,3.7808973533e+000,3.1350257590e+000,3.8455310179e+000,3.0505497684e+000,3.8377140267e+000,2.9710358406e+000,3.3338085609e+000,
2.3156250000e+001,3.7914267241e+000,3.4206160507e+000,3.4979772935e+000,3.4608831819e+000,4.2051550379e+000,4.1151765678e+000,3.1988960518e+000,3.6981453070e+000,3.2350040036e+000,3.8039168066e+000,2.9685228984e+000,3.7962689267e+000,2.9791221036e+000,3.2560461456e+000,
2.3250000000e+001,3.6031133943e+000,3.3579044158e+000,3.3233946905e+000,3.4438647792e+000,4.2686683441e+000,4.0927953345e+000,3.2090682183e+000,3.6925787052e+000,3.1033341155e+000,3.8314566171e+000,2.8910005997e+000,3.8008194534e+000,3.0804471471e+000,3.2241214441e+000,
2.3343750000e+001,3.3742203760e+000,3.3566033913e+000,3.0307985392e+000,3.4214496933e+000,4.4304941616e+000,4.0035498297e+000,3.2009749506e+000,3.7213729044e+000,3.0370050352e+000,3.8623788077e+000,2.8874726242e+000,3.8292503006e+000,3.1044208603e+000,3.1712830325e+000,
2.3437500000e+001,3.3224053909e+000,3.2750394165e+000,2.9978706490e+000,3.3236957066e+000,4.5311206139e+000,3.8569128115e+000,3.1008528451e+000,3.6453563547e+000,3.0467551988e+000,3.9422598077e+000,2.7303881685e+000,3.8653306328e+000,3.1326879942e+000,3.1846946231e+000,
2.3531250000e+001,3.2938859988e+000,3.1930648218e+000,2.9606362241e+000,3.2870912927e+000,4.5496545233e+000,3.8924037352e+000,3.0731540050e+000,3.6477019987e+000,3.0157719090e+000,3.9899244276e+000,2.8110102545e+000,3.9024793878e+000,3.0941251971e+000,3.2101671428e+000,
2.3625000000e+001,2.9292252913e+000,3.1587794963e+000,2.4476331628e+000,3.2606283774e+000,4.5885818648e+000,3.8415383105e+000,3.0177549620e+000,3.7379347399e+000,3.0820367879e+000,3.9077248334e+000,2.9167208040e+000,3.8070197711e+000,3.1488474049e+000,3.1716976678e+000,
2.3718750000e+001,2.9620218295e+000,3.1720462532e+000,2.4791573948e+000,3.1972427791e+000,4.6411034167e+000,3.8879684075e+000,3.0355306814e+000,3.8099824752e+000,3.1283274389e+000,3.8118175167e+000,3.0091828526e+000,3.7446263787e+000,3.2070155936e+000,3.2452085603e+000,
2.3812500000e+001,2.9738295322e+000,3.1785815091e+000,2.5840736584e+000,3.2178953844e+000,4.6462690457e+000,3.8524223996e+000,3.0591712776e+000,3.7897135600e+000,3.1064469860e+000,3.8188071981e+000,2.9791321886e+000,3.6701795336e+000,3.2558386359e+000,3.2676641053e+000,
2.3906250000e+001,2.9654658573e+000,3.1910672678e+000,2.5676371794e+000,3.2431146590e+000,4.6241740008e+000,4.0116070848e+000,2.9675541172e+000,3.8198012337e+000,3.1550586772e+000,3.8024251766e+000,3.0798985704e+000,3.5406197771e+000,3.1902940545e+000,3.1555926270e+000,
2.4000000000e+001,2.7801274189e+000,2.9935061914e+000,2.5045297976e+000,2.9064803853e+000,4.6141798628e+000,4.0251801104e+000,2.9008025273e+000,3.6108287099e+000,3.0385719105e+000,3.7072614524e+000,3.2277531177e+000,3.6305029214e+000,3.2830638929e+000,3.3020617951e+000,
2.4093750000e+001,3.8274343074e+000,4.4640290144e+000,2.7087318364e+000,3.2151540565e+000,4.8150210494e+000,4.5289181486e+000,2.8970329493e+000,3.9406416165e+000,2.9386584369e+000,3.8814159107e+000,3.2384170625e+000,3.8251031620e+000,3.3387116826e+000,3.4165045983e+000,
2.4187500000e+001,4.2924648499e+000,4.8877752139e+000,2.9210985233e+000,3.3963562047e+000,4.9184264552e+000,4.7651330651e+000,3.1635723442e+000,4.0806770939e+000,3.1041782197e+000,3.9389812771e+000,3.2313796675e+000,3.7856733258e+000,3.3711526711e+000,3.4205438519e+000,
2.4281250000e+001,4.3727551872e+000,4.9712463823e+000,3.0724038097e+000,3.4973598985e+000,5.0453175556e+000,4.8303962644e+000,3.2234085600e+000,4.1277468357e+000,3.0814199095e+000,3.9919700823e+000,3.2048263782e+000,3.8613879786e+000,3.3422375007e+000,3.5639101330e+000,
2.4375000000e+001,4.4333368559e+000,5.0187414746e+000,3.1901271408e+000,3.6326655162e+000,5.1098313270e+000,4.8817070029e+000,3.2156064109e+000,4.1597733888e+000,3.1310196154e+000,4.1573113846e+000,3.2107426397e+000,4.0727535310e+000,3.3468727003e+000,3.6984323796e+000,
2.4468750000e+001,4.4901312526e+000,5.0720015675e+000,3.2609376934e+000,3.7757980917e+000,5.0831344722e+000,4.9217257665e+000,3.3844094718e+000,4.2352953498e+000,3.2496771516e+000,4.1568370046e+000,3.2061064111e+000,4.0871693806e+000,3.3432715196e+000,3.7664045820e+000,
2.4562500000e+001,4.4931447260e+000,5.0756976829e+000,3.2726568344e+000,3.7712896496e+000,5.0607423367e+000,4.8871115731e+000,3.4165116592e+000,4.2525773473e+000,3.2178587159e+000,4.2563715012e+000,3.2274611397e+000,4.1025276224e+000,3.3871964957e+000,3.7984737882e+000,
2.4656250000e+001,4.4939547025e+000,5.0836745282e+000,3.2756981516e+000,3.7866162828e+000,5.0401019882e+000,4.9235295803e+000,3.4104500355e+000,4.2582655373e+000,3.1724079257e+000,4.3250961135e+000,3.2012765530e+000,4.1415770372e+000,3.3512820561e+000,3.8688565034e+000,
2.4750000000e+001,4.5150707322e+000,5.0878158088e+000,3.3121344977e+000,3.8126670866e+000,5.1016140228e+000,4.9309331480e+000,3.4356062689e+000,4.2536392991e+000,3.1454522463e+000,4.3741114601e+000,3.1111232236e+000,4.1730995846e+000,3.3505923478e+000,3.8808606970e+000,
2.4843750000e+001,4.5345206231e+000,5.1091020890e+000,3.2879864985e+000,3.7951581318e+000,5.1886418806e+000,4.9795203707e+000,3.4239919926e+000,4.3548952515e+000,3.1345244720e+000,4.4178042826e+000,3.0820186400e+000,4.2142692495e+000,3.2732742468e+000,3.9096014044e+000,
2.4937500000e+001,4.5209682412e+000,5.1026469334e+000,3.2758285979e+000,3.8012420474e+000,5.2019370695e+000,4.9483068318e+000,3.3891117854e+000,4.3139489462e+000,3.1581771410e+000,4.4631262586e+000,2.9692057238e+000,4.2727315846e+000,3.2263979553e+000,3.8801643493e+000,
2.5031250000e+001,4.5501708015e+000,5.1154304447e+000,3.3432417808e+000,3.8506606735e+000,5.2149969326e+000,4.9803884653e+000,3.4346281571e+000,4.3008331425e+000,3.2120873831e+000,4.4660112791e+000,3.0668265205e+000,4.1796888788e+000,3.1918221661e+000,3.8521968250e+000,
2.5125000000e+001,4.1980930252e+000,4.5230323639e+000,3.3021837415e+000,3.7215782623e+000,5.0829744581e+000,4.6580094057e+000,3.2755894993e+000,4.0903958577e+000,3.0673139870e+000,4.4271863206e+000,3.0342028446e+000,4.1298821145e+000,3.1716593590e+000,3.7670615095e+000,
2.5218750000e+001,3.8540270753e+000,4.0597559133e+000,3.2624721367e+000,3.6890909466e+000,5.0620944354e+000,4.5033170300e+000,3.1557721284e+000,4.0475715909e+000,3.1338712994e+000,4.4753486718e+000,3.0457546913e+000,4.1674461231e+000,3.0991032973e+000,3.8155277822e+000,
2.5312500000e+001,3.7113771254e+000,3.8799962940e+000,3.1651904225e+000,3.5976593806e+000,4.7775363616e+000,4.4191391756e+000,3.1170140202e+000,4.0056022851e+000,3.1334577812e+000,4.3835268019e+000,3.0253644823e+000,3.9893263168e+000,3.0842998489e+000,3.6793262562e+000,
2.5406250000e+001,3.5964183104e+000,3.7244473158e+000,3.0699153617e+000,3.5001455789e+000,4.7512275261e+000,4.3992933220e+000,3.0343003993e+000,4.0065993597e+000,3.0869461568e+000,4.3248830625e+000,3.0173493030e+000,3.8841998040e+000,3.0722911066e+000,3.5686271840e+000,
2.5500000000e+001,3.5249850687e+000,3.5972235670e+000,3.0216331325e+000,3.3882540041e+000,4.7220090646e+000,4.4207559154e+000,2.7947529398e+000,3.8541001291e+000,3.0849277720e+000,4.2546006221e+000,3.0488768399e+000,3.8473788318e+000,3.1078415933e+000,3.4534547983e+000,
2.5593750000e+001,3.7238442123e+000,3.8266711349e+000,3.1520611848e+000,3.4821395380e+000,4.8786811925e+000,4.5523220790e+000,2.9761519915e+000,4.0180003502e+000,3.0621863555e+000,4.2110758617e+000,3.1226776113e+000,3.7963006831e+000,3.0255657358e+000,3.3938939246e+000,
2.5687500000e+001,3.7012437520e+000,3.8200451810e+000,3.1103619571e+000,3.5780711372e+000,4.9429582073e+000,4.6512762322e+000,2.9576615589e+000,4.0939868893e+000,3.0308195473e+000,4.1745847672e+000,3.1353755329e+000,3.7685828229e+000,2.9447694393e+000,3.3046184135e+000,
2.5781250000e+001,3.6720786573e+000,3.8191208463e+000,3.1355823667e+000,3.5741479317e+000,4.7896587991e+000,4.8219775562e+000,3.0757677302e+000,4.0156645783e+000,3.1428834227e+000,4.0629607403e+000,3.1191839236e+000,3.6171198307e+000,2.8855069642e+000,3.2139919540e+000,
2.5875000000e+001,3.7065241217e+000,3.7655771393e+000,3.1356671683e+000,3.5244397907e+000,4.7503274695e+000,4.7961678625e+000,3.1186737107e+000,3.9647741649e+000,3.1621129256e+000,4.0238163871e+000,3.2037032837e+000,3.7502619575e+000,2.9800701560e+000,3.2307105629e+000,
2.5968750000e+001,3.6710551342e+000,3.7506894235e+000,3.1018972700e+000,3.5365293320e+000,4.7179409837e+000,4.7880666798e+000,3.0465910166e+000,3.9168360803e+000,3.2939753593e+000,3.8922143821e+000,3.3098497954e+000,3.6217874205e+000,3.1669073857e+000,3.1993875850e+000,
2.6062500000e+001,3.5753775917e+000,3.7838445201e+000,3.0341084023e+000,3.5568140388e+000,4.6947919274e+000,4.7478613173e+000,2.9855284302e+000,3.9805580213e+000,3.3317994771e+000,3.8552155716e+000,3.2297963617e+000,3.5626082367e+000,3.0581401609e+000,3.2223897175e+000,
2.6156250000e+001,3.4352537478e+000,3.7775783356e+000,2.9702328076e+000,3.5462831969e+000,4.6622344356e+000,4.7304160714e+000,3.0145685959e+000,4.0020526008e+000,3.2798921049e+000,3.9233138237e+000,3.2329561831e+000,3.6648562864e+000,3.1138517883e+000,3.2615763157e+000,
2.6250000000e+001,3.5492967299e+000,3.7150272834e+000,3.1757378283e+000,3.5235628247e+000,4.5734721949e+000,4.7427287035e+000,2.9417260141e+000,3.9427330899e+000,3.2551094663e+000,3.8094751239e+000,3.2760535784e+000,3.6303120801e+000,3.1386661701e+000,3.2329560597e+000,
2.6343750000e+001,3.5264159151e+000,3.7142027544e+000,3.1483401176e+000,3.5217435530e+000,4.4817202511e+000,4.7641874546e+000,2.9373331709e+000,3.9409287833e+000,3.3148015959e+000,3.7639802252e+000,3.2620895536e+000,3.6764456738e+000,3.1253600591e+000,3.1906767037e+000,
2.6437500000e+001,3.6608805046e+000,3.7203603476e+000,3.2766615015e+000,3.5646297515e+000,4.5124156181e+000,4.7891224104e+000,3.0985693306e+000,3.9620853828e+000,3.2611727939e+000,3.7753281911e+000,3.2506373329e+000,3.6712055710e+000,3.1199592500e+000,3.2407201805e+000,
2.6531250000e+001,3.8590857423e+000,3.7620648212e+000,3.5788341089e+000,3.6332598662e+000,4.4389048813e+000,4.8711090041e+000,3.1529277725e+000,4.0486148830e+000,3.1847074821e+000,3.8858473222e+000,3.3065513572e+000,3.7077217191e+000,3.1721374708e+000,3.2153889563e+000,
2.6625000000e+001,3.8559745293e+000,3.6536734888e+000,3.7137804067e+000,3.6253686719e+000,4.3746867005e+000,4.7953074987e+000,3.2261638761e+000,4.0148207932e+000,3.3049786907e+000,3.9204363491e+000,3.2471262893e+000,3.7920329263e+000,3.3605209203e+000,3.4539458908e+000,
2.6718750000e+001,4.3029409581e+000,4.1950120094e+000,3.8407514980e+000,3.5342780229e+000,4.4065021797e+000,4.7591253012e+000,3.3704686411e+000,3.8934061664e+000,3.3488224948e+000,3.9286705438e+000,3.2586443628e+000,3.9129503895e+000,3.4032339970e+000,3.5136321572e+000,
2.6812500000e+001,4.6160684951e+000,4.6701390970e+000,4.0288460787e+000,3.7716188121e+000,4.7529862670e+000,4.8283061794e+000,3.4365055198e+000,4.0703483019e+000,3.3076674849e+000,3.8899204859e+000,3.2710403292e+000,3.8877719388e+000,3.4737866051e+000,3.5231756870e+000,
2.6906250000e+001,4.6596840231e+000,4.7182015929e+000,4.0524890523e+000,3.8160986832e+000,4.7818615992e+000,4.8661322440e+000,3.4571593957e+000,4.0915264602e+000,3.2204498279e+000,3.8361074895e+000,3.1575434074e+000,3.8826645469e+000,3.4340699278e+000,3.6333223363e+000,
2.7000000000e+001,4.7005867845e+000,4.7117807517e+000,4.0847140046e+000,3.7897494918e+000,4.8052586926e+000,4.8993133820e+000,3.4402083375e+000,4.1528389960e+000,3.1029254006e+000,3.8861466695e+000,3.0939560342e+000,3.8984112261e+000,3.4314493054e+000,3.6869803700e+000,
2.7093750000e+001,4.7620663418e+000,4.6976247708e+000,4.1214136618e+000,3.8003727735e+000,4.7484069638e+000,4.9204962221e+000,3.4336622311e+000,4.1026955351e+000,3.0574898569e+000,3.9053163460e+000,3.0110288902e+000,3.9204537940e+000,3.4634030663e+000,3.7402911947e+000,
2.7187500000e+001,4.7499125903e+000,4.6741119687e+000,4.0915836294e+000,3.7422737531e+000,4.6596376658e+000,4.8449027644e+000,3.3895921587e+000,4.1133113213e+000,3.1108750847e+000,3.9164973512e+000,3.0534683609e+000,3.9510046342e+000,3.4955597643e+000,3.7212593043e+000,
2.7281250000e+001,4.7493626868e+000,4.6861208482e+000,4.0890858216e+000,3.7298285039e+000,4.6733261670e+000,4.8129420357e+000,3.4109536259e+000,4.0434984834e+000,3.1621197497e+000,3.8964790748e+000,3.1653241429e+000,3.9368963347e+000,3.4649203263e+000,3.7022958958e+000,
2.7375000000e+001,4.8152417053e+000,4.7292698230e+000,4.2239334932e+000,3.8780073539e+000,4.6810845076e+000,4.8170365389e+000,3.3988224189e+000,4.0580594823e+000,3.0790999457e+000,4.0006755570e+000,3.1796506523e+000,3.9580597910e+000,3.4691486077e+000,3.7176873896e+000,
2.7468750000e+001,4.8307231037e+000,4.7719857815e+000,4.2295247737e+000,3.9205728152e+000,4.6912849799e+000,4.9192184348e+000,3.3483493970e+000,4.1026885846e+000,3.1803781701e+000,4.1228544099e+000,3.3453334424e+000,4.0233890366e+000,3.4624339013e+000,3.7108395898e+000,
2.7562500000e+001,4.7545207428e+000,4.7447531692e+000,4.0893301930e+000,3.8446938555e+000,4.6433155369e+000,4.8240329201e+000,3.2948571563e+000,4.0374938548e+000,3.2627553596e+000,4.0624574583e+000,3.3254837250e+000,3.9966754510e+000,3.4765450265e+000,3.7201649128e+000,
2.7656250000e+001,4.6777221382e+000,4.6908753186e+000,3.9932511133e+000,3.8438172148e+000,4.6736934977e+000,4.7952057604e+000,3.0134610526e+000,3.9638010295e+000,3.0753368530e+000,4.0954842175e+000,3.3578909834e+000,4.0990380506e+000,3.3550207690e+000,3.6447476531e+000,
2.7750000000e+001,4.3404374780e+000,4.1286172923e+000,3.9144381320e+000,3.8458124450e+000,4.4747223493e+000,4.5698722876e+000,2.7785118765e+000,3.9387898589e+000,3.0758520115e+000,4.0744419125e+000,3.4088782188e+000,4.0397757428e+000,3.3895811235e+000,3.5686556172e+000,
2.7843750000e+001,4.1847711940e+000,3.9231166791e+000,3.8838626356e+000,3.8036483585e+000,4.1376338507e+000,4.4319989168e+000,2.7160721679e+000,3.8739387781e+000,3.1698202970e+000,4.1655630594e+000,3.4086012145e+000,4.1337509997e+000,3.4795217717e+000,3.6926038401e+000,
2.7937500000e+001,4.1407940235e+000,3.9129375206e+000,3.9237007181e+000,3.8326456730e+000,4.1771103539e+000,4.4719688191e+000,2.7167200651e+000,4.0234392782e+000,3.1910741319e+000,4.2335284971e+000,3.3634032452e+000,4.1540106711e+000,3.4533009141e+000,3.6519155368e+000,
2.8031250000e+001,4.0437158751e+000,3.8555838269e+000,3.8755523240e+000,3.8110208589e+000,4.3378719080e+000,4.4135643500e+000,3.4131752315e+000,3.9608479162e+000,3.2774482742e+000,4.1902284166e+000,3.3838829890e+000,4.1011875493e+000,3.3500488972e+000,3.4586327431e+000,
2.8125000000e+001,4.1078535047e+000,3.9475707223e+000,3.9181666009e+000,3.8515898123e+000,4.4816760898e+000,4.4312656821e+000,3.5798122031e+000,4.0855124764e+000,3.3536450646e+000,4.2342431629e+000,3.3581896360e+000,4.0805192225e+000,3.2442214971e+000,3.4366535816e+000,
2.8218750000e+001,4.0804341756e+000,3.9434053556e+000,3.8981163553e+000,3.8478495435e+000,4.5409336918e+000,4.5485265615e+000,3.6007687318e+000,4.0771869293e+000,3.2773056154e+000,4.2314659462e+000,3.2921564853e+000,4.0440569081e+000,3.2375077923e+000,3.4777730049e+000,
2.8312500000e+001,4.0576544509e+000,3.9855173335e+000,3.8181073869e+000,3.8308151922e+000,4.5308753694e+000,4.5496347661e+000,3.5883942839e+000,4.1485481460e+000,3.2489389791e+000,4.1756043269e+000,3.4466003197e+000,4.0849495363e+000,3.4419537933e+000,3.7564423747e+000,
2.8406250000e+001,4.0643620810e+000,4.0964373398e+000,3.8081471214e+000,3.8632770661e+000,4.6027711078e+000,4.5339942921e+000,3.5686014574e+000,4.3103304960e+000,3.2333956452e+000,4.2489316062e+000,3.3662474639e+000,4.1362887200e+000,3.4491779450e+000,3.7688904560e+000,
2.8500000000e+001,3.9846005992e+000,4.0230417015e+000,3.7404992769e+000,3.7993135817e+000,4.5731254151e+000,4.4087105275e+000,3.5295104970e+000,4.2151130511e+000,3.0955855426e+000,4.1612404536e+000,3.2659906734e+000,4.0575419460e+000,3.3766291301e+000,3.7279860287e+000,
2.8593750000e+001,3.9440489789e+000,4.0067364054e+000,3.7026708569e+000,3.8003085690e+000,4.6017698441e+000,4.4678271101e+000,3.5230880624e+000,4.2291794062e+000,3.0304063613e+000,4.1671735729e+000,3.1107535455e+000,4.0473595195e+000,3.3401988993e+000,3.7353101071e+000,
2.8687500000e+001,3.8689083286e+000,3.9265199104e+000,3.6028046631e+000,3.6621142445e+000,4.5726782426e+000,4.4571669202e+000,3.5277744002e+000,4.1988822682e+000,3.1430905825e+000,4.1627141890e+000,2.9843309990e+000,3.9159282511e+000,3.2192666483e+000,3.6459748053e+000,
2.8781250000e+001,3.8126599424e+000,3.8661412482e+000,3.5543300362e+000,3.5653015374e+000,4.5784779124e+000,4.4771476353e+000,3.5056376470e+000,4.1718940969e+000,3.2017906308e+000,4.2016550388e+000,3.0343827987e+000,3.9950669999e+000,3.1640807279e+000,3.5982968425e+000,
2.8875000000e+001,3.7412193621e+000,3.9227382854e+000,3.4150381576e+000,3.5917842299e+000,4.6043551902e+000,4.5009059910e+000,3.5605700005e+000,4.0856814688e+000,3.1419839266e+000,4.0590666507e+000,3.0823985898e+000,3.8092009212e+000,3.0243511054e+000,3.4874485650e+000,
2.8968750000e+001,3.7580895639e+000,3.9347874767e+000,3.3436194742e+000,3.5122936512e+000,4.5520389527e+000,4.4894997684e+000,3.5992649775e+000,4.0293813384e+000,3.2987557395e+000,4.1134832715e+000,3.1205009590e+000,3.9539671826e+000,3.1913742849e+000,3.6132672389e+000,
2.9062500000e+001,3.7274357313e+000,3.9885682421e+000,3.3361223005e+000,3.5862756273e+000,4.4418584685e+000,4.5504256972e+000,3.1695884105e+000,4.0351647845e+000,3.2814471191e+000,4.0735410344e+000,3.1668597858e+000,3.9986724649e+000,3.1810034329e+000,3.6514454936e+000,
2.9156250000e+001,3.5836509681e+000,3.9838096802e+000,3.2307796315e+000,3.6425414622e+000,4.3696920111e+000,4.4670586517e+000,2.9473126200e+000,4.0002218557e+000,3.2492301919e+000,4.0266696511e+000,3.1886541905e+000,3.9630797597e+000,3.1766318895e+000,3.5857935045e+000,
2.9250000000e+001,3.5419984575e+000,3.9913956739e+000,3.1919910435e+000,3.6262105890e+000,5.8466850275e+000,4.4712977608e+000,2.9850263825e+000,4.0102242536e+000,3.3583896676e+000,4.0226204759e+000,3.0618530462e+000,3.9188039633e+000,3.2211860604e+000,3.5785331522e+000,
2.9343750000e+001,3.1924765545e+000,3.6816653119e+000,2.8772371349e+000,3.3514922093e+000,6.0527746176e+000,4.4911611118e+000,2.9482009933e+000,3.6250921436e+000,3.4070612629e+000,3.9008942753e+000,2.9964452520e+000,3.8477379485e+000,3.0552367553e+000,3.3570588768e+000,
2.9437500000e+001,3.1777939345e+000,3.6759231280e+000,2.8406742567e+000,3.3584784604e+000,6.0943145017e+000,4.4833119901e+000,2.9394492937e+000,3.5999014421e+000,3.4363265598e+000,3.8805622782e+000,3.1006420391e+000,3.8650928083e+000,3.1493078373e+000,3.4410579949e+000,
2.9531250000e+001,3.2262887117e+000,3.6941562336e+000,2.7977788271e+000,3.4088298822e+000,6.1129937944e+000,4.4360514121e+000,3.0155194364e+000,3.6580079080e+000,3.4218914743e+000,3.9295551844e+000,3.0674579509e+000,3.8809774192e+000,3.1840107587e+000,3.4510381668e+000,
2.9625000000e+001,3.2698305116e+000,3.7148379644e+000,2.8320804467e+000,3.4230863320e+000,6.1008385015e+000,4.4573821551e+000,3.0914519282e+000,3.6417552892e+000,3.4400626023e+000,3.9717148964e+000,3.1373711661e+000,3.9012517118e+000,3.2803497691e+000,3.4626021155e+000,
2.9718750000e+001,3.1961878565e+000,3.6874043415e+000,2.7773216910e+000,3.3762333856e+000,6.0877197525e+000,4.4512065052e+000,3.0530349767e+000,3.5443810012e+000,3.3444653565e+000,3.8790241780e+000,3.1471349389e+000,3.8784684276e+000,3.3023701533e+000,3.5215089651e+000,
2.9812500000e+001,3.2112186851e+000,3.5926995575e+000,2.8438818734e+000,3.3493384343e+000,6.0795979326e+000,4.3964742992e+000,2.9298176108e+000,3.5706861736e+000,3.3364751427e+000,3.8770523121e+000,2.9978164682e+000,3.7498097935e+000,3.3011814813e+000,3.5378831071e+000,
2.9906250000e+001,3.2732709421e+000,3.5301887984e+000,2.8393928673e+000,3.3237423139e+000,6.0754642015e+000,4.3363513117e+000,2.9566215992e+000,3.5734156641e+000,3.2061329155e+000,3.9213860646e+000,3.0178529561e+000,3.8089099036e+000,3.2502272276e+000,3.5121616881e+000,
3.0000000000e+001,3.1772079914e+000,3.3267386235e+000,2.7478822090e+000,3.1546093701e+000,6.0698064552e+000,4.1986755072e+000,2.8617218701e+000,3.4570956661e+000,3.0862304147e+000,3.8467699762e+000,2.9585237052e+000,3.5644794484e+000,3.2363553300e+000,3.3857334840e+000,
3.0093750000e+001,3.1137900729e+000,3.3427600703e+000,2.6787758296e+000,3.1098532276e+000,6.0866069171e+000,4.2133848347e+000,2.7459357594e+000,3.4581884359e+000,3.0908365198e+000,3.9055248982e+000,2.8570290611e+000,3.6240171678e+000,3.2728441770e+000,3.4552865462e+000,
3.0187500000e+001,3.1150435127e+000,3.2656857847e+000,2.7622385154e+000,3.1125716382e+000,6.0806193020e+000,4.1608413137e+000,2.8306101856e+000,3.4578110114e+000,3.0245511691e+000,3.8609472383e+000,2.8632680472e+000,3.7184834052e+000,3.3164062446e+000,3.4919104375e+000,
3.0281250000e+001,3.3040344961e+000,3.3654452983e+000,2.9406960876e+000,3.1185239907e+000,5.0358977416e+000,4.1633297613e+000,2.8337561953e+000,3.5048041363e+000,2.7824112202e+000,3.9308708134e+000,2.8115930322e+000,3.8013764762e+000,3.2757153475e+000,3.4312718529e+000,
3.0375000000e+001,3.2655625635e+000,3.2780082540e+000,2.9263103453e+000,3.0625211227e+000,4.2813171178e+000,3.8390570506e+000,2.9732143580e+000,3.5586686454e+000,2.7395276966e+000,3.9222405930e+000,2.8845876214e+000,3.7497264922e+000,3.3493441034e+000,3.4190064183e+000,
3.0468750000e+001,3.4699731031e+000,3.5301893382e+000,3.1153269786e+000,3.2372896023e+000,4.2936326479e+000,3.9128673140e+000,3.1328886034e+000,3.7284093320e+000,2.7624055624e+000,3.9143551774e+000,2.8934732333e+000,3.7284458945e+000,3.4126639401e+000,3.4955792261e+000,
3.0562500000e+001,3.5174742625e+000,3.6322423886e+000,3.1405434731e+000,3.3126404327e+000,5.4810990731e+000,4.0778881872e+000,3.1630527700e+000,3.8309379889e+000,3.0099568065e+000,3.9138176201e+000,2.9875854140e+000,3.7641308239e+000,3.3807050032e+000,3.7810107199e+000,
3.0656250000e+001,3.6294565006e+000,3.6214829484e+000,3.2188761523e+000,3.3210226232e+000,5.7591298181e+000,4.0986553593e+000,3.0795250629e+000,3.8564915133e+000,2.9452187522e+000,3.8952164337e+000,2.9798907816e+000,3.7820732257e+000,3.4223308865e+000,4.6885996378e+000,
3.0750000000e+001,3.7404556556e+000,3.6511378429e+000,3.2965244918e+000,3.3658816021e+000,5.8173954151e+000,4.2045001381e+000,3.0867884456e+000,3.9279675420e+000,2.9257837634e+000,4.0376346943e+000,2.9777323465e+000,3.9252694345e+000,3.4450000935e+000,4.9026983494e+000,
3.0843750000e+001,3.8178053002e+000,3.6469035162e+000,3.4034003312e+000,3.3161197432e+000,5.8471291459e+000,4.2584879570e+000,3.1029064075e+000,3.9250865126e+000,2.9299311443e+000,4.0683332182e+000,2.9738591638e+000,3.9356336482e+000,3.4655247444e+000,4.9103132145e+000,
3.0937500000e+001,3.8180251648e+000,3.6977472327e+000,3.3894038592e+000,3.3266164322e+000,5.8515646322e+000,4.3258970814e+000,3.0313727352e+000,3.9742423782e+000,2.9900918198e+000,4.0524674860e+000,3.0667518108e+000,3.9281271701e+000,3.4708796861e+000,4.8974314768e+000,
3.1031250000e+001,3.8586071878e+000,3.6766212088e+000,3.4026609862e+000,3.2966749457e+000,5.8625661183e+000,4.3043808822e+000,3.0935657066e+000,3.9842929288e+000,3.0419546671e+000,4.0404466163e+000,3.0976294370e+000,3.9078430945e+000,3.4569552473e+000,4.8672326891e+000,
3.1125000000e+001,3.9261430368e+000,3.7158890174e+000,3.5851237220e+000,3.3928168766e+000,5.8918858880e+000,4.3242110698e+000,3.0809142829e+000,3.9945395037e+000,3.1109306200e+000,3.9988767431e+000,3.1025595394e+000,3.9032961813e+000,3.4732449981e+000,4.8774991043e+000,
3.1218750000e+001,4.0303480446e+000,3.9350966141e+000,3.7338608142e+000,3.6187015096e+000,5.9505329497e+000,4.4980105677e+000,3.3364010295e+000,4.1230162905e+000,3.4572100527e+000,4.1541842895e+000,3.3106184441e+000,3.9616682413e+000,3.4751338160e+000,4.8954304340e+000,
3.1312500000e+001,4.0705618603e+000,4.0048972341e+000,3.7700670564e+000,3.7254358759e+000,5.9424452220e+000,4.6147482413e+000,3.4711109408e+000,4.2040888440e+000,3.4696461373e+000,4.2311001782e+000,3.3254392462e+000,4.0467245928e+000,3.3761206577e+000,4.9200586756e+000,
3.1406250000e+001,4.0670044709e+000,4.0147318734e+000,3.8228152670e+000,3.7354151089e+000,5.9278611290e+000,4.6472544871e+000,3.3917367066e+000,4.1706628978e+000,3.4270459332e+000,4.1818636056e+000,3.1967929244e+000,4.0425521281e+000,3.3289598942e+000,4.9157897242e+000,
3.1500000000e+001,4.0496275469e+000,3.9013895415e+000,3.8130878551e+000,3.6868196259e+000,5.9181553280e+000,4.6722572324e+000,3.2858026761e+000,4.1077964739e+000,3.4190495815e+000,4.1510352551e+000,3.2371278663e+000,4.0229102462e+000,3.3679440020e+000,4.9149005250e+000,
3.1593750000e+001,4.1991453890e+000,3.9348607726e+000,3.9436523530e+000,3.6864660547e+000,5.1789172524e+000,4.6088580255e+000,3.3114973701e+000,4.0853679325e+000,3.3922758912e+000,4.3663226781e+000,3.1935852970e+000,4.1349010094e+000,3.3934125873e+000,4.7887646290e+000,
3.1687500000e+001,4.1363951839e+000,3.9454490640e+000,3.9334076541e+000,3.6878042844e+000,4.7952112648e+000,4.5406957258e+000,3.3555693960e+000,4.0378454396e+000,3.4104930557e+000,4.3244410914e+000,3.2236197652e+000,4.0940804126e+000,3.4355269852e+000,3.9420849980e+000,
3.1781250000e+001,4.1742739348e+000,4.0432060852e+000,4.0048825158e+000,3.7620191186e+000,4.7514553271e+000,4.6422537452e+000,3.3692009448e+000,4.0703845486e+000,3.4535100505e+000,4.2743105201e+000,3.3643551024e+000,4.0328267598e+000,3.6086958917e+000,3.7366566658e+000,
3.1875000000e+001,4.1302636742e+000,4.0375205296e+000,4.0173445362e+000,3.7493697760e+000,4.6655978962e+000,4.5528331025e+000,3.3429820021e+000,4.0422304919e+000,3.4330263148e+000,4.2116818664e+000,3.3542490481e+000,3.9874245599e+000,3.6000674016e+000,3.7094836039e+000,
3.1968750000e+001,4.2442728396e+000,4.1155925814e+000,4.1202699438e+000,3.8040820511e+000,4.6799920332e+000,4.5476310166e+000,3.4343993889e+000,4.1373438282e+000,3.5013330597e+000,4.2900797719e+000,3.3001111055e+000,3.9411223374e+000,3.5395448000e+000,3.7244715514e+000,
3.2062500000e+001,4.2682681264e+000,4.1364561493e+000,4.1513896907e+000,3.8212458547e+000,4.6572367185e+000,4.5788480083e+000,3.4275714184e+000,4.1537061745e+000,3.4400674279e+000,4.3868838098e+000,3.3957736303e+000,3.9966780093e+000,3.6486158443e+000,3.7028084634e+000,
3.2156250000e+001,4.2952432005e+000,4.0854302909e+000,4.1338848155e+000,3.7459690287e+000,4.3018105512e+000,4.6210663083e+000,3.3038599219e+000,4.1987160896e+000,3.2700886084e+000,4.3946177906e+000,3.3811118323e+000,4.0319205800e+000,3.6836130103e+000,3.7388532010e+000,
3.2250000000e+001,4.4275510528e+000,4.3865999960e+000,4.0985672137e+000,3.6958419368e+000,4.2716944917e+000,4.7062367151e+000,3.1731945016e+000,4.3306064356e+000,3.1954215155e+000,4.2834016546e+000,3.3122931172e+000,3.9131174116e+000,3.6680183038e+000,3.6651421367e+000,
3.2343750000e+001,4.6310321382e+000,4.7493659198e+000,4.1223315447e+000,3.8629113656e+000,4.7286574012e+000,5.1687917553e+000,3.2738147847e+000,4.4377037256e+000,3.2262632011e+000,4.2977692222e+000,3.3814107135e+000,3.8952363648e+000,3.7732259874e+000,3.5768061517e+000,
3.2437500000e+001,4.6677104720e+000,4.7865802949e+000,4.1265396545e+000,3.9778151887e+000,4.9838464221e+000,5.4667752811e+000,3.4879001452e+000,4.7189971926e+000,3.4397426950e+000,4.4126330416e+000,3.5298889286e+000,4.0043417113e+000,3.9447243341e+000,3.7153233181e+000,
3.2531250000e+001,4.5653028020e+000,4.7603644531e+000,4.0483993137e+000,3.9480110327e+000,5.0276746822e+000,5.5840522563e+000,3.5452642584e+000,4.7290976367e+000,3.4485259578e+000,4.3401605559e+000,3.4851693405e+000,3.9172745069e+000,3.9098844712e+000,3.6143595341e+000,
3.2625000000e+001,4.5679751006e+000,4.7440688301e+000,4.0765478938e+000,3.9199555905e+000,5.0741868280e+000,5.5637243758e+000,3.5585551889e+000,4.6970587284e+000,3.4246870198e+000,4.1544300265e+000,3.5006235611e+000,3.7815509917e+000,3.8963338968e+000,3.5088475655e+000,
3.2718750000e+001,4.5483276546e+000,4.7489619546e+000,4.0700421633e+000,3.9014878057e+000,5.1360004223e+000,5.5592358587e+000,3.6189921794e+000,4.7127879834e+000,3.4943870157e+000,4.1178450353e+000,3.4185070567e+000,3.6805492321e+000,3.7607382666e+000,3.3122326903e+000,
3.2812500000e+001,4.5542925424e+000,4.7225768036e+000,4.0066738980e+000,3.8560205067e+000,5.1669283116e+000,5.5613016199e+000,3.5983747591e+000,4.6677052916e+000,3.5138980367e+000,4.1172453192e+000,3.4074938153e+000,3.7322841630e+000,3.6915012681e+000,3.3808193705e+000,
3.2906250000e+001,4.5303236324e+000,4.7134141109e+000,3.9554655625e+000,3.8759823193e+000,5.1950840051e+000,5.5875586425e+000,3.5585487310e+000,4.6275607811e+000,3.4710719675e+000,4.1060237561e+000,3.4092924692e+000,3.7185609856e+000,3.6987946483e+000,3.3438019407e+000,
3.3000000000e+001,4.4887566265e+000,4.7152411464e+000,3.8651670609e+000,3.8994788435e+000,5.2645896425e+000,5.6446058606e+000,3.6180477787e+000,4.6143410718e+000,3.4047897635e+000,4.0309969605e+000,3.3530391638e+000,3.6764783796e+000,3.6871712366e+000,3.3446753258e+000,
3.3093750000e+001,4.4790885360e+000,4.7171514179e+000,3.8236533560e+000,3.8966566544e+000,5.3202936720e+000,5.6363116236e+000,3.6715472330e+000,4.5857498298e+000,3.3705778584e+000,3.9602234242e+000,3.3015833647e+000,3.6419023159e+000,3.5355992512e+000,3.3132253209e+000,
3.3187500000e+001,4.4444588057e+000,4.7118430534e+000,3.7127040539e+000,3.8919822479e+000,5.3668428184e+000,5.6052759074e+000,3.6888616650e+000,4.5262871603e+000,3.3841575388e+000,3.9100648244e+000,3.4134638545e+000,3.6310281318e+000,3.5262391681e+000,3.2257914934e+000,
3.3281250000e+001,4.1134324170e+000,4.2543666074e+000,3.6355978335e+000,3.7276010605e+000,5.2362777166e+000,5.3167474191e+000,3.7098701644e+000,4.3037053075e+000,3.3895237684e+000,4.0206472955e+000,3.3195138405e+000,3.7454221230e+000,3.4841254490e+000,3.2094431469e+000,
3.3375000000e+001,3.8624360888e+000,3.8855769690e+000,3.5914838446e+000,3.6774614817e+000,5.1907790667e+000,5.1808047359e+000,3.5100170875e+000,4.2901900962e+000,3.3667474665e+000,3.9115772548e+000,3.1431715098e+000,3.6457741313e+000,3.2248893547e+000,3.1161197310e+000,
3.3468750000e+001,3.7830038026e+000,3.7951719088e+000,3.4639245604e+000,3.5110531107e+000,4.9695494501e+000,4.6388150131e+000,3.3254057714e+000,3.8013880868e+000,3.2388094123e+000,3.8050286204e+000,3.0184895352e+000,3.5306534838e+000,2.9687431069e+000,2.7328566052e+000,
3.3562500000e+001,3.6841504107e+000,3.7771791966e+000,3.3292874182e+000,3.4441767730e+000,4.9554379991e+000,4.7263066376e+000,3.2975400979e+000,3.7282348620e+000,3.2587268894e+000,3.7448432077e+000,3.0890420974e+000,3.5508867319e+000,2.8767209302e+000,2.8256394592e+000,
3.3656250000e+001,3.6464655876e+000,3.7574047208e+000,3.2613344581e+000,3.4722887400e+000,4.9231556167e+000,4.7700265446e+000,3.2653569157e+000,3.6946224641e+000,3.1703582119e+000,3.7404196655e+000,3.1215312985e+000,3.6523824217e+000,2.9574341702e+000,2.9531364201e+000,
3.3750000000e+001,3.6187725729e+000,3.7572210199e+000,3.1490692975e+000,3.5259344738e+000,4.8554882914e+000,4.7315828391e+000,3.2312928101e+000,3.6930244266e+000,3.1309588946e+000,3.6869736252e+000,3.1713194481e+000,3.6611852000e+000,2.9070217124e+000,3.0331198101e+000,
3.3843750000e+001,3.5902807205e+000,3.6978156569e+000,3.1493624326e+000,3.4971186110e+000,4.8864984038e+000,4.6790569536e+000,3.2361534202e+000,3.7716562206e+000,3.1735585441e+000,3.6943213675e+000,3.1352690080e+000,3.6452614406e+000,2.9438392495e+000,3.0872486352e+000,
3.3937500000e+001,3.4905664932e+000,3.5729584979e+000,3.0058759306e+000,3.3527587971e+000,4.7768139609e+000,4.6188159460e+000,3.2017449661e+000,3.7614414318e+000,3.2194211275e+000,3.7051354523e+000,3.2275097174e+000,3.8045322222e+000,3.0133412513e+000,3.2178766864e+000,
3.4031250000e+001,3.5075223595e+000,3.6175356280e+000,3.0484449760e+000,3.3560193812e+000,4.6747122523e+000,4.5203628391e+000,3.1738709813e+000,3.7973640708e+000,3.2566920759e+000,3.8371619766e+000,3.2615830360e+000,3.8396684907e+000,3.0836844098e+000,3.2630930566e+000,
3.4125000000e+001,3.5495581932e+000,3.7040418399e+000,3.0328729010e+000,3.3995959674e+000,4.5924097200e+000,4.5751352455e+000,3.0859087552e+000,3.8725418324e+000,3.3475663126e+000,3.9450972536e+000,3.2410983426e+000,3.9528314416e+000,2.9762387180e+000,3.4146760232e+000,
3.4218750000e+001,3.3864447124e+000,3.4921215723e+000,2.8089196354e+000,3.1858280987e+000,4.5186621980e+000,4.5741329823e+000,3.0176269384e+000,3.6581324606e+000,3.2180792237e+000,3.8460231685e+000,3.1739682789e+000,3.8464652468e+000,2.9808950861e+000,3.5088175069e+000,
3.4312500000e+001,3.3387920438e+000,3.4191975391e+000,2.6268407045e+000,3.0710863265e+000,4.3805584426e+000,4.6387150282e+000,2.8864062558e+000,3.5265630172e+000,3.2200616928e+000,3.7648096514e+000,3.2906718449e+000,3.7857926696e+000,3.0003727392e+000,3.5660485653e+000,
3.4406250000e+001,3.3190209327e+000,3.4579227748e+000,2.7094642070e+000,3.1331731765e+000,4.4396497579e+000,4.6758594285e+000,2.8713423382e+000,3.4699178754e+000,3.2259168716e+000,3.8949082286e+000,3.2398492698e+000,3.9625039603e+000,3.1523953615e+000,3.6346157492e+000,
3.4500000000e+001,3.4508859578e+000,3.5127996459e+000,3.0162072919e+000,3.2302336854e+000,4.5783398614e+000,4.6587427631e+000,2.9102211759e+000,3.5527491329e+000,3.1850581012e+000,3.8789010081e+000,3.2192280798e+000,3.9822444897e+000,3.1864933649e+000,3.6339637355e+000,
3.4593750000e+001,3.5402116905e+000,3.5967360473e+000,3.1840910197e+000,3.3248096214e+000,4.5266483629e+000,4.3784893484e+000,2.8891022725e+000,3.5799794204e+000,3.3519951952e+000,3.9217557826e+000,3.1595617427e+000,4.0000251097e+000,3.3064097195e+000,3.7379459837e+000,
3.4687500000e+001,3.5600494444e+000,3.6183069496e+000,3.1932238290e+000,3.3172336996e+000,4.5380041584e+000,4.4425485157e+000,2.9143615447e+000,3.6583597924e+000,3.3342742427e+000,3.9841257468e+000,3.0416716150e+000,3.9717968138e+000,3.3341232624e+000,3.6948070577e+000,
3.4781250000e+001,3.5804584395e+000,3.6487133383e+000,3.1641985647e+000,3.3650492258e+000,4.5727155937e+000,4.4762580527e+000,2.8413494564e+000,3.8175025194e+000,3.2953350495e+000,4.0570101261e+000,3.0123549104e+000,4.0310072659e+000,3.3848281183e+000,3.6997309133e+000,
3.4875000000e+001,3.5650371104e+000,3.8042125842e+000,3.2088365413e+000,3.4891813431e+000,4.4390893848e+000,4.4924188756e+000,2.8824737235e+000,3.8326835843e+000,3.1957293356e+000,4.0916979449e+000,2.9721971365e+000,4.0507517460e+000,3.4396642042e+000,3.7301004232e+000,
3.4968750000e+001,3.6003516642e+000,3.8990153830e+000,3.2472303408e+000,3.5694543886e+000,4.4842577195e+000,4.5447790219e+000,2.9309773260e+000,3.8550080795e+000,3.2326543403e+000,4.0900771279e+000,2.9456840269e+000,3.9673371219e+000,3.3917025351e+000,3.7011271858e+000,
3.5062500000e+001,3.5209228538e+000,3.8479501048e+000,3.2285012844e+000,3.5661192170e+000,4.5423546547e+000,4.5486939369e+000,2.8910320711e+000,3.8554902374e+000,3.2156100616e+000,4.0541851555e+000,2.8609596836e+000,3.9658637541e+000,3.4204001576e+000,3.6703111661e+000,
3.5156250000e+001,3.5116084212e+000,3.8126368808e+000,3.3359981365e+000,3.5435311385e+000,4.5900780998e+000,4.5230545959e+000,2.8693890219e+000,3.8371972661e+000,3.1332355171e+000,3.9585851698e+000,2.8211412192e+000,3.8996950643e+000,3.4926086944e+000,3.6012821271e+000,
3.5250000000e+001,3.6691498073e+000,3.8724352309e+000,3.5537652938e+000,3.6332882391e+000,4.5605529222e+000,4.4884863837e+000,2.9329798347e+000,3.8445167978e+000,3.1272200868e+000,3.9308561550e+000,2.7982198079e+000,3.8758032347e+000,3.4668314819e+000,3.5568615260e+000,
3.5343750000e+001,3.8608653169e+000,3.8868979140e+000,3.7396356797e+000,3.7379810551e+000,4.6343043909e+000,4.3698524432e+000,3.0410089457e+000,3.8711285540e+000,3.0988383664e+000,3.8954786957e+000,2.8408534228e+000,3.8561878724e+000,3.5235757534e+000,3.5766595088e+000,
3.5437500000e+001,3.8884674016e+000,4.0011861885e+000,3.7279161538e+000,3.7721719003e+000,4.5414924292e+000,4.4195284805e+000,3.1357046640e+000,4.0512805306e+000,3.1025204096e+000,3.8991383074e+000,2.9136638553e+000,3.7000630358e+000,3.5265947482e+000,3.5588213002e+000,
3.5531250000e+001,3.9614938794e+000,4.0910055582e+000,3.7030704628e+000,3.8268695607e+000,4.4729842904e+000,4.5675872535e+000,3.2746618608e+000,4.1145673605e+000,3.1030445456e+000,4.0700168612e+000,2.9673316038e+000,3.7751705490e+000,3.4320405764e+000,3.5596429881e+000,
3.5625000000e+001,3.9135745632e+000,4.0105649028e+000,3.6439608864e+000,3.7851320337e+000,4.3744100667e+000,4.5125416997e+000,3.2838602928e+000,4.1057913880e+000,2.9227147138e+000,4.0240181633e+000,3.0060786983e+000,3.7505492814e+000,3.4613271710e+000,3.5234633257e+000,
3.5718750000e+001,3.9658757114e+000,4.0427289957e+000,3.6776025700e+000,3.7915926963e+000,4.3967646713e+000,4.5129382636e+000,3.2396498602e+000,4.0688147731e+000,2.9163862397e+000,3.9652706235e+000,3.0681884462e+000,3.7129448392e+000,3.3935596735e+000,3.5068699137e+000,
3.5812500000e+001,4.0155017432e+000,4.0485832275e+000,3.7150016921e+000,3.8111576063e+000,4.3471334390e+000,4.5237098221e+000,3.4040422198e+000,3.9308087771e+000,2.9349993162e+000,3.8852057426e+000,3.0787319025e+000,3.7236214992e+000,3.3343854105e+000,3.5597823288e+000,
3.5906250000e+001,3.9592119560e+000,3.9367874909e+000,3.6962322268e+000,3.8051104495e+000,4.3944355024e+000,4.4421075850e+000,3.3660934752e+000,3.9481617700e+000,3.0194100333e+000,4.0513522738e+000,3.0776034869e+000,3.7294401492e+000,3.3157689006e+000,3.5477497677e+000,
3.6000000000e+001,3.9500789693e+000,3.8723104164e+000,3.7058395299e+000,3.8068639917e+000,4.2781163968e+000,4.4312442621e+000,3.3931296359e+000,4.0102250883e+000,3.1226261169e+000,4.1195492207e+000,3.1361358036e+000,3.8817231827e+000,3.3949759654e+000,3.7210785839e+000,
3.6093750000e+001,3.9806189473e+000,3.8787445370e+000,3.7227362478e+000,3.8704458578e+000,4.2744633227e+000,4.4245691282e+000,3.5053234483e+000,4.0297584955e+000,3.2464340439e+000,4.1239365793e+000,3.0785774976e+000,3.8354638473e+000,3.3383333114e+000,3.7266906786e+000,
3.6187500000e+001,3.9787107550e+000,3.9362005126e+000,3.6664796287e+000,3.8691487304e+000,4.1411176743e+000,4.4429336499e+000,3.4979391327e+000,4.0224080659e+000,3.2828875196e+000,4.1586661508e+000,3.1106048760e+000,3.8196058298e+000,3.3894046966e+000,3.7021771441e+000,
3.6281250000e+001,4.0737113441e+000,3.9155707034e+000,3.7691408098e+000,3.8532347912e+000,4.1512126649e+000,4.4230257316e+000,3.5033725038e+000,4.0221934469e+000,3.3371296628e+000,4.2144900751e+000,2.9233424145e+000,3.8860743391e+000,3.3345781079e+000,3.6825829040e+000,
3.6375000000e+001,3.9932894540e+000,3.8896318837e+000,3.7369777557e+000,3.7571032315e+000,4.0801733931e+000,4.4516429751e+000,3.5343182087e+000,4.0272388767e+000,3.3572326073e+000,4.2409000239e+000,2.8768417520e+000,3.8428538052e+000,3.1163217656e+000,3.6075645656e+000,
3.6468750000e+001,4.1033130555e+000,3.8794393095e+000,3.8532814450e+000,3.8221338825e+000,4.1134652054e+000,4.3027222443e+000,3.4519738258e+000,3.9799502522e+000,3.3740865873e+000,4.2194516748e+000,2.8313727374e+000,3.8100156916e+000,3.1763809367e+000,3.6291420469e+000,
3.6562500000e+001,4.2188217154e+000,3.8828890745e+000,4.0153819043e+000,3.8098191648e+000,4.0478042434e+000,4.3358092154e+000,3.4051951996e+000,3.8713504696e+000,3.3629570299e+000,4.1694505680e+000,2.8942525701e+000,3.8159308146e+000,3.2375922005e+000,3.5919260061e+000,
3.6656250000e+001,4.2637826315e+000,3.9509804812e+000,4.0587804236e+000,3.8371698706e+000,4.0810454296e+000,4.4147065468e+000,3.3920477630e+000,3.9721754706e+000,3.3532634630e+000,4.2070347262e+000,2.9311918263e+000,3.8605709600e+000,3.2392972750e+000,3.6379788274e+000,
3.6750000000e+001,4.3317260230e+000,3.9900555486e+000,4.0884778880e+000,3.8117756556e+000,4.1136687410e+000,4.3568492920e+000,3.4052808198e+000,3.9884421644e+000,3.3739237525e+000,4.1869490749e+000,2.9462614402e+000,3.8100598424e+000,3.2830836719e+000,3.5996215740e+000,
3.6843750000e+001,4.7571955752e+000,4.7105539799e+000,4.2049027131e+000,3.8153300909e+000,4.4846052087e+000,4.6769749054e+000,3.4480836058e+000,4.0747268335e+000,3.3273325915e+000,4.2412537650e+000,2.9055957750e+000,3.8508379876e+000,3.2769246841e+000,3.6437913860e+000,
3.6937500000e+001,4.8351116508e+000,4.8380258239e+000,4.2136215387e+000,3.7356757088e+000,4.5727396641e+000,4.8662332955e+000,3.4267073828e+000,4.0945206524e+000,3.2726492535e+000,4.2419565906e+000,2.8688240170e+000,3.8311487549e+000,3.2932591932e+000,3.6048390020e+000,
3.7031250000e+001,4.8414710371e+000,4.8182342460e+000,4.2474249231e+000,3.6403107629e+000,4.5813233641e+000,4.8771137730e+000,3.4101040089e+000,3.9501448160e+000,3.2311440188e+000,4.1236946466e+000,2.7723516729e+000,3.6550623245e+000,3.1040124796e+000,3.3285867228e+000,
3.7125000000e+001,4.8343795453e+000,4.8004842390e+000,4.2415714300e+000,3.5676680508e+000,4.6155152087e+000,4.8578699760e+000,3.2929910337e+000,3.9242104050e+000,3.1407904704e+000,4.1359738877e+000,2.8301080027e+000,3.6964017978e+000,3.2608631953e+000,3.4098270820e+000,
3.7218750000e+001,4.8623607750e+000,4.8387215880e+000,4.3093184453e+000,3.7403486838e+000,4.7369593613e+000,4.9457862506e+000,3.2615338836e+000,4.1503763383e+000,3.1361750619e+000,4.2825955117e+000,2.8600464663e+000,3.8214488507e+000,3.2423250282e+000,3.5787396550e+000,
3.7312500000e+001,4.8194327040e+000,4.8322759147e+000,4.2433016304e+000,3.7452941689e+000,4.7716081569e+000,4.9499290799e+000,3.2315157136e+000,4.1762747289e+000,3.0853643279e+000,4.2493647756e+000,3.0068171411e+000,3.7775942650e+000,3.3076259102e+000,3.6188724874e+000,
3.7406250000e+001,4.7927638222e+000,4.8111107127e+000,4.1754837738e+000,3.7011579267e+000,4.7715503335e+000,4.9560718668e+000,3.1153506742e+000,4.0952551084e+000,3.0915993981e+000,4.1636218476e+000,3.0325312096e+000,3.7651863581e+000,3.4379385553e+000,3.6591032540e+000,
3.7500000000e+001,4.7374432086e+000,4.7534611669e+000,4.1090968018e+000,3.6087631334e+000,4.8146716881e+000,4.8774352264e+000,3.1102555477e+000,4.0354804367e+000,3.0897868420e+000,4.1231234186e+000,3.0438678842e+000,3.7188503572e+000,3.3815255856e+000,3.6512407992e+000,
3.7593750000e+001,4.6818336059e+000,4.7568942223e+000,4.0047126355e+000,3.5452315754e+000,4.8603807313e+000,4.8578700996e+000,3.1914653540e+000,4.0791696829e+000,3.2146043201e+000,4.1313586347e+000,3.1270736167e+000,3.7367188608e+000,3.3548819807e+000,3.6310582313e+000,
3.7687500000e+001,4.6038431580e+000,4.7149215404e+000,3.9374785908e+000,3.4929089016e+000,4.8663283854e+000,4.7838264070e+000,3.1860354048e+000,4.0393085382e+000,3.2270226440e+000,4.1838160421e+000,3.1645520180e+000,3.7549976921e+000,3.3242898399e+000,3.6221459986e+000,
3.7781250000e+001,4.4968755039e+000,4.5425035832e+000,3.9608890276e+000,3.4697211495e+000,4.8587110606e+000,4.7378661380e+000,3.0947712031e+000,3.9986088570e+000,3.2012804244e+000,4.1900139703e+000,3.1179086418e+000,3.7354617037e+000,3.2998427923e+000,3.5520150614e+000,
3.7875000000e+001,4.0210050102e+000,3.8321654433e+000,3.8957139665e+000,3.5211949604e+000,4.7556043156e+000,4.4357302960e+000,2.9963308227e+000,3.8818790294e+000,3.3039870135e+000,4.1198321273e+000,3.0957761630e+000,3.7845190040e+000,3.3177246480e+000,3.4868254773e+000,
3.7968750000e+001,3.8948385937e+000,3.7294841359e+000,3.8778573454e+000,3.5634672402e+000,4.7213458853e+000,4.3349514904e+000,2.9908674362e+000,3.8915199557e+000,3.2472177372e+000,4.0641391281e+000,3.1584271097e+000,3.8012947881e+000,3.4345978180e+000,3.6124351421e+000,
3.8062500000e+001,3.9620458300e+000,3.7841789114e+000,3.7822909933e+000,3.6397164694e+000,4.7982996492e+000,4.3534346695e+000,2.8919144974e+000,3.9737595545e+000,3.2581833834e+000,4.0934203740e+000,3.2100148745e+000,3.7744916662e+000,3.4218971418e+000,3.6043883588e+000,
3.8156250000e+001,3.8913047305e+000,3.7391766142e+000,3.6758993041e+000,3.5911577732e+000,4.8306285195e+000,4.3115913383e+000,2.8471295769e+000,3.8747239012e+000,3.2113980254e+000,3.9908723697e+000,3.2432641509e+000,3.7116471923e+000,3.2809046247e+000,3.5043044992e+000,
3.8250000000e+001,3.7912376893e+000,3.6189793605e+000,3.5255681210e+000,3.3814949703e+000,4.6965782579e+000,4.3988021747e+000,2.7725575515e+000,3.6629222327e+000,3.2230185788e+000,3.8637833633e+000,3.2176723077e+000,3.6032062872e+000,3.2949651574e+000,3.4161077955e+000,
3.8343750000e+001,3.6555355422e+000,3.5570856107e+000,3.3826922317e+000,3.2986927885e+000,4.6883166985e+000,4.4018933969e+000,2.7782561290e+000,3.5939377269e+000,3.2115310638e+000,3.8592943199e+000,3.1346098484e+000,3.6061065317e+000,3.2449322936e+000,3.3666436984e+000,
3.8437500000e+001,3.5710854310e+000,3.5536378847e+000,3.2499400662e+000,3.1840669887e+000,4.7763575678e+000,4.4462358275e+000,2.6367908425e+000,3.5811384007e+000,3.2294573868e+000,3.8689372816e+000,3.1656082022e+000,3.6536013588e+000,3.2580800631e+000,3.3741662083e+000,
3.8531250000e+001,3.4748350466e+000,3.5879239196e+000,3.1898595000e+000,3.2345799336e+000,4.6604246642e+000,4.4642655472e+000,2.5841779877e+000,3.6024135972e+000,3.0956114950e+000,3.8939465049e+000,3.0124479462e+000,3.6240997743e+000,3.1853420027e+000,3.2981282928e+000,
3.8625000000e+001,3.3713052727e+000,3.5663871507e+000,3.0032147635e+000,3.1847934415e+000,4.6823984554e+000,4.4786875341e+000,2.4561173915e+000,3.5529716134e+000,3.0181685103e+000,3.9162717332e+000,2.9835966875e+000,3.5843369431e+000,3.1297242384e+000,3.2695793387e+000,
3.8718750000e+001,4.0030290757e+000,4.3463054293e+000,3.1223245243e+000,3.4453705777e+000,4.8305348960e+000,4.7478301141e+000,2.6194148397e+000,3.8312017419e+000,3.0106170787e+000,3.9616829127e+000,2.9968345521e+000,3.5347165074e+000,3.1791374485e+000,3.3053222042e+000,
3.8812500000e+001,4.1726187868e+000,4.6007125976e+000,2.9836823892e+000,3.4236608755e+000,4.8485238541e+000,4.7415115846e+000,2.8102803063e+000,3.8369116311e+000,3.1381243323e+000,3.8336855100e+000,3.0791299727e+000,3.4797045884e+000,3.1803179449e+000,3.4201869401e+000,
3.8906250000e+001,4.1386278255e+000,4.5768061697e+000,2.7499692462e+000,3.3513175650e+000,4.8250832943e+000,4.8339022509e+000,2.8624537688e+000,3.8768965961e+000,3.1527071174e+000,3.9455266813e+000,3.1977053337e+000,3.5990647373e+000,3.1736445686e+000,3.4163987685e+000,
3.9000000000e+001,4.1293418426e+000,4.5874683840e+000,2.7569450090e+000,3.3733750622e+000,4.7802390574e+000,4.8606928374e+000,2.8917507317e+000,3.8916376126e+000,3.1491324797e+000,3.9904915028e+000,3.2690153661e+000,3.5929035064e+000,3.1417615549e+000,3.3445616945e+000,
3.9093750000e+001,4.0213421098e+000,4.5585788022e+000,2.6987211322e+000,3.2491731139e+000,4.7526405387e+000,4.8603502026e+000,2.8881315157e+000,3.8215409670e+000,3.1326662281e+000,3.9675235133e+000,3.2943215352e+000,3.6612555956e+000,3.2392216802e+000,3.4074843597e+000,
3.9187500000e+001,4.0432025356e+000,4.5585280138e+000,2.8249966208e+000,3.3246725505e+000,4.7297732095e+000,4.8045538521e+000,2.9525048733e+000,3.8568175286e+000,3.1883450892e+000,3.9928970500e+000,3.3062878036e+000,3.6775199128e+000,3.4169640442e+000,3.5003630343e+000,
3.9281250000e+001,4.0677760911e+000,4.5940803562e+000,2.8739214344e+000,3.4111299106e+000,4.7628756661e+000,4.7636096762e+000,3.0287284036e+000,3.9069991855e+000,3.1857928902e+000,4.0177734700e+000,3.3744513077e+000,3.8107410396e+000,3.5317065158e+000,3.6061553606e+000,
3.9375000000e+001,4.0961736849e+000,4.5845834973e+000,2.9459835951e+000,3.4536582499e+000,4.7420048831e+000,4.7186726578e+000,3.0616819054e+000,4.0509536835e+000,3.1442527498e+000,4.2636365898e+000,3.3804685124e+000,4.1644615792e+000,3.6126688828e+000,3.8439839997e+000,
3.9468750000e+001,4.0753285672e+000,4.5700909969e+000,2.9222040616e+000,3.4291497403e+000,4.6219473158e+000,4.6776469450e+000,3.0539800909e+000,4.0097482890e+000,3.1222478896e+000,4.2951879095e+000,3.3584592822e+000,4.2019820462e+000,3.6601330966e+000,3.8781776439e+000,
3.9562500000e+001,4.0857789339e+000,4.5698336102e+000,2.8797105408e+000,3.3933038503e+000,4.6567517865e+000,4.7040525891e+000,3.0549985471e+000,4.0151583294e+000,3.1416015241e+000,4.2630135072e+000,3.3431289962e+000,4.2155138796e+000,3.7191655909e+000,3.9243293744e+000,
3.9656250000e+001,4.0338699093e+000,4.5325810018e+000,2.8456939241e+000,3.3485904398e+000,4.5935949974e+000,4.6937569447e+000,3.0223167394e+000,3.9285578465e+000,3.0912272246e+000,4.2153318845e+000,3.2681646836e+000,4.2563949573e+000,3.7100956742e+000,3.9530032889e+000,
3.9750000000e+001,3.9495232426e+000,4.5237582390e+000,2.7790286454e+000,3.2612681721e+000,4.5025283766e+000,4.7457104248e+000,2.9730907249e+000,3.8726527745e+000,3.0598807058e+000,4.1514684743e+000,3.2931066568e+000,4.2516615130e+000,3.7599367696e+000,3.9482946188e+000,
3.9843750000e+001,4.0605990407e+000,4.5709629188e+000,2.9990877564e+000,3.3056591886e+000,4.5267619985e+000,4.7518122734e+000,2.8502951939e+000,3.8935539599e+000,2.7130891084e+000,4.1569695033e+000,3.2382748158e+000,4.2213298475e+000,3.8327363002e+000,3.9045347781e+000,
3.9937500000e+001,4.0874172242e+000,4.5886549097e+000,3.0284499226e+000,3.3886613439e+000,4.5367542143e+000,4.6708828053e+000,2.9539608867e+000,3.8441354324e+000,2.7388885424e+000,4.0886003242e+000,3.1711006764e+000,4.1955327662e+000,3.8538583699e+000,3.9094784053e+000,
4.0031250000e+001,4.0842490633e+000,4.5974238563e+000,3.0572352695e+000,3.4329852354e+000,4.4914422662e+000,4.6743522431e+000,3.0523795431e+000,3.9199050247e+000,2.7477677600e+000,4.1026839990e+000,3.0789166088e+000,4.2219239962e+000,3.8561019125e+000,3.9841986494e+000,
4.0125000000e+001,4.1208558411e+000,4.6315670386e+000,3.1113135239e+000,3.4623257673e+000,4.5084276903e+000,4.6501910318e+000,3.0902058770e+000,4.0252178568e+000,2.7025464244e+000,4.1825770567e+000,3.0828881662e+000,4.2870090084e+000,3.8191401353e+000,4.0133513212e+000,
4.0218750000e+001,4.1642311807e+000,4.6195246564e+000,3.2262654545e+000,3.4171913788e+000,4.5304658567e+000,4.6396241355e+000,3.1046056598e+000,4.0103646962e+000,2.6733223489e+000,4.1779068801e+000,3.1312425121e+000,4.2746585425e+000,3.6802958142e+000,3.9547652971e+000,
4.0312500000e+001,4.2415269493e+000,4.6181499701e+000,3.3265442464e+000,3.3457877842e+000,4.4929620274e+000,4.5930118678e+000,3.1436665122e+000,3.8498110266e+000,2.7190634666e+000,3.8831879257e+000,3.0710586060e+000,3.9424818328e+000,3.4559593889e+000,3.6560939486e+000,
4.0406250000e+001,4.2706253314e+000,4.6493140276e+000,3.3689152455e+000,3.4162640170e+000,4.4970322079e+000,4.6389813201e+000,3.1299028900e+000,3.9114025432e+000,2.7461987320e+000,3.8152232477e+000,3.1125997056e+000,3.8846388162e+000,3.3878209896e+000,3.6467120476e+000,
4.0500000000e+001,4.2819532248e+000,4.6633951136e+000,3.3771784165e+000,3.4553810879e+000,4.5484296161e+000,4.7037301949e+000,3.1718246126e+000,3.9605601505e+000,2.6802077628e+000,3.8294153593e+000,3.2023159993e+000,3.8688058648e+000,3.1988772988e+000,3.5633320082e+000,
4.0593750000e+001,4.2873640683e+000,4.6743509054e+000,3.3953448411e+000,3.4838542264e+000,4.6166311179e+000,4.6636030640e+000,3.2541439819e+000,3.9889191955e+000,2.8703017154e+000,3.8771438718e+000,3.3390716774e+000,3.8781343722e+000,3.3168936537e+000,3.5534254097e+000,
4.0687500000e+001,3.9972143426e+000,4.3172217788e+000,3.3547848423e+000,3.4132233461e+000,4.5891263722e+000,4.4846052609e+000,3.1815704447e+000,4.0069772461e+000,2.9849954637e+000,4.0294136081e+000,3.3230405596e+000,3.9143100938e+000,3.3809302885e+000,3.6587066075e+000,
4.0781250000e+001,3.7962386905e+000,3.9559278673e+000,3.3168516061e+000,3.3682049048e+000,4.5363759655e+000,4.2718659189e+000,3.2409076831e+000,3.8867464013e+000,3.0472875831e+000,4.0036209177e+000,3.3750032423e+000,3.8419542960e+000,3.3084104310e+000,3.6328728941e+000,
4.0875000000e+001,3.6143252832e+000,3.7511054933e+000,3.1725774003e+000,3.2970315263e+000,4.5284316852e+000,4.1451869387e+000,3.2459217063e+000,3.8693878546e+000,3.0588334544e+000,3.9631980792e+000,3.3143269347e+000,3.8679331907e+000,3.1906832475e+000,3.6873192603e+000,
4.0968750000e+001,3.6104584356e+000,3.6725674633e+000,3.1640654400e+000,3.1974318194e+000,4.5307529917e+000,4.0805968816e+000,3.2401058944e+000,3.8685828372e+000,3.1065303936e+000,3.9171547936e+000,3.3599960545e+000,3.7780130489e+000,3.1406333344e+000,3.5665263854e+000,
4.1062500000e+001,3.5711388867e+000,3.6043886789e+000,3.1171856906e+000,3.1061118107e+000,4.5647745296e+000,4.0820569425e+000,3.1934349926e+000,3.6307171327e+000,3.1011534258e+000,3.7537847994e+000,3.3998177231e+000,3.6931030866e+000,3.2336161620e+000,3.3720838361e+000,
4.1156250000e+001,3.6681450438e+000,3.6163150000e+000,3.0853135472e+000,3.1846570053e+000,4.4791757331e+000,4.1212846885e+000,3.1565934165e+000,3.7097960816e+000,3.0816769751e+000,3.7857469168e+000,3.2987839352e+000,3.7595203308e+000,3.3147890365e+000,3.4413974201e+000,
