Time (s),AF3,AF4,F3,F4,F7,F8,FC5,FC6,T7,T8,P7,P8,O1,O2,Sampling Rate
0.0000000000e+000,2.2518055031e+000,3.3984077950e+000,2.6531221783e+000,3.1194879201e+000,3.1085017560e+000,2.5870107029e+000,1.1971519088e+000,1.6260664451e+000,2.1922231108e+000,3.2268722380e+000,2.2673098655e+000,0.0000000000e+000,2.5549411201e+000,2.9707088777e+000,1
9.3750000000e-002,2.1632286415e+000,3.4320271440e+000,2.6159453019e+000,3.0981722797e+000,3.0419737726e+000,2.6864878835e+000,1.3683990108e+000,1.6885994208e+000,2.1852920908e+000,3.3054011032e+000,2.3804930215e+000,0.0000000000e+000,2.6523223414e+000,3.0366395632e+000,
1.8750000000e-001,2.0160530026e+000,3.3409265468e+000,2.5681321653e+000,2.9984144071e+000,2.8189906398e+000,2.7196417205e+000,1.5518954752e+000,1.6569874021e+000,2.1183833978e+000,3.2898078562e+000,2.3756101672e+000,0.0000000000e+000,2.6388175950e+000,3.0753620132e+000,
2.8125000000e-001,1.9878054564e+000,3.2830734429e+000,2.3213390119e+000,2.9771402423e+000,2.8286785446e+000,2.8013459148e+000,1.6106077522e+000,1.6298105527e+000,2.3359849722e+000,3.2966788623e+000,2.3413495142e+000,0.0000000000e+000,2.6423112906e+000,3.1186833397e+000,
3.7500000000e-001,1.8725896576e+000,3.2411974365e+000,2.2347697936e+000,2.9514896401e+000,2.8003761224e+000,2.7988337129e+000,1.6742530882e+000,1.5536721868e+000,2.4272578282e+000,3.2318687849e+000,2.3395547782e+000,0.0000000000e+000,2.6557508848e+000,3.0934206007e+000,
4.6875000000e-001,1.9347268603e+000,3.3879298859e+000,2.3448592225e+000,3.0306153203e+000,2.9496975997e+000,2.8326014525e+000,1.6831430674e+000,1.4592846532e+000,2.4167760542e+000,3.2242159119e+000,2.3804224461e+000,0.0000000000e+000,2.6941781387e+000,3.1513970651e+000,
5.6250000000e-001,2.0875300976e+000,3.3808276928e+000,2.4828263349e+000,3.0445733572e+000,3.0011156362e+000,2.8994984269e+000,1.6955061234e+000,1.3845074590e+000,2.3855187964e+000,3.0732668702e+000,2.4611900415e+000,0.0000000000e+000,2.6927476106e+000,3.1644182291e+000,
6.5625000000e-001,2.7827954832e+000,3.7765032867e+000,2.6323154744e+000,3.1502536488e+000,3.0846139935e+000,2.9542375950e+000,1.7460419117e+000,1.3039852365e+000,2.4672018360e+000,3.2604473788e+000,2.5076456181e+000,0.0000000000e+000,2.8172381070e+000,3.2611402135e+000,
7.5000000000e-001,2.9224467802e+000,3.9924080281e+000,2.6568880073e+000,3.2177531142e+000,2.9438222113e+000,2.9997967883e+000,1.7326819132e+000,1.3109531401e+000,2.5566851202e+000,3.2794321780e+000,2.4778883297e+000,0.0000000000e+000,2.7464879660e+000,3.2455447560e+000,
8.4375000000e-001,2.9322274266e+000,4.0228728142e+000,2.6211706169e+000,3.2031196210e+000,2.9308173392e+000,2.9497827474e+000,1.7038825520e+000,1.2917995674e+000,2.4867362533e+000,3.3340759959e+000,2.5279078399e+000,0.0000000000e+000,2.7718129488e+000,3.2902157076e+000,
9.3750000000e-001,2.9496398267e+000,3.9789728538e+000,2.6118867446e+000,3.1633246607e+000,2.9263030229e+000,2.8853794685e+000,1.6191610200e+000,1.1300131444e+000,2.4371184938e+000,3.0999666791e+000,2.3314150478e+000,0.0000000000e+000,2.5366213722e+000,3.2075084321e+000,
1.0312500000e+000,2.9786784843e+000,3.9419245319e+000,2.6142432613e+000,3.1418880384e+000,2.9078345648e+000,2.8591246096e+000,1.6072985981e+000,1.1240378248e+000,2.3406597534e+000,3.0755905708e+000,2.2670996218e+000,0.0000000000e+000,2.4129995401e+000,3.2923372455e+000,
1.1250000000e+000,2.9716621889e+000,3.9765485524e+000,2.6317151641e+000,3.1406805404e+000,2.8633797715e+000,2.8751862497e+000,1.4504193387e+000,1.0995052485e+000,2.2908636240e+000,3.1618661439e+000,2.3232042485e+000,0.0000000000e+000,2.4848088304e+000,3.3067068763e+000,
1.2187500000e+000,2.9474214106e+000,3.9792676321e+000,2.5803862718e+000,3.1078229129e+000,2.8578803015e+000,2.9139780287e+000,1.2339256282e+000,1.1118115101e+000,2.2504005634e+000,3.1988881524e+000,2.3643783834e+000,0.0000000000e+000,2.5824321754e+000,3.1996983948e+000,
1.3125000000e+000,2.9500288932e+000,3.9579876140e+000,2.6795651152e+000,3.0639491882e+000,2.8040950785e+000,2.8491400377e+000,1.2053340654e+000,1.1502274375e+000,1.9217492589e+000,3.2294457273e+000,2.4003305119e+000,0.0000000000e+000,2.6102707506e+000,3.2736667975e+000,
1.4062500000e+000,2.9788879926e+000,3.9818707841e+000,2.6513868092e+000,3.1201027289e+000,3.0382031494e+000,2.9437372809e+000,1.2118192746e+000,1.2892099161e+000,1.9124214711e+000,3.2201810123e+000,2.4190430201e+000,0.0000000000e+000,2.6750322339e+000,3.4026595052e+000,
1.5000000000e+000,2.9217574399e+000,3.9055681851e+000,2.5506127355e+000,2.9723875150e+000,2.9173521265e+000,2.9405510953e+000,1.2394636224e+000,1.3549950697e+000,1.9327301125e+000,3.2327763936e+000,2.3878513793e+000,0.0000000000e+000,2.6229711979e+000,3.3652198445e+000,
1.5937500000e+000,2.7886279343e+000,3.9150331234e+000,2.5373334298e+000,2.9326926533e+000,2.8727635694e+000,2.9911659814e+000,1.1813620429e+000,1.3825709850e+000,1.8956861783e+000,3.2425648318e+000,2.3907964274e+000,0.0000000000e+000,2.6683051855e+000,3.3151556434e+000,
1.6875000000e+000,2.0572527487e+000,3.4497405767e+000,2.2933182263e+000,2.7591999190e+000,2.7892575281e+000,2.9562977646e+000,1.2530038132e+000,1.3991812282e+000,1.7427527820e+000,3.1283839851e+000,2.4146116405e+000,0.0000000000e+000,2.7011564041e+000,3.3774846074e+000,
1.7812500000e+000,1.8392002813e+000,3.2427959053e+000,2.1072459299e+000,2.6298532941e+000,2.7539812195e+000,2.9062375234e+000,1.3309765086e+000,1.4398717437e+000,1.5253041071e+000,3.0893800026e+000,2.4291504580e+000,0.0000000000e+000,3.0306248345e+000,3.4774199137e+000,
1.8750000000e+000,1.8416436311e+000,3.1783759103e+000,2.1935424069e+000,2.6520753765e+000,2.7843870552e+000,2.9183074917e+000,1.2958414365e+000,1.4382654236e+000,1.7056597483e+000,3.0914470876e+000,2.4648762666e+000,0.0000000000e+000,3.1359248582e+000,3.5458144025e+000,
1.9687500000e+000,1.9154220604e+000,3.2746364709e+000,2.1792078960e+000,2.8439565038e+000,2.8544803809e+000,2.9486824212e+000,1.2695467798e+000,1.4952975803e+000,1.8443429534e+000,3.0896386005e+000,2.4677073528e+000,0.0000000000e+000,3.1496813570e+000,3.5497413007e+000,
2.0625000000e+000,1.8879209419e+000,3.2408736460e+000,2.0394314902e+000,2.9479143392e+000,2.9802543142e+000,2.9104779793e+000,1.2786867802e+000,1.5305150900e+000,1.8202010151e+000,3.0136062010e+000,2.4100910722e+000,0.0000000000e+000,3.1434662065e+000,3.5046066042e+000,
2.1562500000e+000,1.9955931808e+000,3.3205318805e+000,2.2048833355e+000,3.0288275449e+000,3.2530049623e+000,3.0031842421e+000,1.3427687597e+000,1.4852766565e+000,2.0875588779e+000,3.0616268490e+000,2.3583171626e+000,0.0000000000e+000,3.0878338802e+000,3.4681556371e+000,
2.2500000000e+000,2.0863430465e+000,3.2858290872e+000,2.2344172923e+000,3.0924840660e+000,3.3502523403e+000,2.9634382731e+000,1.3733324204e+000,1.5034369647e+000,2.1452987211e+000,3.0556975303e+000,2.4093637808e+000,0.0000000000e+000,3.0878721833e+000,3.4811312933e+000,
2.3437500000e+000,2.0155063501e+000,3.2715020294e+000,2.1140319690e+000,3.1103784598e+000,3.2552280969e+000,3.0285170195e+000,1.3841407261e+000,1.5151721009e+000,2.2103063524e+000,3.0711856859e+000,2.3669147327e+000,0.0000000000e+000,3.1000401553e+000,3.4672090554e+000,
2.4375000000e+000,1.9893065225e+000,3.2724614356e+000,2.1504577253e+000,3.1020154471e+000,3.2827626738e+000,2.9408151543e+000,1.3725235297e+000,1.4240164379e+000,2.2972931105e+000,3.0903092063e+000,2.3962835233e+000,0.0000000000e+000,3.1394831507e+000,3.4069389894e+000,
2.5312500000e+000,2.0473725826e+000,3.3357208320e+000,2.0097073898e+000,3.1573647767e+000,3.2666108584e+000,2.9200514947e+000,1.4166367837e+000,1.3975622442e+000,2.3867721584e+000,3.0487141720e+000,2.3817751336e+000,0.0000000000e+000,3.1509247898e+000,3.4194156884e+000,
2.6250000000e+000,2.1426384172e+000,3.2788168615e+000,2.2618322150e+000,3.1369642686e+000,3.3068768232e+000,2.8281873608e+000,1.5213554693e+000,1.3966022010e+000,2.3790944188e+000,3.0826249365e+000,2.4929813118e+000,0.0000000000e+000,3.1186804907e+000,3.4504984414e+000,
2.7187500000e+000,2.1856684305e+000,3.2471533102e+000,2.4264553443e+000,3.1870625512e+000,3.3338024461e+000,2.7820850387e+000,1.3880866588e+000,1.3686521107e+000,2.3970407388e+000,3.0334763380e+000,2.4177762172e+000,3.1210041732e-002,2.8406481697e+000,3.1824204628e+000,
2.8125000000e+000,2.4847276204e+000,3.4816617598e+000,2.5828273870e+000,3.2856934046e+000,3.3833722079e+000,2.8295369485e+000,1.3949442291e+000,1.3742176208e+000,2.3325677013e+000,2.9900929751e+000,2.4156055420e+000,9.9732999039e-002,2.5359984625e+000,3.0373459506e+000,
2.9062500000e+000,2.5535813425e+000,3.5930853585e+000,2.5921738090e+000,3.3097300358e+000,3.3816907909e+000,2.8536311267e+000,1.4156080225e+000,1.3175922106e+000,2.2345085954e+000,2.9545462308e+000,2.4590276946e+000,1.0557159270e-001,2.6546845606e+000,2.9785402055e+000,
3.0000000000e+000,2.5138659607e+000,3.5013819300e+000,2.6040700727e+000,3.1674337075e+000,3.3146245107e+000,2.7969061211e+000,1.3555825133e+000,1.2315015779e+000,2.1444347603e+000,2.9578658777e+000,2.4542817945e+000,1.0733040336e-001,2.7832766732e+000,3.0545664382e+000,
3.0937500000e+000,2.5115252783e+000,3.4891209378e+000,2.6416093329e+000,3.0926124943e+000,3.0746422748e+000,2.7919975568e+000,1.4207609373e+000,1.2203756317e+000,2.1095145156e+000,2.7948555973e+000,2.5570387425e+000,3.2542526131e-001,2.7360925065e+000,2.9149604095e+000,
3.1875000000e+000,2.4702176675e+000,3.5239195250e+000,2.4739026335e+000,3.0482765303e+000,2.9707725140e+000,2.7836444083e+000,1.4412865024e+000,1.2032093078e+000,1.7145628084e+000,2.8614083805e+000,2.5903477925e+000,3.7475803840e-001,2.7584178049e+000,3.0466048311e+000,
3.2812500000e+000,2.4393503916e+000,3.5388713372e+000,2.4586418989e+000,3.0141351318e+000,2.8268586773e+000,2.7253453780e+000,1.4368411189e+000,1.2665320014e+000,1.7745152530e+000,2.8113231820e+000,2.5574339558e+000,4.0943532234e-001,2.6405429463e+000,2.9556757759e+000,
3.3750000000e+000,2.3517552995e+000,3.5212794122e+000,2.4135122865e+000,2.9212701937e+000,2.6850595949e+000,2.6064296856e+000,1.4292743797e+000,1.2440859099e+000,1.8233327863e+000,2.7704070350e+000,2.5534192275e+000,4.0959925144e-001,2.6680553460e+000,2.8977007627e+000,
3.4687500000e+000,2.3731383536e+000,3.5319843522e+000,2.4431543041e+000,2.8525991127e+000,2.6743741886e+000,2.5648407221e+000,1.4734694280e+000,1.2226479424e+000,1.8583213352e+000,2.7626197080e+000,2.5671224755e+000,4.0960651363e-001,2.6035413117e+000,2.9468075774e+000,
3.5625000000e+000,2.3686463367e+000,3.4566589902e+000,2.4143221650e+000,2.7568648370e+000,2.8646779828e+000,2.5512026564e+000,1.3261391359e+000,1.2029812733e+000,1.8926104065e+000,2.8059556134e+000,2.5685781663e+000,4.0960662362e-001,2.5822835163e+000,2.9208673726e+000,
3.6562500000e+000,2.3619056589e+000,3.4489209232e+000,2.1277593791e+000,2.7167676717e+000,2.8265864278e+000,2.5459682548e+000,1.3392995245e+000,1.2145816018e+000,1.8656798746e+000,2.7831269969e+000,2.4148067120e+000,4.1282602832e-001,2.5796606971e+000,2.9967618605e+000,
3.7500000000e+000,2.4022814800e+000,3.4116304737e+000,2.0516364928e+000,2.6914279143e+000,2.9241902593e+000,2.5336059755e+000,1.3122318352e+000,1.2234961649e+000,1.8400731516e+000,2.7722174847e+000,2.4078823061e+000,3.8661443787e-001,2.6140125519e+000,3.0213637504e+000,
3.8437500000e+000,2.1211079444e+000,3.0823150392e+000,1.9260166268e+000,2.6066879997e+000,2.9209546947e+000,2.5886928810e+000,1.3010890537e+000,1.1904498638e+000,1.8892545864e+000,2.9804220734e+000,2.3900079702e+000,3.6627298431e-001,2.6906934415e+000,3.2848649936e+000,
3.9375000000e+000,2.1681759888e+000,3.1060897229e+000,1.9574152071e+000,2.6806866317e+000,3.1085799230e+000,2.6425277103e+000,1.2961460494e+000,1.2124196158e+000,1.9794509746e+000,3.1884615007e+000,2.4060792637e+000,3.6865541241e-001,2.7679476531e+000,3.4079165707e+000,
4.0312500000e+000,2.1579067972e+000,3.1205387499e+000,1.9812962995e+000,2.7228090300e+000,3.0646029584e+000,2.5942286035e+000,1.2916183550e+000,1.1865073995e+000,2.0050842683e+000,3.1839204106e+000,2.4212354578e+000,3.4621319222e-001,2.6915091577e+000,3.3839958324e+000,
4.1250000000e+000,2.1817385552e+000,2.8871638935e+000,2.0069496463e+000,2.5945358570e+000,3.0462138441e+000,2.4459642077e+000,1.1920285558e+000,1.2252385711e+000,2.0995240705e+000,3.1825733330e+000,2.2872877765e+000,1.6045933799e-001,2.7205113738e+000,3.3985137448e+000,
4.2187500000e+000,2.2472165269e+000,2.9878315021e+000,2.1122471433e+000,2.7610562835e+000,3.0348107653e+000,2.5878713079e+000,1.0776385488e+000,1.2812326398e+000,2.0999032935e+000,3.1943374444e+000,2.2592315983e+000,6.2718040576e-002,2.7440586645e+000,3.3856240106e+000,
4.3125000000e+000,2.4897401948e+000,3.6273594997e+000,2.2294398816e+000,3.0854314281e+000,3.0895599181e+000,2.7834501120e+000,1.1166544108e+000,1.1934227006e+000,1.9703536363e+000,3.3086555865e+000,2.2902375523e+000,6.2460957421e-002,2.8213724603e+000,3.4669196303e+000,
4.4062500000e+000,2.5359115462e+000,3.6645981771e+000,2.2638294073e+000,3.1695649838e+000,3.0799192035e+000,2.8351129852e+000,9.7083791369e-001,1.1634520726e+000,1.9133058731e+000,3.3298973979e+000,2.2852008632e+000,1.1882387125e-001,2.8283232334e+000,3.4840870561e+000,
4.5000000000e+000,2.5404402973e+000,3.6861928923e+000,2.2126478545e+000,3.2131897775e+000,3.0152172076e+000,2.8682462181e+000,9.0864346755e-001,1.1377830379e+000,1.7268759380e+000,3.3823456898e+000,2.2583790786e+000,5.2522402141e-001,2.9799938474e+000,3.4609993159e+000,
4.5937500000e+000,2.7281644786e+000,3.8392767352e+000,2.3488320135e+000,3.2007579439e+000,2.9727214897e+000,2.8574938153e+000,9.1037322160e-001,1.1796410899e+000,1.7180977541e+000,3.3858219516e+000,2.3067463568e+000,5.3350387313e-001,2.9407340578e+000,3.3951345817e+000,
4.6875000000e+000,2.6717177014e+000,3.8526940094e+000,2.3438255864e+000,3.2278552974e+000,2.8096511309e+000,2.9269609034e+000,9.2165864766e-001,1.2271787124e+000,1.7316587305e+000,3.3989326772e+000,2.2671870604e+000,5.2955516602e-001,2.9550375454e+000,3.3916456757e+000,
4.7812500000e+000,2.6185281236e+000,3.8862975104e+000,2.3699628442e+000,3.1804519144e+000,2.7136574974e+000,2.9586000876e+000,9.7366538020e-001,1.2103894363e+000,1.6972880637e+000,3.3854740994e+000,2.1993675191e+000,5.0719098931e-001,2.8910813883e+000,3.2978856344e+000,
4.8750000000e+000,2.5622695053e+000,3.8504647726e+000,2.2990313962e+000,3.1332650341e+000,2.6142991005e+000,2.9539154188e+000,9.3402499598e-001,1.2350700777e+000,1.5307865158e+000,3.2998981684e+000,2.2297143455e+000,5.0407157273e-001,2.8168417459e+000,3.2292270907e+000,
4.9687500000e+000,2.5046934399e+000,3.8624127229e+000,2.1636963986e+000,3.0840378033e+000,2.3248942040e+000,2.9363917842e+000,9.8375782654e-001,1.2303390280e+000,1.4922592076e+000,3.1309000536e+000,2.1803623528e+000,5.0371030127e-001,2.6661814991e+000,3.0501279038e+000,
5.0625000000e+000,2.4913760291e+000,3.8460284086e+000,2.0780346435e+000,3.0643327391e+000,2.3779193107e+000,2.9702206211e+000,9.6309297506e-001,1.3055191107e+000,1.6107525989e+000,3.1124456856e+000,2.1291153024e+000,5.0019533039e-001,2.6696654091e+000,3.0571713064e+000,
5.1562500000e+000,2.5314054419e+000,3.8954457420e+000,2.4384539886e+000,3.2262968202e+000,2.5353762943e+000,2.9572693694e+000,9.4548824022e-001,1.2836244861e+000,1.4956322079e+000,3.2128503130e+000,2.1205539873e+000,5.5715702178e-001,2.5984636506e+000,3.0318216839e+000,
5.2500000000e+000,2.4713808318e+000,3.6550213469e+000,2.4037381792e+000,3.0146350812e+000,2.5379907456e+000,2.8311686460e+000,9.5545594928e-001,1.2086598121e+000,1.6881791421e+000,3.1026647308e+000,2.0211905999e+000,5.5978212582e-001,2.5577021702e+000,3.1280616896e+000,
5.3437500000e+000,2.3421987678e+000,3.4025591519e+000,2.5374827540e+000,2.9293671110e+000,2.6772231136e+000,2.7698667734e+000,9.8069563027e-001,1.1430473928e+000,1.9920700293e+000,2.9936516196e+000,2.0858183133e+000,5.4953761432e-001,2.6331473435e+000,3.1346733626e+000,
5.4375000000e+000,2.3476107834e+000,3.4797123114e+000,2.5551517599e+000,3.0144209252e+000,2.7999937789e+000,2.8502641809e+000,9.6840387268e-001,1.1380561222e+000,2.2328886451e+000,2.9977616562e+000,2.1204427892e+000,4.8285354800e-001,2.5857015197e+000,3.1464820561e+000,
5.5312500000e+000,2.1563827226e+000,3.3676766754e+000,2.4606912000e+000,2.9789739349e+000,2.8111713820e+000,2.8639248792e+000,9.9641335488e-001,1.1155461472e+000,2.3092370918e+000,2.9014103005e+000,2.0711816422e+000,1.1018431610e-001,2.5305310218e+000,3.2487708799e+000,
5.6250000000e+000,2.0026551169e+000,3.4713414371e+000,2.3694025853e+000,3.0210302622e+000,2.8029379642e+000,2.8932492871e+000,1.0149065238e+000,1.1044847698e+000,2.3453233862e+000,2.7775171112e+000,2.0617056812e+000,1.0210088942e-001,2.4640552549e+000,3.2180264481e+000,
5.7187500000e+000,2.0253957091e+000,3.4434000336e+000,2.3262470545e+000,2.9742283176e+000,2.8133832708e+000,2.9232655988e+000,1.0398316183e+000,1.0794979116e+000,2.3488862774e+000,2.8254343372e+000,2.1944264143e+000,1.0197227994e-001,2.4395262773e+000,3.3417928984e+000,
5.8125000000e+000,2.0242797679e+000,3.4101381968e+000,2.3354431377e+000,2.9682108309e+000,2.8276736404e+000,2.8793327678e+000,1.0541183121e+000,1.0425635438e+000,2.4751567863e+000,2.8399440408e+000,2.1685589377e+000,1.0196420477e-001,2.5751245514e+000,3.4869762614e+000,
5.9062500000e+000,2.0709717162e+000,3.4320595926e+000,2.3497999892e+000,2.9136483562e+000,2.9075312224e+000,2.8083571472e+000,1.1155622274e+000,1.0232840857e+000,2.5611945299e+000,2.8057427161e+000,2.1588419429e+000,1.0262386540e-001,2.6432722982e+000,3.4296241983e+000,
6.0000000000e+000,2.2161650661e+000,3.4282991441e+000,2.3711981257e+000,2.9762373162e+000,2.9108252892e+000,2.8101858078e+000,1.1629697318e+000,9.3684981995e-001,2.5164047665e+000,2.8537156109e+000,2.1726571156e+000,1.1710869343e-001,2.6390253447e+000,3.4594857921e+000,
6.0937500000e+000,2.2150913452e+000,3.3664450772e+000,2.2842360371e+000,2.8908720792e+000,2.8345279538e+000,2.7691930818e+000,1.1493420730e+000,9.8989363893e-001,2.4660390629e+000,2.8557215860e+000,2.2184886861e+000,1.0430234498e-001,2.7001781125e+000,3.5365132776e+000,
6.1875000000e+000,2.2278911706e+000,3.4401218581e+000,1.8603312532e+000,2.8729153129e+000,2.7365208248e+000,2.7195168129e+000,1.2297823575e+000,1.0265333024e+000,2.4065619823e+000,2.7650635969e+000,2.1461214139e+000,5.8285379367e-002,2.7790076035e+000,3.5839075558e+000,
6.2812500000e+000,2.2505438073e+000,3.5969039897e+000,2.0284156047e+000,3.0282779385e+000,2.6961702144e+000,2.7145249912e+000,1.1738867011e+000,1.1114420492e+000,2.3151886278e+000,2.9343518174e+000,2.1588179527e+000,5.6323638134e-002,2.7253684482e+000,3.4540115121e+000,
6.3750000000e+000,2.4430574979e+000,3.7543015604e+000,2.2531838335e+000,3.0725377521e+000,2.7644879460e+000,2.6095210682e+000,1.1603932533e+000,1.3191855734e+000,2.1528303581e+000,2.8932010881e+000,2.1326780556e+000,5.6322021979e-002,2.7690987111e+000,3.4556502493e+000,
6.4687500000e+000,2.5268622621e+000,3.7890936815e+000,2.3107415028e+000,3.0457894905e+000,2.7539445292e+000,2.6296702288e+000,1.1886839196e+000,1.3675966582e+000,2.0364737896e+000,2.9625033943e+000,2.2935540624e+000,5.6321201009e-002,2.9219335664e+000,3.5033932447e+000,
6.5625000000e+000,2.5656715509e+000,3.7278172349e+000,2.4500610460e+000,3.0170337965e+000,2.8485307893e+000,2.5510385090e+000,1.1423528074e+000,1.4339905242e+000,2.0681232535e+000,2.9964775878e+000,2.3062117248e+000,5.6321148063e-002,3.0034390761e+000,3.4954830108e+000,
6.6562500000e+000,2.5915229512e+000,3.6685701570e+000,2.5112865321e+000,3.0805090303e+000,2.9359670930e+000,2.5631872772e+000,1.1239319633e+000,1.4708289057e+000,2.1407058234e+000,3.0400018598e+000,2.2344873872e+000,2.1117736222e-001,3.1040665521e+000,3.4753938477e+000,
6.7500000000e+000,2.6141455452e+000,3.7014960577e+000,2.4884524480e+000,3.0790359025e+000,2.9231837102e+000,2.5708383115e+000,1.1186044535e+000,1.4601450433e+000,2.1739358246e+000,3.1413610819e+000,2.2823609576e+000,2.2059722412e-001,3.1631974688e+000,3.3619902895e+000,
6.8437500000e+000,2.6620206528e+000,3.7342815448e+000,2.5063711256e+000,3.1758854508e+000,2.9307018769e+000,2.7032258531e+000,1.1513166508e+000,1.4921220654e+000,1.9781571371e+000,3.2269903689e+000,2.3040902849e+000,2.2162174238e-001,3.1821659892e+000,3.2816506375e+000,
6.9375000000e+000,2.6424195264e+000,3.8533707693e+000,2.5079861549e+000,3.3779196018e+000,2.9263477837e+000,2.9151178193e+000,1.0064117789e+000,1.5857099209e+000,2.0691291901e+000,3.5339022079e+000,2.3211889203e+000,2.0950651418e-001,3.1794807269e+000,3.4552056199e+000,
7.0312500000e+000,2.7461932631e+000,3.9186964795e+000,2.5161104853e+000,3.4145035907e+000,2.9885203947e+000,3.0503691463e+000,9.5287944165e-001,1.6302890115e+000,2.1681719144e+000,3.6132283153e+000,2.4643411584e+000,2.0735541549e-001,3.2186796194e+000,3.5288351132e+000,
7.1250000000e+000,2.7181414999e+000,3.9115215724e+000,2.6401080661e+000,3.4078252471e+000,3.0668513479e+000,3.0802087874e+000,8.9324208974e-001,1.5946911519e+000,2.2199366435e+000,3.6138752695e+000,2.4586258596e+000,1.8082326695e-001,3.2342619280e+000,3.4916507341e+000,
7.2187500000e+000,2.7034534544e+000,3.8551782889e+000,2.5388246099e+000,3.3468670461e+000,3.0741117772e+000,3.0780647762e+000,9.4425411610e-001,1.6073742710e+000,2.2194764311e+000,3.5412609898e+000,2.4475082134e+000,1.7682992609e-001,3.2398023782e+000,3.5161554483e+000,
7.3125000000e+000,2.5790027802e+000,3.6479921366e+000,2.3843242952e+000,3.2549977204e+000,3.0234950727e+000,3.0719274808e+000,1.0990781796e+000,1.5898734986e+000,2.2450179772e+000,3.5376389845e+000,2.4657709605e+000,2.4631820081e-001,3.1809707238e+000,3.4631100844e+000,
7.4062500000e+000,2.4239778456e+000,3.5323446668e+000,2.2430974153e+000,3.2155202953e+000,2.9234731625e+000,3.0429996068e+000,1.1021885154e+000,1.5808984140e+000,2.2520589753e+000,3.5530638809e+000,2.4713096720e+000,5.0745849228e-001,3.1333215701e+000,3.4512258735e+000,
7.5000000000e+000,2.3098443855e+000,3.4788830580e+000,2.0788483050e+000,3.1975915460e+000,2.7856652111e+000,3.0309306204e+000,1.0618684409e+000,1.6245766583e+000,2.2621753708e+000,3.5084200208e+000,2.3780943531e+000,5.4017134678e-001,3.0256643324e+000,3.4527781539e+000,
7.5937500000e+000,2.2846045773e+000,3.4707360321e+000,2.0488523334e+000,3.2411931259e+000,2.8496850026e+000,2.9769534801e+000,1.1315967983e+000,1.5732795197e+000,2.1152102978e+000,3.5019232943e+000,2.4108023486e+000,5.3563732938e-001,2.9800059712e+000,3.5801876629e+000,
7.6875000000e+000,2.3884628285e+000,3.5590154272e+000,2.2763331148e+000,3.2736169392e+000,3.1046713660e+000,2.9733365784e+000,1.2080384802e+000,1.5860041930e+000,2.2240542266e+000,3.5436568179e+000,2.3809981313e+000,4.3100741448e-001,2.9588424878e+000,3.6586646390e+000,
7.7812500000e+000,2.3897387518e+000,3.5746458541e+000,2.3097786241e+000,3.2581762914e+000,3.1398954465e+000,3.0003081036e+000,1.2298022887e+000,1.6821057468e+000,2.3077629724e+000,3.6396830643e+000,2.4398521253e+000,4.2449274230e-001,3.0252339171e+000,3.8387256716e+000,
7.8750000000e+000,2.4665464659e+000,3.5579072017e+000,2.4046050092e+000,3.2142854944e+000,3.0828761041e+000,2.9120938261e+000,1.2337300410e+000,1.6696664174e+000,2.4444030263e+000,3.6161248094e+000,2.4698878060e+000,4.2402053756e-001,3.0037522252e+000,4.0290711589e+000,
7.9687500000e+000,2.3952934979e+000,3.4199088810e+000,2.3959034834e+000,3.0061432273e+000,3.0853602338e+000,2.5719142721e+000,1.2299357992e+000,1.6288318076e+000,2.3009129732e+000,3.3309284833e+000,2.4142752920e+000,4.2448580127e-001,2.9144607171e+000,3.9706881490e+000,
8.0625000000e+000,2.2057818155e+000,3.3021555108e+000,2.4538178899e+000,2.9383326501e+000,2.9797509013e+000,2.4427989267e+000,1.2429157174e+000,1.6575228189e+000,2.3110038614e+000,3.2074847364e+000,2.2728221000e+000,7.7223757020e-001,2.8973860161e+000,3.9329492611e+000,
8.1562500000e+000,2.3784017387e+000,3.4171520296e+000,2.4500928470e+000,2.8691682587e+000,2.9845777464e+000,2.4233895469e+000,1.1990913962e+000,1.6598780524e+000,2.3433776459e+000,3.2123531894e+000,2.2366813182e+000,7.9289757050e-001,2.7076615555e+000,3.8572773817e+000,
8.2500000000e+000,2.5970281751e+000,3.6944040468e+000,2.5248997701e+000,3.0097880430e+000,3.0469979961e+000,2.4727737926e+000,1.1201091852e+000,1.7077322350e+000,2.3400417148e+000,3.2284329503e+000,2.2843110662e+000,1.0224884590e+000,2.7949402785e+000,3.8817061997e+000,
8.3437500000e+000,2.6619152285e+000,3.7146869758e+000,2.5546526942e+000,2.9494831032e+000,3.1054275718e+000,2.4892825974e+000,1.0736112450e+000,1.6129332431e+000,2.3080763781e+000,3.3494405048e+000,2.2949459539e+000,1.2541520942e+000,2.9560760690e+000,3.9383159751e+000,
8.4375000000e+000,2.7280946489e+000,3.6789754392e+000,2.5113940703e+000,2.9055087011e+000,3.0712530862e+000,2.5520856488e+000,1.0746429745e+000,1.5618102970e+000,2.2287916426e+000,3.5239497935e+000,2.3040620817e+000,1.3606298726e+000,3.0199795609e+000,3.8859334341e+000,
8.5312500000e+000,2.7388739037e+000,3.6701693253e+000,2.5625762180e+000,2.9100719054e+000,3.0695321831e+000,2.4965176381e+000,1.0848378271e+000,1.5239996398e+000,2.2746430130e+000,3.5079442241e+000,2.3518730709e+000,1.3663595535e+000,3.0061250247e+000,3.8077070229e+000,
8.6250000000e+000,2.7063186754e+000,3.5925722139e+000,2.4957359314e+000,2.8373798706e+000,2.9070824932e+000,2.5880414991e+000,1.0681619488e+000,1.5985530204e+000,2.3492464269e+000,3.4465328497e+000,2.4168738313e+000,1.3661997284e+000,2.9737317886e+000,3.7201498581e+000,
8.7187500000e+000,2.6625978123e+000,3.6173599830e+000,2.4423877308e+000,2.9321561287e+000,2.7182534332e+000,2.5030815762e+000,8.6991443450e-001,1.5279013305e+000,2.3460971131e+000,3.3581789472e+000,2.3681342761e+000,1.3662060624e+000,2.9287355812e+000,3.7259012425e+000,
8.8125000000e+000,2.5521438978e+000,3.5800626841e+000,2.2762861554e+000,2.9581346040e+000,2.7831988945e+000,2.3496765060e+000,7.8987471163e-001,1.4533811862e+000,2.4608153326e+000,3.2631452617e+000,2.3886858485e+000,1.3676918316e+000,2.9137242670e+000,3.4501304908e+000,
8.9062500000e+000,2.5058775081e+000,3.5620169949e+000,2.3021639159e+000,2.9523661360e+000,2.7809617259e+000,2.3504618312e+000,7.8388753270e-001,1.3878218839e+000,2.3441773265e+000,3.2280221899e+000,2.3842222332e+000,1.5709796617e+000,2.9307034848e+000,3.2005997892e+000,
9.0000000000e+000,2.5210600279e+000,3.5984209867e+000,2.3395076219e+000,2.9958157849e+000,2.7687942363e+000,2.3869697016e+000,7.3527108861e-001,1.4342152709e+000,2.4657543895e+000,3.2764957902e+000,2.4067136143e+000,1.5769667863e+000,3.0448187174e+000,3.0980695261e+000,
9.0937500000e+000,2.5460831890e+000,3.6788866290e+000,2.2732669118e+000,3.0385535720e+000,2.8178852607e+000,2.3863524108e+000,7.9818653729e-001,1.4104574586e+000,2.4278155699e+000,3.4027890666e+000,2.3862068375e+000,1.6342834821e+000,2.9957610744e+000,3.0830244624e+000,
9.1875000000e+000,2.4396960465e+000,3.6369132271e+000,2.2790174103e+000,3.1519107635e+000,2.8577004655e+000,2.3240085572e+000,8.6923096326e-001,1.3493370255e+000,2.4460420406e+000,3.4537913376e+000,2.3699432711e+000,1.6653622298e+000,2.9880634120e+000,3.0592728218e+000,
9.2812500000e+000,2.1674585620e+000,3.4591586239e+000,2.2403189558e+000,3.1467417718e+000,2.7332619337e+000,2.2578840161e+000,8.9477679375e-001,1.3857279560e+000,2.5228939407e+000,3.4384379359e+000,2.4233974174e+000,1.5065915931e+000,2.9056700262e+000,2.9589458692e+000,
9.3750000000e+000,2.1763357387e+000,3.4470865028e+000,2.2678413375e+000,3.1723168475e+000,2.8268561787e+000,2.2983064272e+000,9.7017339810e-001,1.5679541948e+000,2.5664645318e+000,3.2925967434e+000,2.3948995887e+000,1.4573640490e+000,2.7213722474e+000,3.0112633894e+000,
9.4687500000e+000,2.2174448756e+000,3.4513305529e+000,2.2424518230e+000,3.2242849649e+000,2.7793621797e+000,2.3058454580e+000,1.1330470521e+000,1.6134403592e+000,2.6088709392e+000,3.2273560437e+000,2.3863962919e+000,1.4201437802e+000,2.7446776122e+000,3.1708354625e+000,
9.5625000000e+000,2.2429250954e+000,3.4501795704e+000,2.2568102436e+000,3.2628555087e+000,2.7619791290e+000,2.2957700284e+000,1.1140155915e+000,1.6273738617e+000,2.6272707259e+000,3.2554054103e+000,2.4181953859e+000,1.6319384362e+000,2.9099554231e+000,3.2789988456e+000,
9.6562500000e+000,2.2641281809e+000,3.4967823550e+000,2.3652831461e+000,3.3511437629e+000,2.8036191404e+000,2.2787162073e+000,1.1085078858e+000,1.5457942251e+000,2.5197130117e+000,3.2821511890e+000,2.3029416143e+000,1.6381336655e+000,2.8484384998e+000,3.2709258833e+000,
9.7500000000e+000,2.2505303947e+000,3.4264794378e+000,2.4154809743e+000,3.2668551421e+000,2.7950560223e+000,2.3654960865e+000,1.2681311854e+000,1.5076990343e+000,2.3644096534e+000,3.2536150253e+000,2.3720605569e+000,1.6961548115e+000,2.8668259420e+000,3.1782922237e+000,
9.8437500000e+000,2.2546685554e+000,3.4382471408e+000,2.5079220866e+000,6.5268507597e+000,2.7973812182e+000,2.4091257640e+000,1.3684947111e+000,1.4847513235e+000,2.2439465363e+000,3.2759675970e+000,2.2658541568e+000,1.6669988024e+000,2.7439170004e+000,3.1929312593e+000,
9.9375000000e+000,2.2859460096e+000,3.5109820810e+000,2.5168423880e+000,7.8719050444e+000,2.8251780655e+000,2.4230107548e+000,1.5126506347e+000,1.6624429814e+000,2.2357379696e+000,3.3959301577e+000,2.2198799735e+000,1.5164750431e+000,2.6671711652e+000,3.2941996267e+000,
1.0031250000e+001,2.2508180040e+000,3.5910239209e+000,2.6020275886e+000,8.3386250026e+000,2.8302892525e+000,2.4149421378e+000,1.6238491816e+000,1.6565201626e+000,2.0795393446e+000,3.3533001908e+000,2.2539834077e+000,1.5507964582e+000,2.6233139376e+000,3.4092631075e+000,
1.0125000000e+001,2.1175555121e+000,3.4850099438e+000,2.5757571592e+000,8.3656835156e+000,2.8043027547e+000,2.5104150130e+000,1.7584968294e+000,1.7132290273e+000,2.0279179079e+000,3.2731423758e+000,2.2845092277e+000,1.6465252927e+000,2.6830730094e+000,3.4495080966e+000,
1.0218750000e+001,2.0239101150e+000,6.5868876837e+000,2.5234051398e+000,1.2665782104e+001,2.7136079173e+000,2.7514716771e+000,1.7677078974e+000,6.7360145225e+000,1.9866765854e+000,3.6960537293e+000,2.3074314993e+000,1.6772538510e+000,2.9340665774e+000,3.4949609288e+000,
1.0312500000e+001,2.1167292300e+000,7.1554927005e+000,2.4619976775e+000,1.3314624809e+001,2.6456849426e+000,2.7747857971e+000,1.8635763583e+000,7.2835194686e+000,1.7909440514e+000,4.0466685396e+000,2.3020874407e+000,1.6770665927e+000,2.9705476461e+000,3.4932403971e+000,
1.0406250000e+001,1.9460823957e+000,7.1911692168e+000,2.3661445886e+000,1.3366258620e+001,2.5449758682e+000,2.6936594104e+000,1.8680237883e+000,7.3144587031e+000,1.7939495832e+000,4.0591498420e+000,2.1922085716e+000,1.6443036350e+000,2.9353196465e+000,3.4064635154e+000,
1.0500000000e+001,1.9707229088e+000,7.1900665870e+000,2.3468401424e+000,1.3367656495e+001,2.6417655545e+000,2.6390285500e+000,1.9129517315e+000,7.3150152153e+000,1.6452615128e+000,4.0082271872e+000,2.1310372005e+000,1.6761542196e+000,2.8811679959e+000,3.4345816190e+000,
1.0593750000e+001,1.9647171199e+000,7.1898629703e+000,2.3096244100e+000,1.3367686532e+001,2.5771222483e+000,2.6075283882e+000,1.9480953348e+000,7.3149059925e+000,1.4091246558e+000,4.0100315525e+000,2.0457948614e+000,1.5561469826e+000,2.7173086649e+000,3.3098208303e+000,
1.0687500000e+001,1.9801660176e+000,7.1882893087e+000,2.2504038784e+000,1.3367681609e+001,2.5250465667e+000,2.6604549077e+000,2.0004409612e+000,7.3151999363e+000,1.3769464726e+000,4.0321125795e+000,2.1233898374e+000,1.5404554077e+000,2.9253189490e+000,3.3798133191e+000,
1.0781250000e+001,2.2524585925e+000,7.1892617273e+000,2.2497420907e+000,1.3367680877e+001,2.5009962553e+000,2.6600305814e+000,1.9753343451e+000,7.3157118785e+000,1.4466819360e+000,4.0314088111e+000,2.2248882853e+000,1.6347201028e+000,3.0021437002e+000,3.4276813009e+000,
1.0875000000e+001,2.6278308003e+000,7.1911393848e+000,2.4211449276e+000,1.3363687350e+001,2.6054936659e+000,2.6549263473e+000,1.9033375280e+000,7.3157927849e+000,1.5790344264e+000,4.0167551158e+000,2.1905141022e+000,1.7538795359e+000,3.0433966802e+000,3.3889161299e+000,
1.0968750000e+001,2.6905282060e+000,7.1901305280e+000,2.3759046405e+000,1.3363600081e+001,2.6425086287e+000,2.6992237584e+000,2.0012353335e+000,7.3159343115e+000,1.7419978284e+000,3.9442588549e+000,2.2607374019e+000,1.8449523518e+000,3.1340674734e+000,3.3935721948e+000,
1.1062500000e+001,2.7164064080e+000,7.1877509383e+000,2.2991652233e+000,1.3361116831e+001,2.5711040407e+000,2.6762548217e+000,1.8830740335e+000,7.3163188755e+000,1.9256645269e+000,3.9220023514e+000,2.2187608182e+000,2.0247313411e+000,3.0951668449e+000,3.2547484063e+000,
1.1156250000e+001,2.7314680032e+000,7.1890849592e+000,2.2362075229e+000,1.3356337510e+001,2.6126877657e+000,2.7196898289e+000,1.8612871565e+000,7.3137721257e+000,2.0598930631e+000,3.9493793932e+000,2.1694718490e+000,1.9296641065e+000,3.1071000890e+000,3.2747641072e+000,
1.1250000000e+001,2.7539652343e+000,5.9920874563e+000,2.2218024763e+000,1.2282738765e+001,2.6121905161e+000,2.4746762274e+000,1.9096737131e+000,5.9614344109e+000,2.0668182845e+000,3.4269114294e+000,2.1874817187e+000,2.0129355130e+000,2.9163070445e+000,3.2889495479e+000,
1.1343750000e+001,2.7188532048e+000,3.7538032424e+000,2.2385822441e+000,9.0695666889e+000,2.8457010073e+000,2.4556323580e+000,1.8155629149e+000,3.2663460363e+000,2.0766760618e+000,2.9265728218e+000,2.1404693742e+000,2.1026162223e+000,2.8852575421e+000,3.2970275384e+000,
1.1437500000e+001,2.6957667717e+000,3.2987092708e+000,2.2707574196e+000,5.6530989418e+000,2.9049339299e+000,2.5251422619e+000,1.7607899887e+000,1.9037473697e+000,2.0544380676e+000,3.0736113282e+000,2.1457818107e+000,2.0980427135e+000,2.8270672696e+000,3.3215059508e+000,
1.1531250000e+001,2.6360634095e+000,3.3690440229e+000,2.2943187626e+000,3.4998444474e+000,2.9038485520e+000,2.6016394964e+000,1.8176314254e+000,1.8940679113e+000,2.2253932197e+000,3.0927676916e+000,2.1999194857e+000,2.0548933896e+000,2.8392004598e+000,3.3244040982e+000,
1.1625000000e+001,2.6298686398e+000,3.4582619923e+000,2.3456862215e+000,3.2535261071e+000,3.0677109023e+000,2.6044390738e+000,1.8096220022e+000,1.9176557158e+000,2.3480875459e+000,3.1000704539e+000,2.1537006170e+000,2.1733104613e+000,2.7144982360e+000,3.2851884742e+000,
1.1718750000e+001,2.6018431849e+000,3.4697574760e+000,2.2272785117e+000,3.2803817788e+000,3.0093723609e+000,2.5016890267e+000,1.7831624906e+000,1.7570100982e+000,2.3980007932e+000,2.9337536530e+000,2.1307125320e+000,2.3188407113e+000,2.7426260635e+000,3.2256089899e+000,
1.1812500000e+001,2.3055448869e+000,3.4159919547e+000,2.0683140529e+000,3.3255106107e+000,2.9715203141e+000,2.5799334315e+000,1.7814007909e+000,1.7127927892e+000,2.4839548310e+000,2.9583235929e+000,2.0520186093e+000,2.3261967666e+000,2.7450479676e+000,3.2057795817e+000,
1.1906250000e+001,1.9203020856e+000,3.2817391902e+000,1.8452782199e+000,3.2483003388e+000,2.8498483520e+000,2.6429525636e+000,1.6870212909e+000,1.5712333403e+000,2.4434842529e+000,2.9309860758e+000,2.1491727243e+000,2.3846935801e+000,2.8973057278e+000,3.1830735714e+000,
1.2000000000e+001,1.8355141503e+000,3.2423898764e+000,2.0095651501e+000,3.2422235347e+000,2.8659945288e+000,2.5715345974e+000,1.5538589043e+000,1.4326918528e+000,2.3778890664e+000,2.9440481247e+000,2.0916035078e+000,2.3576201652e+000,2.8615023925e+000,3.1239025858e+000,
1.2093750000e+001,1.8021851088e+000,3.1607943779e+000,1.9495261235e+000,3.1957500765e+000,2.8844274088e+000,2.4394005310e+000,1.5182858183e+000,1.2828630505e+000,2.2873259859e+000,2.9625773321e+000,2.1491853635e+000,2.3065112189e+000,2.8900475184e+000,3.1115694794e+000,
1.2187500000e+001,1.7833507417e+000,3.0408632021e+000,1.9295422260e+000,3.0747413542e+000,2.9305783464e+000,2.4945528258e+000,1.4627047521e+000,1.3812730849e+000,2.2916267158e+000,2.9285430112e+000,2.2336862698e+000,2.4046076647e+000,2.8582297639e+000,3.0737131777e+000,
1.2281250000e+001,1.8684876522e+000,3.0710340711e+000,1.9993997179e+000,3.0837250276e+000,2.9732683968e+000,2.6520572024e+000,1.3469984087e+000,1.3997316365e+000,2.3643274515e+000,3.0018692954e+000,2.2608027362e+000,2.3554035878e+000,2.8971559784e+000,3.0497601603e+000,
1.2375000000e+001,1.8547551538e+000,2.9951064672e+000,1.9754334530e+000,3.0737281288e+000,2.7344370221e+000,2.6110731381e+000,1.3428179884e+000,1.4247016566e+000,2.3850381570e+000,2.9767816872e+000,2.2836697884e+000,2.3886190706e+000,2.8999120927e+000,2.9882666018e+000,
1.2468750000e+001,1.8803490419e+000,2.9584108990e+000,1.9798224554e+000,2.9972316875e+000,2.7702393505e+000,2.5482850452e+000,1.2215434434e+000,1.4354657758e+000,2.4567330517e+000,2.8230722866e+000,2.2883533910e+000,2.3896137880e+000,2.8739961443e+000,2.7903452083e+000,
1.2562500000e+001,1.9231447668e+000,4.4405143256e+000,1.9099355860e+000,1.0233630760e+001,2.6728737267e+000,2.5499661817e+000,1.2244087677e+000,3.3500645851e+000,2.3578343394e+000,2.8441001228e+000,2.2743306870e+000,2.4372052889e+000,2.8390568814e+000,2.7647497919e+000,
1.2656250000e+001,2.4107940763e+000,5.7779320885e+000,2.0606858720e+000,1.2017466172e+001,2.6557806934e+000,2.5370602124e+000,1.2559501558e+000,5.5048535316e+000,2.2759339460e+000,2.9499327294e+000,2.2723719213e+000,2.4275216400e+000,2.7893944899e+000,2.6738929372e+000,
1.2750000000e+001,2.4549160614e+000,5.8231233007e+000,2.0687281002e+000,1.2085028913e+001,2.6474720333e+000,2.5440987048e+000,1.2534927982e+000,5.5581004368e+000,2.1278965044e+000,2.9594504171e+000,2.2384243318e+000,2.3622024678e+000,2.7035416158e+000,2.5415132516e+000,
1.2843750000e+001,2.4807897107e+000,5.8285157134e+000,2.2064271884e+000,1.2085841621e+001,2.7055195599e+000,2.5569098767e+000,1.2283582251e+000,5.5597752844e+000,2.0582815812e+000,3.0654563146e+000,2.2121919960e+000,2.2655743857e+000,2.5444985421e+000,2.7746106250e+000,
1.2937500000e+001,2.5073530300e+000,5.8312659445e+000,2.3420497265e+000,1.2085916389e+001,2.7744934093e+000,2.5635571277e+000,1.1942073856e+000,5.5599892267e+000,2.0557867815e+000,3.1974160686e+000,2.1914171191e+000,2.1478514659e+000,2.4162473855e+000,2.8998560994e+000,
1.3031250000e+001,2.5205249184e+000,5.8362254811e+000,2.2598282140e+000,1.2085920274e+001,2.7731654401e+000,2.6652585453e+000,1.1946638133e+000,5.5601194831e+000,2.0257104013e+000,3.1512594318e+000,2.1366785822e+000,2.0529710638e+000,2.3364087520e+000,2.8639823420e+000,
1.3125000000e+001,2.4907570932e+000,5.8528020501e+000,2.2939930217e+000,1.2085921812e+001,2.7570299931e+000,2.7179693085e+000,1.1853658680e+000,5.5596724748e+000,2.0841211634e+000,3.2458663009e+000,2.1069096357e+000,2.0325938769e+000,2.4998323470e+000,3.0041928107e+000,
1.3218750000e+001,2.4860983939e+000,5.8482474423e+000,2.2804134074e+000,1.2085912925e+001,2.7764531735e+000,2.6265683163e+000,1.1749138427e+000,5.5588824941e+000,2.1733204504e+000,3.2595882885e+000,1.9240592069e+000,1.8261282187e+000,2.5904300798e+000,3.0916667341e+000,
1.3312500000e+001,2.4102644043e+000,5.8458259405e+000,2.2284153017e+000,1.2085909913e+001,2.6963511844e+000,2.4858419433e+000,1.2214642898e+000,5.5591325025e+000,2.0844670594e+000,3.2299029234e+000,1.8572230241e+000,1.6851906138e+000,2.7360714592e+000,3.3659036948e+000,
1.3406250000e+001,2.4252424240e+000,5.8449405481e+000,2.2319470322e+000,1.2085908451e+001,2.6427919217e+000,2.5291960853e+000,1.1700245992e+000,5.5583491989e+000,2.0713728665e+000,3.2403978605e+000,1.9606234857e+000,1.6161984969e+000,2.8814748092e+000,3.4456673277e+000,
1.3500000000e+001,2.4537712494e+000,5.8450554083e+000,2.2158390403e+000,1.2084136144e+001,2.6027353194e+000,2.6144299900e+000,1.1246873408e+000,5.5576627101e+000,2.0686541849e+000,3.2585606070e+000,2.0960195985e+000,1.4813012383e+000,2.8976586221e+000,3.4438468569e+000,
1.3593750000e+001,2.2441709378e+000,5.4759642048e+000,2.1018466842e+000,1.1758127211e+001,2.5411595371e+000,2.6081503956e+000,8.8180856339e-001,5.2621005144e+000,2.0199052903e+000,3.2826981276e+000,2.1318995203e+000,1.4640926468e+000,2.9494395609e+000,3.4735066311e+000,
1.3687500000e+001,1.9397780147e+000,3.4133894469e+000,2.0460125407e+000,7.3461993937e+000,2.4739915911e+000,2.5857328302e+000,8.0883636739e-001,1.8343499292e+000,2.0364455944e+000,3.2319015692e+000,2.1107014771e+000,1.2460299830e+000,2.8978323182e+000,3.5934108865e+000,
1.3781250000e+001,2.0980372733e+000,3.4063275713e+000,2.2213362482e+000,4.6258391658e+000,2.5718536509e+000,2.6111809519e+000,7.9140803183e-001,1.5211696066e+000,2.1089441240e+000,3.3141881218e+000,2.0675418201e+000,1.3255037179e+000,2.9617935665e+000,3.7449070071e+000,
1.3875000000e+001,2.2758384987e+000,3.5502169486e+000,2.1897968950e+000,3.3681711280e+000,2.6562077590e+000,2.5760913727e+000,7.8282038038e-001,1.5400307506e+000,2.2971988095e+000,3.2594956748e+000,2.1116966953e+000,1.4785450787e+000,3.0239515221e+000,3.6692620901e+000,
1.3968750000e+001,2.3419402514e+000,3.6443563954e+000,2.2351040276e+000,3.2468696404e+000,2.7101957228e+000,2.5570639107e+000,7.6742273271e-001,1.4950724804e+000,2.5112297083e+000,3.2189966201e+000,2.1705293507e+000,1.5196188117e+000,3.0897646059e+000,3.7364568963e+000,
1.4062500000e+001,2.4140160220e+000,3.6203473244e+000,2.3402620228e+000,3.2022078679e+000,2.7280117706e+000,2.5511162019e+000,7.4274566841e-001,1.3800441999e+000,2.4967886331e+000,3.2595782973e+000,2.1883182762e+000,1.6556537809e+000,3.1473430372e+000,3.7351431381e+000,
1.4156250000e+001,2.4577208813e+000,3.5527511127e+000,2.3827417849e+000,3.1615858348e+000,2.7013909077e+000,2.4675413461e+000,7.7964100430e-001,1.3417150392e+000,2.3352848284e+000,3.1944783045e+000,2.2195947051e+000,1.7955460366e+000,3.0830740313e+000,3.6457604436e+000,
1.4250000000e+001,2.4981466871e+000,3.5678254355e+000,2.3933197789e+000,3.1634609032e+000,2.7518598148e+000,2.4120612209e+000,7.5154643226e-001,1.2396902773e+000,2.3310617224e+000,3.1586163431e+000,2.3229008111e+000,2.0240444337e+000,3.0445227677e+000,3.5284022361e+000,
1.4343750000e+001,2.4712946436e+000,3.5922251068e+000,2.3748787900e+000,3.2130155015e+000,2.7771900809e+000,2.3731775864e+000,7.0457471878e-001,1.2311243470e+000,2.2654616190e+000,3.1271327458e+000,2.3237827022e+000,2.0313653989e+000,2.9981212157e+000,3.3468198943e+000,
1.4437500000e+001,2.4174508494e+000,3.6382045518e+000,2.3770782230e+000,3.2203575821e+000,2.7916776464e+000,2.3714558095e+000,7.4664960917e-001,1.2058816298e+000,2.2022450319e+000,3.1917243624e+000,2.2079494820e+000,2.0388318163e+000,2.9291186507e+000,3.3229984120e+000,
1.4531250000e+001,2.4009989198e+000,3.6444403206e+000,2.4731512300e+000,3.2718604658e+000,2.8283359900e+000,2.3144165914e+000,8.1900883718e-001,1.2224452364e+000,2.2623637086e+000,3.1835897715e+000,2.2007300476e+000,2.1017598432e+000,3.0702759943e+000,3.4773870252e+000,
1.4625000000e+001,2.3907069792e+000,3.6243929997e+000,2.4431424323e+000,3.1820075157e+000,2.8920092988e+000,2.2355886353e+000,8.0632944935e-001,1.1615975636e+000,2.3053417391e+000,3.1477797504e+000,2.2348797175e+000,2.1812277075e+000,3.0716473748e+000,3.4437553276e+000,
1.4718750000e+001,2.4205690657e+000,3.5778855905e+000,2.4309420667e+000,3.1282231869e+000,2.8409651224e+000,2.2057416889e+000,7.7086750547e-001,1.0691746388e+000,2.3013028268e+000,2.9984150411e+000,2.2730863361e+000,2.2930907933e+000,3.1005483430e+000,3.3941809545e+000,
1.4812500000e+001,2.3015569193e+000,3.4173834145e+000,2.3301209735e+000,2.9801148170e+000,2.7522394373e+000,2.0804616835e+000,6.7704478080e-001,8.8796499433e-001,2.2980441961e+000,2.9096229454e+000,2.2398992110e+000,2.3751017888e+000,3.0280308761e+000,3.2672015367e+000,
1.4906250000e+001,1.9568445407e+000,3.0637262716e+000,2.2669402099e+000,2.8840403965e+000,2.5971394244e+000,2.0233798985e+000,6.9986219565e-001,7.3794276998e-001,1.8387410770e+000,2.8958900785e+000,2.1731307774e+000,2.3794700676e+000,2.9872447892e+000,3.2861610822e+000,
1.5000000000e+001,2.0249164339e+000,3.2634417238e+000,2.3614024074e+000,3.0047417424e+000,2.7721695513e+000,2.2450980994e+000,7.2269849635e-001,7.6739855015e-001,1.9443146237e+000,3.0769521709e+000,2.1966907924e+000,2.3930784062e+000,3.2309994302e+000,3.4084529348e+000,
1.5093750000e+001,2.0168575574e+000,3.3602752100e+000,2.2758210276e+000,3.1078037115e+000,2.8842524349e+000,2.3184942863e+000,7.0258079156e-001,7.8595341227e-001,1.9343966066e+000,3.2046996157e+000,2.1817864708e+000,2.4132361533e+000,3.2649896293e+000,3.4435142304e+000,
1.5187500000e+001,2.0342562539e+000,3.3585694694e+000,2.3270765480e+000,3.1569502132e+000,2.8308824194e+000,2.3370618979e+000,6.8953220375e-001,7.5282260543e-001,1.9465567327e+000,3.1550067181e+000,2.2002767955e+000,2.4143734264e+000,3.2627360660e+000,3.4699067786e+000,
1.5281250000e+001,2.1084558951e+000,3.3998364315e+000,2.3674401773e+000,3.1109525199e+000,2.8189812474e+000,2.3867295988e+000,8.7793752986e-001,8.0904154640e-001,1.9763626553e+000,3.1427574929e+000,2.1936730365e+000,2.3242489724e+000,3.2867201561e+000,3.5705378184e+000,
1.5375000000e+001,2.1163864033e+000,3.3887137443e+000,2.3786060858e+000,3.0949186558e+000,2.9092554284e+000,2.3295417997e+000,8.6441392799e-001,8.6402655198e-001,2.1843422656e+000,3.1209442488e+000,2.1940686425e+000,2.3662298687e+000,3.2746799011e+000,3.6291794276e+000,
1.5468750000e+001,2.1583615689e+000,3.5791323509e+000,2.4469327050e+000,3.2819807209e+000,2.9418124401e+000,2.3857271612e+000,8.9451218732e-001,8.6193005959e-001,2.2368230942e+000,3.0957143309e+000,2.2037979301e+000,2.4642920544e+000,3.2337104642e+000,3.6067520137e+000,
1.5562500000e+001,2.7090508296e+000,3.7843065819e+000,2.5274134261e+000,3.3209264197e+000,3.1581181595e+000,2.4270345141e+000,8.9176149158e-001,7.6781382644e-001,2.2083500582e+000,3.1602413038e+000,2.1340087338e+000,2.4318404455e+000,3.2155835925e+000,3.6688583532e+000,
1.5656250000e+001,2.7010809402e+000,3.8232092700e+000,2.5727388199e+000,3.3441224821e+000,3.1357760308e+000,2.5089094465e+000,9.9186367801e-001,8.5748306216e-001,2.1103611542e+000,3.1435010208e+000,2.1131431215e+000,2.4810041433e+000,3.2830317681e+000,3.7030098173e+000,
1.5750000000e+001,2.6701895269e+000,3.8192981744e+000,2.5587827195e+000,3.3592672548e+000,3.1706772038e+000,2.5009688890e+000,1.1566998754e+000,8.9674253310e-001,2.2310795275e+000,3.1359998464e+000,2.1513385538e+000,2.4154307806e+000,3.2335200589e+000,3.6111779069e+000,
1.5843750000e+001,2.6841053310e+000,3.8386873263e+000,2.5241477506e+000,3.4314973694e+000,3.2119072282e+000,2.5461095513e+000,1.1902506340e+000,9.4736896055e-001,2.2090952436e+000,3.1849646891e+000,2.1978250526e+000,2.4875898744e+000,3.2286703097e+000,3.6215535043e+000,
1.5937500000e+001,2.6641718447e+000,3.7776215384e+000,2.3413173089e+000,3.3586196759e+000,3.1787031129e+000,2.3893514520e+000,1.2130348278e+000,9.8038375723e-001,2.2755548199e+000,3.0485142477e+000,2.2481998628e+000,2.4778602800e+000,3.1762903136e+000,3.5049873714e+000,
1.6031250000e+001,2.6495359705e+000,3.6107295469e+000,2.3377942035e+000,3.2532879069e+000,3.2033340111e+000,2.2536728453e+000,1.2275655022e+000,9.7012281517e-001,2.3949159027e+000,2.9116726029e+000,2.2437053447e+000,2.4027402869e+000,2.7732705650e+000,3.4036145483e+000,
1.6125000000e+001,2.6179126204e+000,3.6222806805e+000,2.4280779038e+000,3.2721153425e+000,3.1971672538e+000,2.2665277640e+000,1.2282133884e+000,1.0766362510e+000,2.5549571730e+000,2.8430583905e+000,2.2053598607e+000,2.3262967873e+000,2.6657127817e+000,3.4004180962e+000,
1.6218750000e+001,2.6332247995e+000,3.6857169320e+000,2.3718093169e+000,3.2946100566e+000,3.2256231536e+000,2.4101496098e+000,1.2381212053e+000,1.0385514095e+000,2.5226321569e+000,2.8877513395e+000,2.1317179776e+000,2.3144446754e+000,2.6776007802e+000,3.3282272920e+000,
1.6312500000e+001,2.6235472584e+000,3.6370894431e+000,2.3327472350e+000,3.3254874327e+000,3.1937635370e+000,2.3756684148e+000,1.1480030414e+000,1.0310180696e+000,2.5627755942e+000,2.9597431476e+000,2.0460349488e+000,2.3224455025e+000,2.5825610091e+000,3.2601402688e+000,
1.6406250000e+001,2.6246332274e+000,3.6145142234e+000,2.3033837462e+000,3.2512630851e+000,3.0733197513e+000,2.4033954916e+000,1.1957390285e+000,9.9126143777e-001,2.4870413115e+000,2.9376451452e+000,2.1159460374e+000,2.2576267206e+000,2.5391252159e+000,3.1469114979e+000,
1.6500000000e+001,2.3443447419e+000,3.3285290420e+000,2.1272565142e+000,3.1235371041e+000,3.0634120965e+000,2.2663710905e+000,1.1654746900e+000,1.0736250625e+000,2.4661154614e+000,2.8508675027e+000,2.0855017617e+000,2.2655900101e+000,2.4569670591e+000,3.0954628498e+000,
1.6593750000e+001,2.0647277171e+000,3.2529075830e+000,2.2181637342e+000,3.2533726782e+000,2.9984105260e+000,2.3857098584e+000,1.1507028792e+000,1.0332919563e+000,2.4974164586e+000,2.9818925675e+000,2.1966153284e+000,2.2379936930e+000,2.2820218351e+000,2.9104425749e+000,
1.6687500000e+001,2.4188673841e+000,3.2582621020e+000,2.4070910527e+000,3.2785363642e+000,3.5871008200e+000,2.4720773542e+000,1.0513586603e+000,1.0709224239e+000,2.4315193386e+000,3.0930348997e+000,2.3317410269e+000,2.1033096220e+000,2.1666069940e+000,3.0797974892e+000,
1.6781250000e+001,2.5753683119e+000,3.2082735596e+000,2.5125291789e+000,3.1552246675e+000,3.7101629816e+000,2.5126983367e+000,9.6349619870e-001,1.0610842014e+000,2.3906569657e+000,3.0992478785e+000,2.2347868155e+000,2.0755563194e+000,2.2013764272e+000,3.0709019279e+000,
1.6875000000e+001,2.5632375015e+000,3.1880247335e+000,2.4991240320e+000,3.1025715745e+000,3.7197336515e+000,2.5168561750e+000,9.8147076666e-001,1.0876720584e+000,2.3929394658e+000,3.0688634819e+000,2.2709636748e+000,1.8385889109e+000,2.2147645345e+000,3.0724889262e+000,
1.6968750000e+001,2.6502444117e+000,3.2813522425e+000,2.5077443702e+000,3.1521610574e+000,3.7251753433e+000,2.5545833983e+000,9.3951091328e-001,1.0820813727e+000,2.3443941599e+000,3.0659770835e+000,2.2254938474e+000,1.9590007613e+000,2.2033795303e+000,3.1523746303e+000,
1.7062500000e+001,3.0272322042e+000,3.6188838339e+000,2.5249877361e+000,3.1843672379e+000,3.7747630305e+000,2.6682888718e+000,9.5920913457e-001,1.1427211251e+000,2.2636208701e+000,3.0288931988e+000,2.2092087650e+000,2.0809050092e+000,2.2381245464e+000,3.1250323485e+000,
1.7156250000e+001,3.0764325289e+000,3.7007817131e+000,2.5003342247e+000,3.2037746595e+000,3.7725451252e+000,2.6511759136e+000,8.7164247639e-001,1.0788868982e+000,2.0882883404e+000,2.9756446724e+000,2.2574690234e+000,2.0999087533e+000,2.3593006104e+000,3.1193384635e+000,
1.7250000000e+001,3.0739443975e+000,3.7588121130e+000,2.6223233434e+000,3.2769209030e+000,3.7991947176e+000,2.6954109389e+000,8.5802508581e-001,1.1460148794e+000,2.0255764567e+000,2.9850959640e+000,2.3915894420e+000,2.1564618484e+000,2.4071122352e+000,3.1802320533e+000,
1.7343750000e+001,3.0667355748e+000,3.7558511453e+000,2.6397821603e+000,3.2331685431e+000,3.8080311119e+000,2.7419944646e+000,8.4719426175e-001,1.1534682535e+000,2.0257282566e+000,2.9356428105e+000,2.3751083504e+000,2.2391741006e+000,2.4090762076e+000,3.2226227888e+000,
1.7437500000e+001,3.0770289268e+000,3.7460034528e+000,2.6665224253e+000,3.2676705599e+000,3.7811947015e+000,2.8194989075e+000,7.4937404594e-001,1.1256276172e+000,2.0684371195e+000,3.0598372279e+000,2.3431825841e+000,2.2652009382e+000,2.5094871192e+000,3.2690942952e+000,
1.7531250000e+001,3.0907414686e+000,3.6903310164e+000,2.6848972306e+000,3.1507469744e+000,3.7665796725e+000,2.8627546747e+000,7.4283419014e-001,1.0412502602e+000,1.9779857785e+000,3.0846748416e+000,2.3725453597e+000,2.2082018302e+000,2.4878112971e+000,3.2360145551e+000,
1.7625000000e+001,3.0294558569e+000,3.6201366381e+000,2.6004013592e+000,2.9594223288e+000,3.6074417187e+000,2.7336560456e+000,7.4056131339e-001,1.0141496794e+000,1.9571609972e+000,2.9374868573e+000,2.1892611975e+000,2.2158446135e+000,2.5179134300e+000,3.2065089076e+000,
1.7718750000e+001,2.8093302425e+000,3.6523461985e+000,2.4524138260e+000,3.0134627614e+000,3.0630016326e+000,2.6172216716e+000,6.9856810230e-001,1.0170007761e+000,1.9546087637e+000,2.8986871653e+000,2.1977291366e+000,2.2698421514e+000,2.4616106624e+000,3.0806898695e+000,
1.7812500000e+001,2.7233497067e+000,3.6687390560e+000,2.3618158651e+000,3.1161075733e+000,2.9007673672e+000,2.5979025046e+000,6.1497960692e-001,9.3536924084e-001,2.1510117983e+000,2.9117185336e+000,2.2186983998e+000,2.2357445178e+000,2.5853260153e+000,3.5281998332e+000,
1.7906250000e+001,2.6694539793e+000,3.6560035498e+000,2.3914187414e+000,3.1696651019e+000,2.8793223435e+000,2.6149226641e+000,5.6134275354e-001,9.4728234402e-001,2.2958553157e+000,2.9966827669e+000,2.3859762566e+000,2.2376394447e+000,2.6601141342e+000,3.7112644843e+000,
1.8000000000e+001,2.3280520354e+000,3.4647229266e+000,2.2522020549e+000,3.0309238081e+000,2.8263026432e+000,2.5227101415e+000,5.7838368410e-001,9.4345342888e-001,2.3455798056e+000,2.9928243655e+000,2.3739645771e+000,2.1559340639e+000,2.6801942128e+000,3.7238908736e+000,
1.8093750000e+001,1.8581841864e+000,3.1247870233e+000,2.1240864407e+000,2.9747388768e+000,2.4809400877e+000,2.3712290676e+000,5.4732934456e-001,9.0497297117e-001,2.4367656244e+000,2.9702452251e+000,2.4564379140e+000,2.1532918418e+000,2.7476513587e+000,3.7988194218e+000,
1.8187500000e+001,1.7063360429e+000,2.9788325481e+000,2.1159763402e+000,2.9462707021e+000,2.5544399644e+000,2.4089718963e+000,5.3648470527e-001,9.4981787681e-001,2.4737187328e+000,2.9460054158e+000,2.3872065217e+000,2.2314124277e+000,2.8292022006e+000,3.8900723835e+000,
1.8281250000e+001,1.7878692551e+000,2.9587032302e+000,2.1436835944e+000,2.9215981828e+000,2.5592615812e+000,2.4089753796e+000,5.5881821905e-001,9.2982386590e-001,2.6014428116e+000,2.9241364378e+000,2.3801523212e+000,2.1175116190e+000,2.9445662963e+000,3.9076623217e+000,
1.8375000000e+001,1.8037783481e+000,3.0415786096e+000,2.1132094294e+000,2.9823835381e+000,2.6836447821e+000,2.3888700229e+000,6.0113616416e-001,9.0203124455e-001,2.5199747919e+000,2.8760964526e+000,2.3740514904e+000,2.0367748274e+000,2.8791700309e+000,3.8703273584e+000,
1.8468750000e+001,1.9575106419e+000,3.1774561523e+000,2.1481140477e+000,3.1047323444e+000,2.7102807126e+000,2.2356299183e+000,6.1406880349e-001,9.0965127982e-001,2.5820941621e+000,2.8616135948e+000,2.3886877931e+000,2.1023443311e+000,2.9227380869e+000,4.0254398788e+000,
1.8562500000e+001,2.2096004538e+000,3.3162451251e+000,2.2080489897e+000,3.2074056855e+000,2.7459319949e+000,2.3245878562e+000,7.3229172347e-001,9.5416923036e-001,2.6099200649e+000,3.0080030919e+000,2.3780513077e+000,2.0684267595e+000,2.9388859225e+000,4.0592039100e+000,
1.8656250000e+001,2.4096857376e+000,3.5180429572e+000,2.1407478571e+000,3.3673418806e+000,2.8679273345e+000,2.6587388830e+000,7.2971748062e-001,9.6214324843e-001,2.6204828038e+000,3.0405290948e+000,2.4303105539e+000,2.0099217657e+000,2.9648364528e+000,4.0088087446e+000,
1.8750000000e+001,2.5165427399e+000,3.6089668060e+000,2.2641591850e+000,3.3756255050e+000,2.8867642522e+000,2.7798326126e+000,7.4493512580e-001,9.9828031795e-001,2.5884279946e+000,3.0994170897e+000,2.3732110147e+000,1.9291700281e+000,2.9843886569e+000,4.0031503245e+000,
1.8843750000e+001,2.5722682504e+000,3.6732952247e+000,2.3588879805e+000,3.4031782498e+000,2.9974963014e+000,2.8728504601e+000,7.7391578159e-001,1.1398738923e+000,2.4964763469e+000,3.1779016304e+000,2.3229236598e+000,2.0025855100e+000,2.8564715032e+000,3.7348343620e+000,
1.8937500000e+001,2.6756317098e+000,3.7283165083e+000,2.3233740992e+000,3.4549028298e+000,3.0150357406e+000,2.9384687652e+000,7.3239288637e-001,1.1948222233e+000,2.4774560923e+000,3.3286781808e+000,2.1826417704e+000,2.0610849013e+000,2.8445565583e+000,3.7798307858e+000,
1.9031250000e+001,2.6958722809e+000,3.7496321437e+000,2.4437408979e+000,3.5194261499e+000,3.0363735803e+000,2.9667375601e+000,7.5280092823e-001,1.1823765461e+000,2.3837144083e+000,3.3640115025e+000,2.1088562155e+000,1.9880522802e+000,2.7192930591e+000,3.7072532498e+000,
1.9125000000e+001,2.6893685865e+000,3.7641776859e+000,2.4986404100e+000,3.4840477308e+000,3.0473099897e+000,2.9965387307e+000,7.3346555283e-001,1.1543544100e+000,2.4288210820e+000,3.4519715213e+000,2.1958616240e+000,2.0145175062e+000,2.7010944637e+000,3.6517873007e+000,
1.9218750000e+001,2.6469680234e+000,3.7233178137e+000,2.4414093115e+000,3.5188361132e+000,3.0750456301e+000,2.9810713424e+000,7.4739541750e-001,1.2837494048e+000,2.3957462634e+000,3.4582090417e+000,2.2141936161e+000,1.9647117574e+000,2.5806526318e+000,3.5524391382e+000,
1.9312500000e+001,2.6421179756e+000,3.7290406214e+000,2.4784002857e+000,3.5195433746e+000,3.1061664395e+000,3.0018498862e+000,7.9116427916e-001,1.3232849307e+000,2.3065817524e+000,3.4953511237e+000,2.1592428925e+000,2.0663213704e+000,2.4553543139e+000,3.5465953127e+000,
1.9406250000e+001,2.6361833110e+000,3.7366876708e+000,2.5250135516e+000,3.4945510109e+000,3.1143751595e+000,3.0200222016e+000,7.5267639379e-001,1.4176334604e+000,2.3968317819e+000,3.4923017306e+000,2.1620600567e+000,2.2185711158e+000,2.4696756931e+000,3.4966273656e+000,
1.9500000000e+001,2.5221810286e+000,3.6984857702e+000,2.5064537827e+000,3.4498707239e+000,3.1000422079e+000,3.0228375025e+000,8.0347067981e-001,1.4796653470e+000,2.3086203210e+000,3.4144128434e+000,2.2334803649e+000,2.2529844886e+000,2.3974442057e+000,3.2789623432e+000,
1.9593750000e+001,2.3694722663e+000,3.5200086228e+000,2.4752035082e+000,3.3323220502e+000,3.0892743701e+000,2.9644203736e+000,7.4719611043e-001,1.4660783877e+000,2.3832178735e+000,3.2938201512e+000,2.2241696030e+000,2.2846392070e+000,2.4711678200e+000,3.2141522925e+000,
1.9687500000e+001,2.0990853191e+000,3.3926313789e+000,2.4015439104e+000,3.2879119791e+000,3.0143368598e+000,2.8146229850e+000,7.7010144769e-001,1.4860678503e+000,2.3843739559e+000,3.2774180868e+000,2.2054500614e+000,2.3290688187e+000,2.4744603009e+000,3.2470695869e+000,
1.9781250000e+001,2.0339846323e+000,3.2605353323e+000,2.2969851303e+000,3.2647281474e+000,2.9582355671e+000,2.6742529705e+000,8.0579046763e-001,1.5162372358e+000,2.3373506203e+000,3.2444138569e+000,2.2387851791e+000,2.3229242777e+000,2.4931449080e+000,3.2222839906e+000,
1.9875000000e+001,1.8840798594e+000,3.1707071433e+000,2.2384358948e+000,3.1652294087e+000,2.8734299950e+000,2.6043270226e+000,8.0453676630e-001,1.4420026690e+000,2.1878119531e+000,3.0186953664e+000,2.2080134955e+000,2.3385052460e+000,2.5208807542e+000,3.0778247696e+000,
1.9968750000e+001,2.2191524521e+000,3.2574012298e+000,2.4430934050e+000,3.1159069227e+000,2.9396918107e+000,2.5462712252e+000,8.5747349923e-001,1.5144972501e+000,2.1433841991e+000,2.8609595506e+000,2.2053564734e+000,2.2928279928e+000,2.5886338805e+000,2.7940012927e+000,
2.0062500000e+001,2.3985146770e+000,3.3151300679e+000,2.4395242040e+000,3.0599495487e+000,2.9622777956e+000,2.5074613648e+000,8.7208381890e-001,1.5588513773e+000,2.1763935960e+000,2.8404818165e+000,2.0884338369e+000,2.3416007230e+000,2.4424937254e+000,2.8285082983e+000,
2.0156250000e+001,2.3934397514e+000,3.2633043504e+000,2.4249541397e+000,3.0356370381e+000,2.9257896967e+000,2.5123216150e+000,9.2945710703e-001,1.7210689450e+000,2.1916943419e+000,2.7493074317e+000,2.1027508244e+000,2.2933880920e+000,2.5340420338e+000,2.9249698420e+000,
2.0250000000e+001,2.3779730475e+000,3.2578301148e+000,2.4658739541e+000,3.0202942178e+000,2.8289517033e+000,2.4306924248e+000,9.7868820458e-001,1.7230419717e+000,2.2240001332e+000,2.7589966804e+000,2.1828849569e+000,2.2961382214e+000,2.6686994297e+000,3.0030275050e+000,
2.0343750000e+001,2.3969255994e+000,3.2300986714e+000,2.4141169827e+000,3.1071965466e+000,2.7830802253e+000,2.4297471391e+000,1.0528264791e+000,1.6329805287e+000,2.3318319719e+000,2.7271324503e+000,2.2776718005e+000,2.1868387233e+000,2.6701532049e+000,3.1139066335e+000,
2.0437500000e+001,2.4074142958e+000,3.2512460357e+000,2.4278104427e+000,3.1989298942e+000,2.7496521075e+000,2.4917207091e+000,1.1173197462e+000,1.6393906792e+000,2.1502320823e+000,2.9505918040e+000,2.3717152176e+000,1.8906814136e+000,2.8765586810e+000,3.2409558282e+000,
2.0531250000e+001,2.4040593156e+000,3.2775490798e+000,2.4514755033e+000,3.2444279867e+000,2.7280497792e+000,2.5288832094e+000,1.1405875544e+000,1.6497304339e+000,2.1275259950e+000,3.1136445252e+000,2.3428505010e+000,1.8917539978e+000,2.8766031638e+000,3.2500022158e+000,
2.0625000000e+001,2.6315649259e+000,3.4481346824e+000,2.5018899903e+000,3.2811437617e+000,2.7752686099e+000,2.5104747274e+000,1.1425291410e+000,1.6661546922e+000,2.0405902019e+000,3.1075430893e+000,2.3457757873e+000,1.8422636811e+000,2.9540593029e+000,3.3087058340e+000,
2.0718750000e+001,2.8379038267e+000,3.5922184506e+000,2.6964395488e+000,3.2953587407e+000,2.8859104641e+000,2.5194996438e+000,1.2012414784e+000,1.6164557637e+000,2.1341715413e+000,3.0495792010e+000,2.3365009635e+000,1.8769656583e+000,3.0096251421e+000,3.3217880296e+000,
2.0812500000e+001,2.8204908552e+000,3.6275694070e+000,2.7437122610e+000,3.2820378978e+000,2.9250415732e+000,2.5069471747e+000,1.2012215411e+000,1.6347935587e+000,2.1182491542e+000,3.0740645231e+000,2.3986304303e+000,1.9240659394e+000,2.9939583938e+000,3.3043731711e+000,
2.0906250000e+001,2.7725441241e+000,3.6242981372e+000,2.7475790893e+000,3.3251401439e+000,3.0835132211e+000,2.4240439074e+000,1.1752324145e+000,1.5553151274e+000,2.0474430228e+000,3.0800708851e+000,2.3994324322e+000,1.9693031891e+000,2.9723928500e+000,3.3182534718e+000,
2.1000000000e+001,2.5265070594e+000,3.6025479625e+000,2.7039473808e+000,3.4913568244e+000,3.0034069064e+000,2.5787422106e+000,1.2340007887e+000,1.5446700885e+000,2.2243819969e+000,3.2405287717e+000,2.4727743051e+000,1.9541012319e+000,2.9492933101e+000,3.2748192302e+000,
2.1093750000e+001,2.6178479258e+000,3.7178987550e+000,2.6999718567e+000,3.6074946280e+000,3.0478136992e+000,2.6712352976e+000,1.2449394142e+000,1.3731376070e+000,2.1284301240e+000,3.3011292174e+000,2.4511768028e+000,1.9063555076e+000,3.0267006676e+000,3.2418153982e+000,
2.1187500000e+001,2.8903066514e+000,3.9480384138e+000,2.6562559123e+000,3.6502981461e+000,3.1757269983e+000,2.6728869651e+000,1.2322690341e+000,1.2261839267e+000,2.1578554619e+000,3.2652646875e+000,2.3299073368e+000,1.9740940874e+000,2.9520816163e+000,3.1286627546e+000,
2.1281250000e+001,2.9268439599e+000,3.9722208674e+000,2.6797784586e+000,3.6174827126e+000,3.1890590561e+000,2.6443559823e+000,1.2126668529e+000,1.2755659675e+000,2.0710663249e+000,3.2929409498e+000,2.2763030506e+000,1.8945793000e+000,3.0192820123e+000,3.1192072935e+000,
2.1375000000e+001,2.9758253127e+000,4.0029849045e+000,2.7041320704e+000,3.6188908855e+000,3.1684157510e+000,2.6636135594e+000,1.1286037847e+000,1.2751208291e+000,2.0875283965e+000,3.2963928052e+000,2.1578739310e+000,2.0388468442e+000,2.9922986520e+000,3.1032680512e+000,
2.1468750000e+001,3.1599819134e+000,4.2044420244e+000,2.8792970405e+000,3.6818537205e+000,3.2461539918e+000,2.7008343252e+000,1.0936396299e+000,1.2797659705e+000,2.1555763979e+000,3.0711643897e+000,2.0859171820e+000,2.2198861301e+000,2.8768494598e+000,3.0041835868e+000,
2.1562500000e+001,3.1679448941e+000,4.2140288917e+000,2.8704397018e+000,3.6765658819e+000,3.2243416817e+000,2.6441638942e+000,1.0022577170e+000,1.2997740496e+000,2.1275852821e+000,2.9477935928e+000,2.0410114446e+000,2.1569554163e+000,2.8057628853e+000,2.9377156738e+000,
2.1656250000e+001,3.0245092703e+000,4.1433180987e+000,2.7982562961e+000,3.6173500012e+000,3.1534612137e+000,2.7218228233e+000,1.0553675977e+000,1.3311575283e+000,2.2137496688e+000,3.0049783460e+000,2.0126253345e+000,2.2789119883e+000,2.7279042604e+000,2.9180456337e+000,
2.1750000000e+001,2.9835514829e+000,4.1347336513e+000,2.7563483494e+000,3.6250939749e+000,3.2047169290e+000,2.7899054739e+000,1.0358566871e+000,1.4194154263e+000,2.1751982096e+000,3.0482547029e+000,2.1373238664e+000,2.3164615103e+000,2.6182592531e+000,2.8724869632e+000,
2.1843750000e+001,3.0687107353e+000,4.1906385752e+000,2.8134955410e+000,3.7346965504e+000,3.3110296915e+000,2.9141077920e+000,1.0075581310e+000,1.5353446604e+000,2.1874207909e+000,3.1093162473e+000,2.0061516812e+000,2.3431293519e+000,2.6858698072e+000,2.9899050791e+000,
2.1937500000e+001,3.0678225718e+000,4.2249421378e+000,2.7871821455e+000,3.7651425609e+000,3.2275209061e+000,2.9387545410e+000,9.9857711190e-001,1.6159048632e+000,2.2838961550e+000,3.1590044745e+000,2.0215864353e+000,2.3888344963e+000,2.8108942706e+000,3.0113411659e+000,
2.2031250000e+001,3.0373734631e+000,4.2119597974e+000,2.7174941755e+000,3.7072157392e+000,3.1946871308e+000,2.9423150260e+000,1.0464905618e+000,1.7248497804e+000,2.1520832572e+000,3.0031053693e+000,2.0546853132e+000,2.4105101759e+000,2.9177382014e+000,3.0721270322e+000,
2.2125000000e+001,2.9144785090e+000,4.1458037851e+000,2.7105153962e+000,3.6586587917e+000,3.1281378138e+000,2.9197882920e+000,1.0566598293e+000,1.7372865747e+000,2.0832093018e+000,2.9981556074e+000,2.1497272796e+000,2.4617305478e+000,2.9125975119e+000,3.1161529950e+000,
2.2218750000e+001,2.7329576353e+000,3.9675234239e+000,2.6574178935e+000,3.5995435666e+000,3.0635105321e+000,2.9018851324e+000,1.0336607436e+000,1.7640066839e+000,2.0153222534e+000,3.0361757845e+000,2.1023337931e+000,2.4609268257e+000,2.8117023452e+000,3.0104029291e+000,
2.2312500000e+001,2.6657527538e+000,3.9579392359e+000,2.6433303436e+000,3.5890302960e+000,3.1014825917e+000,2.9803853489e+000,9.8333151433e-001,1.7645439648e+000,1.9663350451e+000,3.0521522476e+000,2.0737987904e+000,2.3741527969e+000,2.7515792196e+000,3.0737928910e+000,
2.2406250000e+001,2.4869256672e+000,3.7595999972e+000,2.4149653970e+000,3.4333141488e+000,3.0268677392e+000,2.9308687006e+000,1.0604105717e+000,1.8065131200e+000,1.8495977954e+000,3.0441714906e+000,2.1215057028e+000,2.3506809496e+000,2.7927933466e+000,2.9841058553e+000,
2.2500000000e+001,2.1704236990e+000,3.5034704689e+000,2.3425345844e+000,3.3508386483e+000,2.9932843417e+000,2.8717539595e+000,1.1083562356e+000,1.7510735067e+000,1.9718028422e+000,3.0996712145e+000,2.0822874773e+000,2.3001345629e+000,2.8163175716e+000,3.1541763636e+000,
2.2593750000e+001,2.0770577685e+000,3.3840347625e+000,2.3490709155e+000,3.3412991275e+000,3.0219674179e+000,2.8877277714e+000,1.1948911014e+000,1.7686612060e+000,2.0123410166e+000,3.1114133477e+000,2.1129191267e+000,2.3468305736e+000,2.8196865265e+000,3.1615769665e+000,
2.2687500000e+001,1.9507938645e+000,3.3319242488e+000,2.3673829368e+000,3.3920842560e+000,3.0040166384e+000,2.7980252331e+000,1.0996668277e+000,1.7681969548e+000,2.0040296104e+000,3.0408945162e+000,2.0475663033e+000,2.2968771832e+000,2.7920743653e+000,3.1558922219e+000,
2.2781250000e+001,1.7635795203e+000,3.1923148862e+000,2.2255656457e+000,3.2845945968e+000,2.7653066486e+000,2.6667012121e+000,1.1787422462e+000,1.6541413091e+000,2.0023004433e+000,2.9606347912e+000,2.1001836486e+000,2.2090593758e+000,2.8094835032e+000,3.1334142009e+000,
2.2875000000e+001,1.5459435991e+000,3.1169082208e+000,2.2247457218e+000,3.2100846162e+000,2.7267029074e+000,2.5724336110e+000,1.1967991745e+000,1.5730218292e+000,2.0468953039e+000,3.0044758496e+000,2.0416364295e+000,2.1693480288e+000,2.6764198028e+000,3.0879285305e+000,
2.2968750000e+001,1.6401623688e+000,2.8521796058e+000,2.2875098728e+000,3.0471270134e+000,2.6721073488e+000,2.4665641637e+000,1.2818581865e+000,1.5497075219e+000,1.9177964551e+000,2.9229278662e+000,2.0496289213e+000,2.1013264208e+000,2.6545613586e+000,2.9982340608e+000,
2.3062500000e+001,1.6153002130e+000,2.8309619879e+000,2.3706668090e+000,3.0387358876e+000,2.6967135788e+000,2.4401678863e+000,1.3311644777e+000,1.4150122913e+000,2.0965695165e+000,2.9058114608e+000,1.9051084954e+000,2.0071707598e+000,2.5062373283e+000,2.8976222176e+000,
2.3156250000e+001,1.5700281872e+000,2.8376132019e+000,2.3581839244e+000,3.0273270120e+000,2.6248686094e+000,2.3961939250e+000,1.3362790631e+000,1.3849192741e+000,2.0940612103e+000,2.8820647865e+000,1.8963723689e+000,2.0537119155e+000,2.5611373770e+000,2.9931284173e+000,
2.3250000000e+001,1.6479781955e+000,2.7496946331e+000,2.3432324034e+000,2.9782165852e+000,2.5525051921e+000,2.2361111560e+000,1.3874770312e+000,1.2729153018e+000,2.0791434601e+000,2.7082175473e+000,1.9561776579e+000,2.0958897016e+000,2.6841866926e+000,2.9313622309e+000,
2.3343750000e+001,1.7778741101e+000,2.8485877074e+000,2.4286338357e+000,3.0379346532e+000,2.5044886052e+000,2.1780831610e+000,1.4354060488e+000,1.2421380334e+000,2.0850392410e+000,2.7198429708e+000,1.9472774029e+000,2.1057540841e+000,2.7381357761e+000,2.9554976719e+000,
2.3437500000e+001,1.8349525064e+000,2.9860765057e+000,2.5459232079e+000,3.1648803874e+000,2.5560542497e+000,2.1410949045e+000,1.3739736783e+000,1.1528758708e+000,2.1489719465e+000,2.7823761499e+000,2.0134502694e+000,1.9782015009e+000,2.7150179115e+000,2.8214264159e+000,
2.3531250000e+001,1.8612333833e+000,2.9770936438e+000,2.4568111120e+000,3.1450178433e+000,2.4665977571e+000,2.2159741380e+000,1.3459076992e+000,1.1807336498e+000,2.0129210915e+000,2.8548762514e+000,2.0271933286e+000,2.0598991379e+000,2.6454736735e+000,2.6815825095e+000,
2.3625000000e+001,1.9532639569e+000,3.0658391788e+000,2.4740901389e+000,3.2172362070e+000,2.5585507024e+000,2.2453440379e+000,1.2851854931e+000,1.1910694650e+000,2.1701034302e+000,2.9331882571e+000,2.2247794945e+000,2.0838050700e+000,2.7984314958e+000,2.7776858734e+000,
2.3718750000e+001,2.2087037870e+000,3.1925363244e+000,2.5752945602e+000,3.1647788278e+000,2.6170691602e+000,2.2949458397e+000,1.2871791947e+000,1.1093533090e+000,2.1658455125e+000,2.9712965643e+000,2.2707115044e+000,2.1267066981e+000,2.7886148806e+000,2.8558297426e+000,
2.3812500000e+001,2.4365152272e+000,3.2419161877e+000,2.4708822890e+000,3.0374995515e+000,2.5683611564e+000,2.2852898400e+000,1.2751229375e+000,1.1016694819e+000,2.4012456521e+000,3.0645046589e+000,2.4266040315e+000,2.1040384148e+000,2.8208160889e+000,2.9206528212e+000,
2.3906250000e+001,2.5476075368e+000,3.3867120812e+000,2.5439792941e+000,3.0979741727e+000,2.6793695101e+000,2.2681245302e+000,1.1443146523e+000,1.1096496596e+000,2.5066618309e+000,2.9664267780e+000,2.4287879385e+000,2.0336959286e+000,2.8109423216e+000,2.9599089633e+000,
2.4000000000e+001,2.5637923916e+000,3.3724527262e+000,2.5834261712e+000,3.0600842656e+000,2.7601577782e+000,2.2298407600e+000,9.9758242859e-001,1.3280642473e+000,2.5696365561e+000,2.9674613323e+000,2.5039675647e+000,2.1218818529e+000,2.7314517056e+000,3.0498841782e+000,
2.4093750000e+001,2.6355314875e+000,3.3495700547e+000,2.5121534697e+000,3.1939636012e+000,2.7282680195e+000,2.2648650232e+000,9.1548317442e-001,1.3308569341e+000,2.4765665114e+000,2.9997553089e+000,2.5255335605e+000,2.1110135432e+000,2.7861170701e+000,3.1182947416e+000,
2.4187500000e+001,2.6504593037e+000,3.4302663805e+000,2.5829457480e+000,3.2824406268e+000,2.7284963404e+000,2.2338441369e+000,9.2709857791e-001,1.3359137789e+000,2.4852602516e+000,3.0009638063e+000,2.5239176833e+000,2.1347315136e+000,2.7271300104e+000,3.1361962487e+000,
2.4281250000e+001,2.6388210892e+000,3.5119843842e+000,2.6039531504e+000,3.4169834559e+000,2.7063763381e+000,2.2226423794e+000,8.3038511261e-001,1.5411520614e+000,2.4840046492e+000,3.0424328261e+000,2.4965817773e+000,2.1336592402e+000,2.5353003315e+000,3.1077712467e+000,
2.4375000000e+001,2.5547367932e+000,3.4733355565e+000,2.5126613485e+000,3.3716345996e+000,2.6822514497e+000,2.2951223740e+000,8.2077513531e-001,1.6118679061e+000,2.4629050583e+000,3.0221215090e+000,2.5102312294e+000,2.1842358433e+000,2.5528751079e+000,3.1330513315e+000,
2.4468750000e+001,2.5402027638e+000,3.5219181508e+000,2.5694010206e+000,3.3844259876e+000,2.6993315767e+000,2.4105239731e+000,8.5487273346e-001,1.6194523802e+000,2.4752029058e+000,2.9673694451e+000,2.4815075758e+000,2.2209741723e+000,2.5677551012e+000,3.1692931200e+000,
2.4562500000e+001,2.5281504316e+000,3.5570810611e+000,2.6500406219e+000,3.4158117288e+000,2.6935697551e+000,2.2821850867e+000,8.4072242537e-001,1.6185902794e+000,2.3908371386e+000,2.9437717940e+000,2.5174072025e+000,2.0990591018e+000,2.5935206429e+000,3.2190275105e+000,
2.4656250000e+001,2.4787220966e+000,3.5819452019e+000,2.7583589127e+000,3.4360340755e+000,2.6437941150e+000,2.3097232352e+000,8.0401898039e-001,1.6092271333e+000,2.2536769403e+000,2.9173931383e+000,2.3556996351e+000,2.0684153025e+000,2.4997181856e+000,3.1435694573e+000,
2.4750000000e+001,2.3151176297e+000,3.5605786478e+000,2.7639359045e+000,3.4624723136e+000,2.6288668803e+000,2.2904431051e+000,7.7750940294e-001,1.6033674953e+000,2.2954614366e+000,2.8178708087e+000,2.1508747083e+000,2.1152606041e+000,2.5198084736e+000,3.0690057686e+000,
2.4843750000e+001,2.1000818134e+000,3.4539497836e+000,2.7915707338e+000,3.4440514247e+000,2.6214265986e+000,2.3364180882e+000,7.4840081939e-001,1.6293982913e+000,2.1116560662e+000,2.8679419414e+000,2.0869776060e+000,2.2012699281e+000,2.5127253126e+000,3.1464542319e+000,
2.4937500000e+001,1.9144435682e+000,3.4351376528e+000,2.7564036115e+000,3.4711414643e+000,2.5370148076e+000,2.4202370326e+000,7.3759520428e-001,1.6561900365e+000,2.0281077014e+000,2.9305022743e+000,2.1063181080e+000,2.2567747872e+000,2.5028935089e+000,3.1730534489e+000,
2.5031250000e+001,1.7729726262e+000,3.4518831762e+000,2.6806198348e+000,3.4099449533e+000,2.5001842224e+000,2.4075679191e+000,7.3151169126e-001,1.5169120712e+000,1.8758597810e+000,2.8803460700e+000,1.9446574966e+000,2.1748237500e+000,2.5734577518e+000,3.0894382524e+000,
2.5125000000e+001,1.7643043729e+000,3.4207175458e+000,2.7104346778e+000,3.3244712460e+000,2.5644534618e+000,2.4023856221e+000,7.3690540851e-001,1.5333048478e+000,1.9407218195e+000,2.8133264817e+000,2.0596299252e+000,2.0825089605e+000,2.5775747908e+000,3.0313443620e+000,
2.5218750000e+001,1.6454859404e+000,3.3197556440e+000,2.6215310835e+000,3.1656446919e+000,2.5009712621e+000,2.3649423198e+000,7.2548701278e-001,1.4020519384e+000,1.8639450177e+000,2.7428593507e+000,2.0434444739e+000,2.0730284195e+000,2.5830104951e+000,2.9255089401e+000,
2.5312500000e+001,1.6590595969e+000,3.2747322365e+000,2.5728364915e+000,3.0897578721e+000,2.5683315401e+000,2.4456442546e+000,6.6448548634e-001,1.3318290153e+000,2.0500640013e+000,2.7421883226e+000,1.9703163915e+000,2.0423812621e+000,2.5652753569e+000,2.8280826885e+000,
2.5406250000e+001,1.7062434956e+000,3.1858042189e+000,2.5637261471e+000,3.0350006848e+000,2.6223598732e+000,2.3124216817e+000,5.8700090705e-001,1.3591246091e+000,2.1612033971e+000,2.7902650684e+000,2.0305656304e+000,2.1507193794e+000,2.6774269004e+000,2.8995614166e+000,
2.5500000000e+001,1.7646513299e+000,3.1599508285e+000,2.4771261728e+000,2.9272042009e+000,2.6335786191e+000,2.2792004085e+000,5.4072792529e-001,1.3576018625e+000,2.1399342983e+000,2.7348282332e+000,2.0738090722e+000,2.1615381621e+000,2.7632838449e+000,2.8556167066e+000,
2.5593750000e+001,2.2392006332e+000,3.1775039305e+000,2.3630678024e+000,2.9001788252e+000,2.7743288206e+000,2.3320912642e+000,5.1925762497e-001,1.3506672267e+000,2.2027194635e+000,2.6500842237e+000,2.0596364031e+000,2.1347255620e+000,2.7550118603e+000,2.8293348864e+000,
2.5687500000e+001,2.5016176952e+000,3.3955174949e+000,2.3610341469e+000,2.9107610468e+000,2.7966961608e+000,2.3804187969e+000,5.2046957801e-001,1.3623267512e+000,2.3288089178e+000,2.5463488688e+000,2.0670557194e+000,2.0781204214e+000,2.6205293382e+000,2.6841997852e+000,
2.5781250000e+001,2.4797519333e+000,3.3147295115e+000,2.1257739763e+000,2.7804933946e+000,2.7277566814e+000,2.3058643457e+000,5.1932890261e-001,1.3976999956e+000,2.1751983377e+000,2.4274077231e+000,2.0218108000e+000,2.0567311567e+000,2.6556830742e+000,2.5938058051e+000,
2.5875000000e+001,2.6652477799e+000,3.4004757478e+000,2.1671728015e+000,2.7235795471e+000,2.7147871140e+000,2.3758943218e+000,5.6723209032e-001,1.3815309861e+000,2.1895740140e+000,2.3508993324e+000,1.9923147744e+000,1.9220707964e+000,2.7639753236e+000,2.7506430125e+000,
2.5968750000e+001,2.7561114164e+000,3.4471731425e+000,2.1609170771e+000,2.6777401094e+000,2.6832537350e+000,2.4221569229e+000,5.6256822680e-001,1.2636857358e+000,2.2587351855e+000,2.2965002200e+000,2.0133778267e+000,1.8727664985e+000,2.8327129048e+000,2.8114563251e+000,
2.6062500000e+001,2.7685683636e+000,3.4590617946e+000,2.1470657217e+000,2.6646189149e+000,2.6617656930e+000,2.4486883943e+000,6.4369859423e-001,1.2240089411e+000,2.2184617267e+000,2.4516273054e+000,1.9815275044e+000,1.9138409844e+000,2.8542898054e+000,2.8654363319e+000,
2.6156250000e+001,2.8144891235e+000,3.4621745341e+000,2.1090144619e+000,2.7405158050e+000,2.6740241319e+000,2.4605091614e+000,6.5321825915e-001,1.1840435146e+000,2.3242811116e+000,2.9037236109e+000,1.9984340906e+000,1.9835598489e+000,2.8428380924e+000,3.0392858983e+000,
2.6250000000e+001,2.8356240011e+000,3.4707316188e+000,2.1279759090e+000,2.7394389480e+000,2.6868282409e+000,2.3637357423e+000,6.9127416843e-001,1.1050004485e+000,2.3895922937e+000,3.1196912493e+000,1.9737304240e+000,2.0817001756e+000,2.9375740447e+000,3.4630608279e+000,
2.6343750000e+001,2.8414053498e+000,3.4830897821e+000,2.0443345635e+000,2.7643573635e+000,2.5857261318e+000,2.3164555561e+000,7.2259330556e-001,1.0013299868e+000,2.2528753360e+000,3.1516459782e+000,1.9683533904e+000,2.1211683592e+000,3.1072363027e+000,3.5696960739e+000,
2.6437500000e+001,2.8388501639e+000,3.5116386871e+000,2.0887638066e+000,2.8608165934e+000,2.5636958609e+000,2.3468185993e+000,8.5742200588e-001,8.9535817155e-001,2.3870576605e+000,3.1347782159e+000,1.8829100506e+000,2.0501527663e+000,3.0099471890e+000,3.4981389466e+000,
2.6531250000e+001,2.8213416576e+000,3.5428173670e+000,2.0886249790e+000,2.8408860277e+000,2.5333484616e+000,2.3575383781e+000,8.8163436573e-001,9.0971486398e-001,2.4008310746e+000,3.1378494227e+000,1.8335009370e+000,2.0160328237e+000,2.9282539544e+000,3.4883920429e+000,
2.6625000000e+001,2.5645023828e+000,3.4481752435e+000,2.0269359791e+000,2.8437050181e+000,2.3838093193e+000,2.4764703487e+000,9.0703651358e-001,8.8116789684e-001,2.3605360047e+000,3.2293000004e+000,1.7851427493e+000,2.0375829743e+000,2.9603967421e+000,3.5656659510e+000,
2.6718750000e+001,2.4619497461e+000,3.4043118002e+000,2.0266925789e+000,2.8688840699e+000,2.4160774061e+000,2.5337864571e+000,9.1517096233e-001,8.7131456399e-001,2.3093527546e+000,3.3259450001e+000,1.7749559017e+000,2.0675720104e+000,2.9426353606e+000,3.5792661050e+000,
2.6812500000e+001,2.4752974088e+000,3.4349809287e+000,2.0658569207e+000,2.9858383176e+000,2.6401865246e+000,2.5909294559e+000,8.7644658076e-001,8.5732857017e-001,2.3315396494e+000,3.3997071420e+000,1.9389911904e+000,2.1580693161e+000,2.9190203873e+000,3.6063891162e+000,
2.6906250000e+001,2.1675017379e+000,3.2280560346e+000,2.0364096226e+000,3.0303056738e+000,2.7041768192e+000,2.5627213050e+000,8.9684872971e-001,8.6132708158e-001,2.3531735353e+000,3.4299579610e+000,1.9237561098e+000,2.3456644088e+000,2.8603064900e+000,3.5541989248e+000,
2.7000000000e+001,2.1140252592e+000,3.2113884354e+000,2.0535343106e+000,3.0124677123e+000,2.6922163902e+000,2.4915926218e+000,8.9238142399e-001,8.5204088653e-001,2.3023624627e+000,3.4028258579e+000,2.0294852407e+000,2.3178486177e+000,2.7494903636e+000,3.4938277254e+000,
2.7093750000e+001,2.0897083788e+000,3.2741243968e+000,2.2135710670e+000,3.1167474067e+000,2.7170794576e+000,2.4772902747e+000,8.4725668300e-001,9.7225256344e-001,2.2715020475e+000,3.4001184082e+000,2.0693023142e+000,2.3251897034e+000,2.6848384970e+000,3.4280054726e+000,
2.7187500000e+001,2.2235162703e+000,3.3989593126e+000,2.3678717284e+000,3.0938884976e+000,2.7423074070e+000,2.5157314746e+000,8.7164723040e-001,1.1118076784e+000,2.2228959684e+000,3.1133996477e+000,2.0205598309e+000,2.2721373101e+000,2.6312950175e+000,3.3294701043e+000,
2.7281250000e+001,2.3391820403e+000,3.5157889611e+000,2.4652539899e+000,3.1112123105e+000,2.7573314670e+000,2.5347161022e+000,8.7576929811e-001,1.1845753262e+000,2.1848169091e+000,2.9824199306e+000,2.0721121945e+000,2.1641941041e+000,2.2568681668e+000,2.6981735117e+000,
2.7375000000e+001,2.4115533228e+000,3.6141177863e+000,2.6147084260e+000,3.1496409669e+000,2.8225521315e+000,2.5584536661e+000,8.6987533688e-001,1.2216151106e+000,2.0127016549e+000,3.0090678267e+000,2.0558400363e+000,2.0894703684e+000,2.1499830552e+000,2.7984473343e+000,
2.7468750000e+001,2.5497119113e+000,3.7011328778e+000,2.6571587911e+000,3.0969213861e+000,2.9183911129e+000,2.5745542169e+000,8.2120691658e-001,1.1757967318e+000,1.9292646635e+000,3.0299496722e+000,2.0894656637e+000,2.0734089016e+000,2.3402865096e+000,3.0848436842e+000,
2.7562500000e+001,2.5859667962e+000,3.6882662477e+000,2.6687777199e+000,3.0627988733e+000,2.9146103126e+000,2.4823417169e+000,7.9418118391e-001,1.1596269281e+000,1.8609537730e+000,2.9359368303e+000,2.0610113556e+000,1.9732995036e+000,2.3509306468e+000,3.0471709247e+000,
2.7656250000e+001,2.6085784459e+000,3.6287296566e+000,2.5962513881e+000,3.0688065074e+000,2.9240869837e+000,2.3634751663e+000,8.3465532671e-001,1.1618564678e+000,1.8949024131e+000,2.8186983565e+000,2.0714835340e+000,1.8613867416e+000,2.3019955733e+000,3.0602467953e+000,
2.7750000000e+001,2.6913580891e+000,3.6246942789e+000,2.7423614888e+000,3.1002051727e+000,2.8966599236e+000,2.2997567905e+000,8.5262090510e-001,1.1594497702e+000,1.9160075254e+000,2.8217464644e+000,2.1245913039e+000,1.7341474017e+000,2.2847961259e+000,3.2261873480e+000,
2.7843750000e+001,2.7122361096e+000,3.6241765447e+000,2.7354459799e+000,3.1057320943e+000,2.8251058774e+000,2.2953477114e+000,8.5926081357e-001,1.1168227048e+000,2.0518668660e+000,2.7952887397e+000,2.0748226021e+000,1.4040277163e+000,2.4241702123e+000,3.1613410725e+000,
2.7937500000e+001,2.7097308473e+000,3.6452176080e+000,2.7365514679e+000,3.1261672337e+000,2.7807212994e+000,2.3651152816e+000,8.2526279167e-001,1.1426502557e+000,2.0423094537e+000,2.8089003713e+000,2.1824056887e+000,1.1827578096e+000,2.6333920455e+000,3.2027871197e+000,
2.8031250000e+001,2.6941271036e+000,3.6313198173e+000,2.7429460183e+000,3.1080403989e+000,2.7381309976e+000,2.4626065411e+000,8.6061762480e-001,1.1258906053e+000,2.1737563297e+000,2.9006139822e+000,2.1780273275e+000,1.2739089902e+000,2.7930283539e+000,3.2887864841e+000,
2.8125000000e+001,2.7311503221e+000,3.6532008752e+000,2.7034406206e+000,3.0583331122e+000,2.7229255855e+000,2.5413808684e+000,8.7070960493e-001,1.1743460451e+000,2.3324416030e+000,3.0068510357e+000,2.1562836676e+000,1.1735275992e+000,2.8679501476e+000,3.2944124399e+000,
2.8218750000e+001,2.5733886648e+000,3.5790588699e+000,2.5888759701e+000,3.0366533708e+000,2.6338328834e+000,2.5622026808e+000,9.0127050193e-001,1.1573288801e+000,2.3430746469e+000,2.9987416421e+000,2.0852100844e+000,1.3022713017e+000,2.9709103406e+000,3.3526101546e+000,
2.8312500000e+001,2.4433802010e+000,3.4592141060e+000,2.5628472989e+000,3.0545692674e+000,2.5701771206e+000,2.5958142528e+000,9.3028446247e-001,1.1706402077e+000,2.3576064259e+000,3.0221316154e+000,2.0775595041e+000,1.2835913972e+000,2.9571673476e+000,3.3911109587e+000,
2.8406250000e+001,2.3568089981e+000,3.2776916590e+000,2.4233458886e+000,2.9756942999e+000,2.4067807909e+000,2.5760735799e+000,8.7075381762e-001,1.2236377242e+000,2.3522648815e+000,2.9503863637e+000,2.0882864770e+000,1.1964622888e+000,2.9583102647e+000,3.3875116238e+000,
2.8500000000e+001,2.2187902368e+000,3.0629791745e+000,2.3772933850e+000,2.9509958860e+000,2.3592023455e+000,2.6197571681e+000,9.3470901521e-001,1.2879815589e+000,2.3307519146e+000,2.9677919885e+000,2.0600955847e+000,1.1420217013e+000,2.9424022020e+000,3.2556818802e+000,
2.8593750000e+001,2.0783493359e+000,2.9743418964e+000,2.5260782504e+000,2.9583693167e+000,2.4136370833e+000,2.7108782871e+000,9.0558198724e-001,1.4106778547e+000,2.2807507063e+000,2.9956169245e+000,2.2748381762e+000,1.1256226791e+000,2.9993906929e+000,3.2551979942e+000,
2.8687500000e+001,2.1065604726e+000,3.0494784866e+000,2.6050309524e+000,2.9917925754e+000,2.5595105375e+000,2.7551928279e+000,9.8820193211e-001,1.5235170411e+000,2.2872923262e+000,3.0150568270e+000,2.2809916221e+000,1.2801961360e+000,3.0135998790e+000,3.0840773368e+000,
2.8781250000e+001,2.2283714768e+000,3.0390273649e+000,2.5695285678e+000,2.9362261512e+000,2.6221318181e+000,2.7176477830e+000,9.9899035326e-001,1.6039099361e+000,2.3477131695e+000,2.9916286521e+000,2.2526497571e+000,1.3677897506e+000,2.9651947551e+000,3.0442483535e+000,
2.8875000000e+001,2.6342199087e+000,3.8608842007e+000,2.7005409221e+000,3.3400902872e+000,2.7421022582e+000,2.8537595904e+000,1.0440423121e+000,1.7131083081e+000,2.2719927251e+000,3.1082345308e+000,2.2485403136e+000,1.3682582569e+000,2.8379346870e+000,3.2298306768e+000,
2.8968750000e+001,2.7195722799e+000,3.9208630153e+000,2.6827734169e+000,3.3442038792e+000,2.8109993176e+000,2.7928261476e+000,1.1021452651e+000,1.7848606076e+000,2.1905043626e+000,3.1303907087e+000,2.1961693692e+000,1.3197741516e+000,2.6856595271e+000,3.2539738128e+000,
2.9062500000e+001,2.7327434219e+000,3.8909930039e+000,2.6613196987e+000,3.3139696595e+000,2.8187047830e+000,2.7401492536e+000,1.0760321989e+000,1.7788166785e+000,2.1077839962e+000,3.0084167445e+000,2.1506037713e+000,1.2029522984e+000,2.6184947893e+000,3.2106060156e+000,
2.9156250000e+001,2.8615555235e+000,3.9663056667e+000,2.7391426328e+000,3.4057030097e+000,2.8805659736e+000,2.6948962575e+000,1.1742370472e+000,1.7926518021e+000,1.8248323592e+000,2.9210849759e+000,2.1562397016e+000,1.1399514524e+000,2.4444634575e+000,3.2574593572e+000,
2.9250000000e+001,2.9299591478e+000,3.9898570362e+000,2.8687165557e+000,3.4303249103e+000,2.9577231875e+000,2.7059569011e+000,1.1572581029e+000,1.7625131050e+000,2.0173488181e+000,2.9644292553e+000,2.2514940789e+000,9.4653493977e-001,2.5582407792e+000,3.3113272853e+000,
2.9343750000e+001,2.9728111483e+000,4.0091064361e+000,2.8574756864e+000,3.5254408552e+000,3.0279563822e+000,2.7769862970e+000,1.1421092682e+000,1.7249465854e+000,2.0896461181e+000,3.0492815466e+000,2.3481246789e+000,1.0363642877e+000,2.5678445485e+000,3.3216236029e+000,
2.9437500000e+001,2.9994305893e+000,4.0506239319e+000,2.9119620789e+000,3.5565429487e+000,3.0967436875e+000,2.7738376506e+000,1.2116222043e+000,1.7301694602e+000,2.1769149428e+000,3.1174398422e+000,2.3430239423e+000,1.3164635035e+000,2.5777332401e+000,3.2719922924e+000,
2.9531250000e+001,2.9672604232e+000,4.0895483461e+000,2.8550574865e+000,3.6053057026e+000,3.1032611737e+000,2.7419017876e+000,1.2209301395e+000,1.6164380195e+000,2.3842486721e+000,3.1265246852e+000,2.4730913752e+000,1.4460195746e+000,2.6641183355e+000,3.4228599216e+000,
2.9625000000e+001,2.9744686305e+000,4.1051549718e+000,2.8186379524e+000,3.5970372015e+000,3.1291841558e+000,2.7363256007e+000,1.1829043133e+000,1.5347371417e+000,2.4289566499e+000,3.1000337018e+000,2.5809844484e+000,1.4887045560e+000,2.7806103265e+000,3.4046841720e+000,
2.9718750000e+001,2.9826443409e+000,4.1330263986e+000,2.7363614090e+000,3.6011954387e+000,3.0460713013e+000,2.7738869552e+000,1.2066518087e+000,1.4813036788e+000,2.3542407018e+000,3.0182159376e+000,2.6482212569e+000,1.4190197562e+000,2.9180173764e+000,3.4525503654e+000,
2.9812500000e+001,2.7474602379e+000,3.9321865350e+000,2.6368299218e+000,3.4877470528e+000,2.9017128037e+000,2.7170865715e+000,1.3284160302e+000,1.3169563006e+000,2.2053108384e+000,2.9303434090e+000,2.6910793160e+000,1.4306629901e+000,2.8966201817e+000,3.3635161745e+000,
2.9906250000e+001,2.4789871670e+000,3.6119544376e+000,2.5020271486e+000,3.3167217333e+000,2.8169732398e+000,2.7129252494e+000,1.3591685954e+000,1.1654229050e+000,2.2058419987e+000,3.0581824231e+000,2.7054665139e+000,1.4002977871e+000,2.8932837518e+000,3.3657583548e+000,
3.0000000000e+001,2.4075700025e+000,3.5065589852e+000,2.4738359475e+000,3.3669918921e+000,2.7730373284e+000,2.7731573481e+000,1.4377334271e+000,1.0943965459e+000,2.1771736935e+000,3.0425041136e+000,2.6527086979e+000,1.5365101097e+000,2.8997760394e+000,3.2903664644e+000,
3.0093750000e+001,2.2567632938e+000,3.5187348942e+000,2.3633436092e+000,3.3909130278e+000,2.8081056221e+000,2.8773148159e+000,1.4338490740e+000,9.3754046075e-001,2.1637958083e+000,3.1141077568e+000,2.6682841826e+000,1.6628800545e+000,2.9013965593e+000,3.3173686140e+000,
3.0187500000e+001,2.0747824760e+000,3.3992778539e+000,2.2906625167e+000,3.3330487982e+000,2.7804986417e+000,2.8448762526e+000,1.4311621389e+000,8.5958240176e-001,2.0240184039e+000,3.1201612078e+000,2.6381731829e+000,1.7044625817e+000,2.8692771518e+000,3.2990323962e+000,
3.0281250000e+001,1.9388076188e+000,3.3050542645e+000,2.1389135123e+000,3.2216121515e+000,2.6543514122e+000,2.7726761701e+000,1.4848572360e+000,9.7867152491e-001,1.8494454555e+000,3.0034804560e+000,2.5521711913e+000,1.7218560609e+000,2.8670676849e+000,3.2803466230e+000,
3.0375000000e+001,1.9091074575e+000,3.3272547360e+000,2.1051697862e+000,3.1992390523e+000,2.5629164743e+000,2.7152958890e+000,1.5108605290e+000,9.7985563752e-001,1.8010232146e+000,3.0304326626e+000,2.5573299444e+000,1.6758355994e+000,2.8915159556e+000,3.3665243039e+000,
3.0468750000e+001,1.8291164597e+000,3.2312265572e+000,1.9647314241e+000,3.0923786777e+000,2.4997177518e+000,2.6996072501e+000,1.4656233901e+000,9.9367279589e-001,1.6812955047e+000,2.8681425118e+000,2.5588411916e+000,1.6104025855e+000,2.8213396538e+000,3.1774066502e+000,
3.0562500000e+001,1.8041469709e+000,3.2101119896e+000,1.8871088522e+000,3.0664932962e+000,2.5783336334e+000,2.7051439496e+000,1.4361906714e+000,1.1083444485e+000,1.4098319807e+000,2.9507873428e+000,2.4623839592e+000,1.7113419245e+000,2.6251097031e+000,3.1428847548e+000,
3.0656250000e+001,1.6735520291e+000,3.0598452083e+000,1.6829447414e+000,2.9552938878e+000,2.5110005188e+000,2.7123647584e+000,1.4443293336e+000,1.1374368608e+000,1.5490736955e+000,2.9813293883e+000,2.1629681492e+000,1.6856353721e+000,2.4566717075e+000,3.0847519403e+000,
3.0750000000e+001,1.6443832320e+000,3.0495723023e+000,1.7205410648e+000,3.0040257383e+000,2.5585923413e+000,2.7601686352e+000,1.3744460009e+000,1.1768302065e+000,1.5942238781e+000,3.0216016957e+000,2.1085190539e+000,1.6896678995e+000,2.3006317551e+000,3.1273097257e+000,
3.0843750000e+001,1.9363716756e+000,3.0841801894e+000,1.8391808504e+000,2.9710316332e+000,2.7497214100e+000,2.7550378175e+000,1.4552466530e+000,1.1573675656e+000,1.6850312033e+000,2.9456692663e+000,2.0158146496e+000,1.6364684720e+000,2.3058339101e+000,3.0650732454e+000,
3.0937500000e+001,1.9109969367e+000,2.9764040311e+000,1.8291602918e+000,2.8672173832e+000,2.7737519827e+000,2.6346050645e+000,1.4266167128e+000,1.1392600559e+000,1.8882570395e+000,2.7667958246e+000,2.0876800109e+000,1.5492361307e+000,2.3105062496e+000,3.0407538186e+000,
3.1031250000e+001,1.9370263606e+000,2.9063998392e+000,1.8791323901e+000,2.8165170215e+000,2.7548486953e+000,2.4900612854e+000,1.5299320147e+000,1.1012942322e+000,2.0898424460e+000,2.6983878180e+000,2.2069795527e+000,1.4650187310e+000,2.3247440024e+000,3.0620348068e+000,
3.1125000000e+001,2.0295804278e+000,2.9459246601e+000,1.8466887173e+000,2.9138101219e+000,2.7931557310e+000,2.5091119269e+000,1.5092899474e+000,1.1123792534e+000,2.2136041411e+000,2.6819411301e+000,2.2045601739e+000,1.5213229384e+000,2.3059897546e+000,3.1047820267e+000,
3.1218750000e+001,2.4260358429e+000,3.1499521263e+000,2.0492792331e+000,2.9449685749e+000,2.8230680285e+000,2.5764643575e+000,1.5384873154e+000,1.1329848341e+000,2.2922779133e+000,2.7396230710e+000,2.1850270346e+000,1.5825815468e+000,2.3421079419e+000,3.0920335928e+000,
3.1312500000e+001,2.6247885876e+000,3.4897430677e+000,2.1156652188e+000,3.1237801145e+000,2.9209298511e+000,2.6655671786e+000,1.4998739534e+000,1.0590626242e+000,2.4418572783e+000,3.0177578549e+000,2.3579690360e+000,1.6518464641e+000,2.2684790684e+000,3.1854719064e+000,
3.1406250000e+001,2.6566807925e+000,3.4909804440e+000,2.2366201544e+000,3.1124293644e+000,2.9993873259e+000,2.6407938034e+000,1.4477309914e+000,1.0559378842e+000,2.4726748770e+000,3.0093003092e+000,2.4900880554e+000,1.6159989757e+000,2.3320048588e+000,3.2387593177e+000,
3.1500000000e+001,2.9276946347e+000,3.6796678862e+000,2.4237763333e+000,3.2800359624e+000,3.1172825528e+000,2.7729516296e+000,1.4343142294e+000,1.0381325258e+000,2.5118858017e+000,3.1395068485e+000,2.4579469579e+000,1.4402896419e+000,2.4141254858e+000,3.3049570305e+000,
3.1593750000e+001,3.0321187031e+000,3.7826413594e+000,2.4378166713e+000,3.3427531066e+000,3.1109435005e+000,2.7046878986e+000,1.4810293859e+000,9.7169517248e-001,2.4570496586e+000,3.0554641005e+000,2.4536415293e+000,1.4347732093e+000,2.3895533596e+000,3.3143310713e+000,
3.1687500000e+001,3.0504090036e+000,3.7985201857e+000,2.4931610779e+000,3.3894744502e+000,3.1040677038e+000,2.6882327242e+000,1.5582392805e+000,9.3040622825e-001,2.4135549603e+000,3.1076931077e+000,2.4826225633e+000,1.4242767384e+000,2.4583374941e+000,3.4663491956e+000,
3.1781250000e+001,3.0342804916e+000,3.7647250523e+000,2.4786496173e+000,3.3705029308e+000,3.1013744334e+000,2.7147970910e+000,1.6061866346e+000,8.6223855313e-001,2.4105654322e+000,3.1021297452e+000,2.4888614255e+000,1.4692437144e+000,2.4474875821e+000,3.4691886364e+000,
3.1875000000e+001,2.9625102520e+000,3.7382431687e+000,2.4526910958e+000,3.3799752697e+000,3.0118952642e+000,2.7570906561e+000,1.5204443136e+000,9.5811324985e-001,2.4164295431e+000,3.1103104596e+000,2.5020496970e+000,1.4695463808e+000,2.5534104398e+000,3.5131113581e+000,
3.1968750000e+001,2.9806162052e+000,3.7658403927e+000,2.4648393141e+000,3.4163182471e+000,2.9936946928e+000,2.7547793409e+000,1.3484406543e+000,9.0423249338e-001,2.4086733425e+000,3.1408587027e+000,2.4211409763e+000,1.6123357023e+000,2.6117607008e+000,3.4927106904e+000,
3.2062500000e+001,2.9861935385e+000,3.7748089161e+000,2.4574210389e+000,3.4384933109e+000,2.9534435655e+000,2.8709831745e+000,1.3644193758e+000,9.4194159954e-001,2.4624742396e+000,3.2094013360e+000,2.3804499319e+000,1.5885069543e+000,2.6454896905e+000,3.5166899749e+000,
3.2156250000e+001,2.9699152678e+000,3.7915796072e+000,2.4483958942e+000,3.4071623948e+000,2.9481462561e+000,2.8941136786e+000,1.4330731848e+000,9.4605757177e-001,2.3976728566e+000,3.2133072200e+000,2.3905335737e+000,1.5436531168e+000,2.7264039593e+000,3.4889333623e+000,
3.2250000000e+001,2.6718504258e+000,3.6114559220e+000,2.2521423542e+000,3.3157346857e+000,2.8608092064e+000,2.8280422375e+000,1.4060800157e+000,1.0338360569e+000,2.4165177448e+000,3.1466065328e+000,2.3630702701e+000,1.3032475716e+000,2.8032358152e+000,3.5055580225e+000,
3.2343750000e+001,2.5723660712e+000,3.4191961408e+000,2.0851975586e+000,3.2290211347e+000,2.8033174742e+000,2.8691506567e+000,1.4235805604e+000,1.1408020209e+000,2.2659671821e+000,3.1012287433e+000,2.1240939996e+000,1.2379448310e+000,2.8012842760e+000,3.4577636381e+000,
3.2437500000e+001,2.5569014658e+000,3.4206140431e+000,1.9368135973e+000,3.2929918514e+000,2.9185618605e+000,2.8985220670e+000,1.4702675659e+000,1.2412810090e+000,2.3704497325e+000,3.2558067468e+000,2.0960330006e+000,1.2307784803e+000,2.9706432934e+000,3.5381823376e+000,
3.2531250000e+001,2.1264414721e+000,3.2810559539e+000,1.6979042570e+000,3.2226531022e+000,2.7795857763e+000,2.9766357026e+000,1.4699964935e+000,1.2880399388e+000,2.4000059068e+000,3.2889071596e+000,2.1167534510e+000,1.1976121601e+000,2.9725581931e+000,3.4966673581e+000,
3.2625000000e+001,2.2200773255e+000,3.4189926071e+000,2.0056743939e+000,3.2128582139e+000,2.7893933457e+000,3.0197632051e+000,1.3089736048e+000,1.2996458996e+000,2.4382666381e+000,3.3729411983e+000,2.1398819726e+000,1.0220424401e+000,2.9657167491e+000,3.4637680869e+000,
3.2718750000e+001,2.2316135134e+000,3.4468562513e+000,2.0267664326e+000,3.2436658334e+000,2.7908667743e+000,2.9666290999e+000,1.2921903985e+000,1.3207378469e+000,2.4275355089e+000,3.4373791619e+000,2.0779239504e+000,8.3809582357e-001,2.9482248799e+000,3.4362631147e+000,
3.2812500000e+001,2.2992638327e+000,3.5902967083e+000,2.2466434494e+000,3.3649612215e+000,2.8385579713e+000,2.9486674612e+000,1.2600867858e+000,1.5509344884e+000,2.3154445285e+000,3.5555732336e+000,1.9700665115e+000,8.1387166020e-001,3.0569282138e+000,3.3578745244e+000,
3.2906250000e+001,2.3241947301e+000,3.5983805056e+000,2.3803881541e+000,3.3294190284e+000,2.9218528382e+000,2.9499802890e+000,1.2860861261e+000,1.6595791777e+000,2.3166331227e+000,3.5739673000e+000,2.0627098445e+000,7.9265513346e-001,3.0706436489e+000,3.3421274013e+000,
3.3000000000e+001,2.3240125705e+000,3.5618291109e+000,2.3530401843e+000,3.3286728069e+000,2.8967546144e+000,2.8704551313e+000,1.2022568079e+000,1.7779085720e+000,2.3006207254e+000,3.5991110009e+000,2.1911438193e+000,7.7229062514e-001,3.0587476324e+000,3.3957680367e+000,
3.3093750000e+001,2.2948181822e+000,3.5123289594e+000,2.3966894044e+000,3.2695608663e+000,2.9073198910e+000,2.8179369866e+000,1.2008803541e+000,1.8338322225e+000,2.0872696636e+000,3.6145500329e+000,2.2739619928e+000,6.2792989530e-001,3.0467559415e+000,3.4090503807e+000,
3.3187500000e+001,2.2188928189e+000,3.4741436502e+000,2.4494561008e+000,3.2213755256e+000,2.9444238757e+000,2.6958676391e+000,1.0750807632e+000,1.8340906476e+000,1.9592133652e+000,3.5895512245e+000,2.2002283690e+000,8.0648476666e-001,3.0119441048e+000,3.3168696946e+000,
3.3281250000e+001,2.2716382790e+000,3.5280124297e+000,2.6660316183e+000,3.2809633467e+000,3.0403153653e+000,2.6617309398e+000,9.8485672646e-001,1.8464419593e+000,1.9845574163e+000,3.5476602178e+000,2.2067792513e+000,9.8840288614e-001,2.9394284720e+000,3.1826950636e+000,
3.3375000000e+001,2.2346050987e+000,3.5271677938e+000,2.7047480757e+000,3.2175145102e+000,2.9241419130e+000,2.5663067835e+000,9.5168618446e-001,1.8564215886e+000,1.8518222639e+000,3.4140942723e+000,2.2228271240e+000,1.2538032017e+000,2.9077044891e+000,3.0314850284e+000,
3.3468750000e+001,2.2613134655e+000,3.3872226773e+000,2.7427990187e+000,3.0762705097e+000,2.8101144988e+000,2.5214334991e+000,9.0543693204e-001,1.7591135879e+000,1.8199155775e+000,3.3273048092e+000,2.2260461921e+000,1.3807407201e+000,2.7917439139e+000,2.9226830386e+000,
3.3562500000e+001,2.3192195469e+000,3.3289469143e+000,2.7990346521e+000,3.0558443418e+000,2.8484099855e+000,2.4007536141e+000,9.1868057034e-001,1.7562751143e+000,1.8491678213e+000,3.2189555945e+000,2.2549635199e+000,1.4154193926e+000,2.8219866053e+000,2.9282062202e+000,
3.3656250000e+001,2.2110351640e+000,3.2118280742e+000,2.7234518434e+000,3.0571038533e+000,2.8265661548e+000,2.3718182342e+000,9.0740484409e-001,1.7753491804e+000,1.8794956714e+000,3.1972561458e+000,2.2702019381e+000,1.4416663687e+000,2.8015442679e+000,2.9399175619e+000,
3.3750000000e+001,2.1749708137e+000,3.1259845782e+000,2.5988532164e+000,2.8340528415e+000,2.7649512637e+000,2.4128043806e+000,8.7034864426e-001,1.7827637433e+000,1.8837315777e+000,3.0568149877e+000,2.3793645888e+000,1.7027290783e+000,2.7364083294e+000,2.8489085035e+000,
3.3843750000e+001,2.0405794208e+000,2.9689082188e+000,2.3881845070e+000,2.8075720763e+000,2.5319360764e+000,2.3784850557e+000,7.6964527989e-001,1.6250361587e+000,1.8648040524e+000,2.8531649087e+000,2.3264885078e+000,1.7643745340e+000,2.5431367614e+000,2.8636899360e+000,
3.3937500000e+001,2.0589149430e+000,2.9827643896e+000,2.4059677452e+000,2.8590967718e+000,2.6761410880e+000,2.3997453808e+000,7.5065697785e-001,1.4848431737e+000,1.9995810001e+000,2.8100018384e+000,2.2256797935e+000,1.6449088450e+000,2.4962775327e+000,2.8567569588e+000,
3.4031250000e+001,2.0494164759e+000,3.0508924097e+000,2.4903478062e+000,2.8248173856e+000,2.6565556098e+000,2.4380077303e+000,6.7486584650e-001,1.4084116065e+000,2.2902591046e+000,2.7115555147e+000,2.1937582002e+000,1.6582896349e+000,2.7370184530e+000,2.7987216728e+000,
3.4125000000e+001,2.0818917901e+000,3.0468206221e+000,2.5315938189e+000,2.8161324577e+000,2.6281810845e+000,2.3933118210e+000,6.7744500674e-001,1.2968996467e+000,2.3730673619e+000,2.7245438868e+000,2.2142496901e+000,1.5979680118e+000,2.7705594432e+000,2.7953590522e+000,
3.4218750000e+001,2.0642381513e+000,2.9836367980e+000,2.4397213177e+000,2.7423967303e+000,2.5765720071e+000,2.4784340912e+000,7.2535412383e-001,1.1788633493e+000,2.3869967164e+000,2.8718888097e+000,2.2275155078e+000,1.6665959666e+000,2.6981446670e+000,2.8659334460e+000,
3.4312500000e+001,2.1743216309e+000,3.2774024025e+000,2.4409201190e+000,2.9874535258e+000,2.6094497520e+000,2.6304103521e+000,7.5368794967e-001,1.0755625505e+000,2.3973488840e+000,3.0574345424e+000,2.3413227833e+000,1.6072771193e+000,2.7357015505e+000,2.9120597929e+000,
3.4406250000e+001,2.2017705284e+000,3.3410939586e+000,2.3937880739e+000,3.0187170855e+000,2.6453957416e+000,2.6339178305e+000,7.3412055044e-001,1.0243817531e+000,2.4670298357e+000,3.2672667987e+000,2.3208379865e+000,1.5062302463e+000,2.6685017444e+000,3.0175658874e+000,
3.4500000000e+001,2.0817397316e+000,3.2662982049e+000,2.2977629418e+000,2.9270327620e+000,2.5876959414e+000,2.6230620638e+000,7.2082717014e-001,1.0315404720e+000,2.4232511109e+000,3.3830814965e+000,2.2673282419e+000,1.4974534227e+000,2.5238947825e+000,3.0345214073e+000,
3.4593750000e+001,2.0098597662e+000,3.2619118367e+000,2.1229496066e+000,2.9382761715e+000,2.5198974656e+000,2.6274203981e+000,7.4355555787e-001,1.0470149987e+000,2.4619772308e+000,3.4487007897e+000,2.2555299520e+000,1.6672423151e+000,2.5464320483e+000,3.1799810715e+000,
3.4687500000e+001,2.0047844301e+000,3.2898112711e+000,2.0447466163e+000,2.9168254022e+000,2.5830402408e+000,2.6251814178e+000,7.4737014261e-001,9.0687402066e-001,2.5165219643e+000,3.4129700631e+000,2.1860827179e+000,1.7627245268e+000,2.5716827124e+000,3.0681236962e+000,
3.4781250000e+001,2.0379008766e+000,3.3021392037e+000,2.0777614645e+000,2.8624247491e+000,2.7752319466e+000,2.6373294860e+000,8.4286867447e-001,8.5099725930e-001,2.6501976518e+000,3.4338497926e+000,2.1371100905e+000,1.7017396882e+000,2.5666685274e+000,3.1959120196e+000,
3.4875000000e+001,2.0596098473e+000,3.3118829769e+000,2.0955003915e+000,2.9015647857e+000,2.7834282568e+000,2.5784003889e+000,8.3452519649e-001,9.4656383705e-001,2.6459839159e+000,3.4608841375e+000,2.2372041077e+000,1.7032292868e+000,2.6572333537e+000,3.2938830821e+000,
3.4968750000e+001,2.0284901294e+000,3.3116403909e+000,2.0259189005e+000,2.9445070767e+000,2.7274037157e+000,2.6407498737e+000,8.5588751330e-001,9.6910873161e-001,2.5361159315e+000,3.4520056133e+000,2.2467351727e+000,1.8315002835e+000,2.4127398164e+000,3.1756334201e+000,
3.5062500000e+001,2.0440359501e+000,3.3539739382e+000,1.9795293136e+000,2.9798406216e+000,2.7407362605e+000,2.6095548827e+000,8.5869950500e-001,1.0715807522e+000,2.3466062524e+000,3.4113702004e+000,2.2860129857e+000,1.8349575022e+000,2.4409725834e+000,3.3040411703e+000,
3.5156250000e+001,2.0044367900e+000,3.3314886487e+000,1.7203122823e+000,2.9834894157e+000,2.7254130638e+000,2.6010967989e+000,8.0728848144e-001,1.1483234056e+000,2.3664430024e+000,3.3663888317e+000,2.4004061771e+000,1.8278132361e+000,2.4244332108e+000,3.3222171663e+000,
3.5250000000e+001,2.2884428891e+000,3.3416376523e+000,1.7119169494e+000,2.9127271482e+000,2.7246815177e+000,2.4764234024e+000,8.0968551579e-001,1.1247099245e+000,2.4069306860e+000,3.2681470167e+000,2.4235168113e+000,1.7814588930e+000,2.3760809758e+000,3.2910431803e+000,
3.5343750000e+001,2.3955365259e+000,3.2565753529e+000,1.8152274934e+000,2.8640581071e+000,2.7770975840e+000,2.4443262104e+000,7.2126732883e-001,1.1399454544e+000,2.5248894557e+000,3.0735246617e+000,2.3885472508e+000,1.6996276075e+000,2.3755953413e+000,3.3380336302e+000,
3.5437500000e+001,2.4478542378e+000,3.3446573722e+000,2.0333689022e+000,3.0408162268e+000,2.7777609625e+000,2.3701587531e+000,8.9915308563e-001,1.1710750137e+000,2.4579224657e+000,2.9330151308e+000,2.4613244760e+000,1.7703864594e+000,2.4710941331e+000,3.3425096915e+000,
3.5531250000e+001,2.4362322336e+000,3.3428279760e+000,2.0838164691e+000,3.0493855630e+000,2.8677658310e+000,2.1960305308e+000,8.7694959690e-001,1.1769627317e+000,2.3858119773e+000,2.8132397787e+000,2.4121132298e+000,1.7984203878e+000,2.5175000003e+000,3.3409676150e+000,
3.5625000000e+001,2.4654766334e+000,3.2841851665e+000,2.1189111444e+000,3.0775320010e+000,2.8511877109e+000,2.0909571479e+000,8.8161456820e-001,1.1688080678e+000,2.4454602643e+000,2.7539472829e+000,2.4278499395e+000,1.5883122121e+000,2.4652681318e+000,3.2743953841e+000,
3.5718750000e+001,2.5250710347e+000,3.3529858638e+000,2.2586583221e+000,3.2184153831e+000,2.7445416314e+000,2.1136809777e+000,8.7650186047e-001,1.1413517741e+000,2.3201942967e+000,2.8440771435e+000,2.4750594088e+000,1.5228921081e+000,2.4459730753e+000,3.4527381001e+000,
3.5812500000e+001,2.5533750774e+000,3.3354632536e+000,2.2624280785e+000,3.2074438327e+000,2.6954629615e+000,2.2492392046e+000,8.3763705783e-001,1.1293131966e+000,2.1708770707e+000,2.9333908332e+000,2.3841799744e+000,1.2845195429e+000,2.3037158846e+000,3.5034180861e+000,
3.5906250000e+001,2.5338218913e+000,3.3751610128e+000,2.2498271899e+000,3.1697005186e+000,2.6888667957e+000,2.2091726821e+000,9.0387717025e-001,1.1009766215e+000,2.1648743157e+000,2.8452951769e+000,2.4413583404e+000,1.2524630621e+000,2.3793858014e+000,3.5952044773e+000,
3.6000000000e+001,2.5690600971e+000,3.4269893024e+000,2.3079261723e+000,3.1534515175e+000,2.7869895713e+000,2.2902705245e+000,9.0539946655e-001,9.9363104262e-001,2.1859819891e+000,2.9195314519e+000,2.4136168236e+000,1.0187083603e+000,2.3136053685e+000,3.5807765192e+000,
3.6093750000e+001,2.5880739870e+000,3.4909041895e+000,2.5084658164e+000,3.1617710121e+000,2.8883704889e+000,2.4083417959e+000,9.5894067581e-001,1.0082395129e+000,2.0982161639e+000,2.9562932370e+000,2.3192714583e+000,1.1096539503e+000,2.2961203980e+000,3.5176677711e+000,
3.6187500000e+001,2.5834596999e+000,3.6092817665e+000,2.6265872629e+000,3.2834004646e+000,2.9231843621e+000,2.5667910292e+000,9.5946149619e-001,1.0063026707e+000,2.2382232888e+000,2.9760411106e+000,2.1301418788e+000,1.1236010621e+000,2.4021555775e+000,3.5696931157e+000,
3.6281250000e+001,2.2801120145e+000,3.4893331854e+000,2.5888716124e+000,3.2285808304e+000,2.7554138238e+000,2.5783238945e+000,1.0902075289e+000,1.0111487497e+000,2.1799607299e+000,2.9538513049e+000,2.1271757683e+000,1.0472590445e+000,2.4080155625e+000,3.5564940377e+000,
3.6375000000e+001,2.0995416679e+000,3.3848120550e+000,2.5683120901e+000,3.1757584554e+000,2.7929710666e+000,2.5284140989e+000,1.0358216209e+000,9.3400105655e-001,2.1196504775e+000,2.8812490656e+000,2.2277919567e+000,9.0286666986e-001,2.5043522060e+000,3.5698847882e+000,
3.6468750000e+001,2.2242850913e+000,3.3485191377e+000,2.4989557250e+000,3.0549348074e+000,2.7611858526e+000,2.5614870440e+000,9.8526383171e-001,9.3227065020e-001,2.1394911027e+000,2.8690726274e+000,2.1482606463e+000,8.8271664203e-001,2.4596438772e+000,3.5716956568e+000,
3.6562500000e+001,2.3644543737e+000,3.4703088363e+000,2.5316825557e+000,3.0582337589e+000,2.6414664778e+000,2.5516117918e+000,1.0075791944e+000,9.3766388365e-001,2.1236525339e+000,2.9373367038e+000,2.3482267648e+000,8.1019602378e-001,2.5805678930e+000,3.5647656853e+000,
3.6656250000e+001,2.4038109156e+000,3.5283002500e+000,2.5484180164e+000,3.0257320207e+000,2.6680115129e+000,2.5604741994e+000,9.8487678965e-001,8.8071226460e-001,2.0202557663e+000,2.9464332435e+000,2.3605036563e+000,8.6713235671e-001,2.6633434869e+000,3.4860348674e+000,
3.6750000000e+001,2.3332624652e+000,3.4340536992e+000,2.4692123170e+000,2.9161333425e+000,2.5679666121e+000,2.5351325839e+000,1.0047052053e+000,9.5870394329e-001,2.0447307906e+000,2.8256893321e+000,2.3405645054e+000,8.5571806290e-001,2.7088789371e+000,3.3668272481e+000,
3.6843750000e+001,2.3106858491e+000,3.4249471742e+000,2.5269380538e+000,2.9538264744e+000,2.6183344760e+000,2.5297242689e+000,1.2853052158e+000,9.1885133756e-001,2.2569858295e+000,2.9166716063e+000,2.4522697462e+000,9.8039786745e-001,2.8888764806e+000,3.3477222831e+000,
3.6937500000e+001,2.3227804955e+000,3.4628277877e+000,2.6029020137e+000,2.9551257065e+000,2.6222466326e+000,2.5952043876e+000,1.3604264208e+000,8.6298531578e-001,2.3860545111e+000,3.0245630161e+000,2.4026093191e+000,9.4915244067e-001,2.9253744627e+000,3.4236959377e+000,
3.7031250000e+001,2.3183871953e+000,3.4633720961e+000,2.6093895535e+000,2.9898290072e+000,2.6016846983e+000,2.5115742128e+000,1.3372008502e+000,8.6202119525e-001,2.5341268788e+000,3.0168791836e+000,2.4214773748e+000,1.0857334388e+000,2.9802109355e+000,3.4822085239e+000,
3.7125000000e+001,2.3254286249e+000,3.5239908604e+000,2.5882282768e+000,3.0906716886e+000,2.5871051508e+000,2.5609970161e+000,1.3757318971e+000,8.5617995824e-001,2.5279530223e+000,3.1378205700e+000,2.4837532057e+000,1.0064405851e+000,2.9883865971e+000,3.5172453680e+000,
3.7218750000e+001,2.3090780189e+000,3.3951738912e+000,2.4954223485e+000,2.9510456896e+000,2.5811918247e+000,2.3834469548e+000,1.3554381103e+000,8.6293474593e-001,2.5213823159e+000,3.1558483706e+000,2.4975152425e+000,1.0237133572e+000,2.9846044583e+000,3.4892638500e+000,
3.7312500000e+001,2.3931650459e+000,3.4494548347e+000,2.6262253961e+000,3.0015324221e+000,2.7375997470e+000,2.3702831302e+000,1.3039217574e+000,8.5961347124e-001,2.5670337104e+000,3.1817890622e+000,2.4757208116e+000,1.1283153223e+000,3.0551623111e+000,3.4806325682e+000,
3.7406250000e+001,2.3611865848e+000,3.4694924410e+000,2.6966740858e+000,3.0159419591e+000,2.7468994121e+000,2.3782871493e+000,1.3084137730e+000,8.3693153380e-001,2.6228091452e+000,3.2616199024e+000,2.4264002545e+000,1.1780598183e+000,3.0394245079e+000,3.3880779158e+000,
3.7500000000e+001,2.1320868872e+000,3.4094092937e+000,2.7462789104e+000,3.0838938129e+000,2.7745691590e+000,2.3735411159e+000,1.3493763499e+000,9.4182180407e-001,2.6532493810e+000,3.2770108917e+000,2.3703210222e+000,1.1082147850e+000,2.9912976995e+000,3.3929443268e+000,
3.7593750000e+001,2.0547610146e+000,3.3861359393e+000,2.7887934429e+000,3.1722467630e+000,2.7793591781e+000,2.4850137201e+000,1.3545374328e+000,9.2665004554e-001,2.6848363540e+000,3.2589848137e+000,2.2666457302e+000,1.1236323249e+000,2.9111373088e+000,3.3842396210e+000,
3.7687500000e+001,1.9671065285e+000,3.3254671466e+000,2.8466229021e+000,3.1785620864e+000,2.7760347654e+000,2.4398965577e+000,1.3822078298e+000,9.2902357780e-001,2.6591051878e+000,3.2329290404e+000,2.2897865562e+000,1.3260128450e+000,2.9222232132e+000,3.3715079108e+000,
3.7781250000e+001,1.9568051214e+000,3.3054891124e+000,2.8539664993e+000,3.1284735513e+000,2.8105221088e+000,2.4723457413e+000,1.3024999693e+000,9.1459869703e-001,2.6437949177e+000,3.1900604491e+000,2.2637357479e+000,1.5368095749e+000,2.9343594122e+000,3.3580235016e+000,
3.7875000000e+001,2.0222107091e+000,3.2386862946e+000,2.8044556929e+000,3.1059514451e+000,2.7321108832e+000,2.3330092474e+000,1.1313410137e+000,9.2363841934e-001,2.5329374209e+000,3.0463731738e+000,2.0817198269e+000,1.6846899022e+000,2.7837941401e+000,3.1370938919e+000,
3.7968750000e+001,2.0406217053e+000,3.1771412949e+000,2.7062958981e+000,3.1353947816e+000,2.6716491150e+000,2.3092590612e+000,1.0679942234e+000,9.5403727727e-001,2.5190335490e+000,2.9237786273e+000,2.0937015990e+000,1.6758962172e+000,2.7415920257e+000,2.9938943732e+000,
3.8062500000e+001,1.9685533383e+000,3.0581228984e+000,2.7305704493e+000,3.0236151486e+000,2.6334487906e+000,2.2940208779e+000,1.0753502223e+000,9.5696278329e-001,2.4709650421e+000,2.9922003100e+000,2.1633631300e+000,1.6616907123e+000,2.7094700486e+000,3.0205837054e+000,
3.8156250000e+001,1.9315028575e+000,2.9890374274e+000,2.7304698687e+000,2.9862092269e+000,2.5874349183e+000,2.2832754838e+000,1.1536603537e+000,1.0133299740e+000,2.4891097638e+000,2.9183660431e+000,2.3229097378e+000,1.7118114406e+000,2.7207520716e+000,2.8658960629e+000,
3.8250000000e+001,1.9885526995e+000,3.0216066834e+000,2.6792675785e+000,2.9899140494e+000,2.6211251296e+000,2.3614063347e+000,1.2632596175e+000,9.9611545333e-001,2.4350225520e+000,2.9096522417e+000,2.3637536169e+000,1.8628337594e+000,2.7702902032e+000,2.9351794684e+000,
3.8343750000e+001,2.2704324079e+000,2.9696605102e+000,2.6384201820e+000,2.9479584901e+000,2.5223993176e+000,2.3801084021e+000,1.3953832169e+000,1.0539777157e+000,2.3904802454e+000,3.0411025950e+000,2.3525656250e+000,1.8032128581e+000,2.8164785075e+000,3.0717106567e+000,
3.8437500000e+001,2.6935144194e+000,3.4122050818e+000,2.6320316581e+000,3.1491910359e+000,2.6998317165e+000,2.5487546507e+000,1.3902420728e+000,1.1359130542e+000,2.2765055888e+000,3.0532730178e+000,2.3409496778e+000,1.7922573265e+000,2.7934540691e+000,3.1276089006e+000,
3.8531250000e+001,2.7138047954e+000,3.4628981101e+000,2.5794874160e+000,3.1134505142e+000,2.7189322223e+000,2.6330612199e+000,1.3748120541e+000,1.1330405744e+000,2.2128086664e+000,3.1151066073e+000,2.3622040096e+000,1.7515720417e+000,2.7841261739e+000,3.1632282068e+000,
3.8625000000e+001,2.9271681814e+000,3.6792521019e+000,2.6448493946e+000,3.2466189320e+000,2.9982608088e+000,2.6352955164e+000,1.3889817681e+000,1.1537041806e+000,2.2426774931e+000,3.1578314176e+000,2.3747452041e+000,1.7533153680e+000,2.8209584366e+000,3.3941109356e+000,
3.8718750000e+001,3.0483053343e+000,3.8232078240e+000,2.6226755869e+000,3.3037369664e+000,3.0341340818e+000,2.7940674419e+000,1.4252021094e+000,1.2277751884e+000,2.2424033960e+000,3.1560192940e+000,2.3827169004e+000,1.6507616505e+000,2.8609896577e+000,3.4891538491e+000,
3.8812500000e+001,3.0814540518e+000,3.8285202524e+000,2.6335061835e+000,3.2712203007e+000,3.0756894663e+000,2.7583257230e+000,1.4199892380e+000,1.2376891300e+000,2.2383389429e+000,3.1593669013e+000,2.3155832101e+000,1.3923022166e+000,2.8914695660e+000,3.5547523158e+000,
3.8906250000e+001,3.1213351099e+000,3.8980712070e+000,2.7018646267e+000,3.3241488023e+000,3.0753003885e+000,2.8061958888e+000,1.4789921540e+000,1.2156835649e+000,2.1298358372e+000,3.1443737325e+000,2.3770580036e+000,1.2453075487e+000,2.9380881920e+000,3.5805498889e+000,
3.9000000000e+001,3.1073464448e+000,3.9059393514e+000,2.7013011927e+000,3.3069596231e+000,3.0954843236e+000,2.8097738161e+000,1.5485036046e+000,1.2031045391e+000,1.9725282780e+000,3.1368358509e+000,2.4701960179e+000,1.3466128248e+000,2.9358178759e+000,3.5935459037e+000,
3.9093750000e+001,3.1069918722e+000,4.0091779357e+000,2.5456139957e+000,3.2598093192e+000,3.0808610725e+000,2.7865525088e+000,1.6513479568e+000,1.1551670530e+000,1.8274019472e+000,2.9722796337e+000,2.2638314316e+000,1.4652690317e+000,2.9172220290e+000,3.5845131011e+000,
3.9187500000e+001,3.1411285394e+000,4.1770215933e+000,2.4712893531e+000,3.3611779645e+000,3.0645255095e+000,2.7912301880e+000,1.5997887560e+000,1.1548583811e+000,1.7780262872e+000,3.1055350262e+000,2.3831268706e+000,1.3614226339e+000,2.8988127587e+000,3.5725612871e+000,
3.9281250000e+001,3.1213286578e+000,4.3140707968e+000,2.5457333196e+000,3.3666138081e+000,3.1304568903e+000,2.7932169551e+000,1.6044247182e+000,1.2494334006e+000,1.7089927884e+000,3.1291349637e+000,2.4310214809e+000,1.1010414091e+000,2.8886314543e+000,3.5053021524e+000,
3.9375000000e+001,2.8440299232e+000,4.2602820862e+000,2.5139051768e+000,3.3913626166e+000,3.1277938549e+000,2.7186348679e+000,1.5915736237e+000,1.2508071495e+000,1.6042314942e+000,3.0385837769e+000,2.4968689018e+000,1.0813761485e+000,2.9205418033e+000,3.4946491563e+000,
3.9468750000e+001,2.6703040827e+000,4.2540252798e+000,2.4859675614e+000,3.3225650660e+000,3.0763026489e+000,2.6077175273e+000,1.6386806136e+000,1.2458436066e+000,1.5418741300e+000,3.0546346681e+000,2.5490093626e+000,1.1282789371e+000,3.1229306315e+000,3.6330825063e+000,
3.9562500000e+001,2.5969977981e+000,4.2094069852e+000,2.4102670710e+000,3.2182109343e+000,2.9736378605e+000,2.4878723617e+000,1.6093137545e+000,1.2022970414e+000,1.5055800789e+000,2.9621459259e+000,2.4839374553e+000,1.1211327402e+000,3.1071282116e+000,3.5519246812e+000,
3.9656250000e+001,2.2362750900e+000,4.0317825037e+000,2.2003044974e+000,3.0622120175e+000,2.7551775243e+000,2.2445217614e+000,1.6851428524e+000,1.1305398719e+000,1.5361099284e+000,2.8644971693e+000,2.4632510920e+000,1.1711161122e+000,3.0447301147e+000,3.3222517559e+000,
3.9750000000e+001,2.0357915063e+000,3.9620945258e+000,2.2507658111e+000,3.1431633798e+000,2.6454932715e+000,2.1454257395e+000,1.7120270045e+000,1.1283270520e+000,1.6060992725e+000,2.8836294013e+000,2.5213770757e+000,1.3698620385e+000,2.9476208715e+000,3.2143872958e+000,
3.9843750000e+001,1.9014977819e+000,3.9174135703e+000,2.2776892641e+000,3.0567341142e+000,2.5909957001e+000,2.0909994828e+000,1.6986686294e+000,1.2174689013e+000,1.6237376723e+000,2.9225198882e+000,2.5567776680e+000,1.6013346212e+000,2.9338575218e+000,3.1423402729e+000,
3.9937500000e+001,1.7808551822e+000,3.9346989122e+000,2.3340950768e+000,3.1280557569e+000,2.5806016173e+000,2.1066526537e+000,1.6883315817e+000,1.3029126420e+000,1.6395924641e+000,2.9396677936e+000,2.5185354615e+000,1.5328516633e+000,2.8943790585e+000,3.1094137294e+000,
4.0031250000e+001,2.2086503210e+000,4.0684287342e+000,2.4702628586e+000,3.2239576113e+000,2.6050465992e+000,2.2211558432e+000,1.6408140832e+000,1.3021719802e+000,1.7193860761e+000,3.0419873028e+000,2.4114785768e+000,1.5717567635e+000,2.7958682862e+000,3.1149943692e+000,
4.0125000000e+001,2.3666191578e+000,4.0741779972e+000,2.6352429000e+000,3.2657348747e+000,2.7117119969e+000,2.2925061948e+000,1.5401936180e+000,1.3623731067e+000,1.9018696383e+000,3.0750213062e+000,2.3850476278e+000,1.4625629347e+000,2.7649138611e+000,3.1291480426e+000,
4.0218750000e+001,2.4019178463e+000,3.9520686878e+000,2.5587110575e+000,3.2492757743e+000,2.7949487775e+000,2.1618247974e+000,1.5239275394e+000,1.3173110045e+000,2.1114157349e+000,2.9144765012e+000,2.2631580682e+000,1.4490532921e+000,2.8138588328e+000,3.3200343078e+000,
4.0312500000e+001,2.4176450493e+000,3.7784350807e+000,2.5775646149e+000,3.2799093674e+000,2.7482721424e+000,2.1674861405e+000,1.4253986411e+000,1.3220285880e+000,2.1437090555e+000,2.8051079698e+000,2.1585137844e+000,1.4498911064e+000,2.7235621016e+000,3.3564901761e+000,
4.0406250000e+001,2.4709354884e+000,3.6869666458e+000,2.4219405209e+000,3.1574884498e+000,2.7076089054e+000,2.1452193243e+000,1.5398442161e+000,1.2862822262e+000,2.1269835670e+000,2.6579156078e+000,2.0262752198e+000,1.4434868861e+000,2.5030874548e+000,3.0679627794e+000,
4.0500000000e+001,2.5102903489e+000,3.6465041569e+000,2.4523019165e+000,3.1826256889e+000,2.7465401424e+000,2.3554826984e+000,1.5222812771e+000,1.2441420505e+000,2.1164225273e+000,2.7849096168e+000,1.9791516849e+000,1.4274183252e+000,2.1978755894e+000,2.9638262539e+000,
4.0593750000e+001,2.5054669103e+000,3.6902715579e+000,2.4344955703e+000,3.1920574390e+000,2.7299493073e+000,2.4078075815e+000,1.5100513687e+000,1.2318155960e+000,2.0338443284e+000,2.9823662291e+000,2.0364701221e+000,1.4243006816e+000,2.2574921925e+000,3.1996823889e+000,
4.0687500000e+001,2.5169083068e+000,3.6957211467e+000,2.5306928081e+000,3.1283057586e+000,2.7774731377e+000,2.4257634140e+000,1.4517316360e+000,1.2599109560e+000,2.0993841488e+000,2.9845734510e+000,1.9984684549e+000,1.2670865010e+000,2.3070875715e+000,3.1869887952e+000,
4.0781250000e+001,2.4956293383e+000,3.6823477501e+000,2.3578088236e+000,3.1257835161e+000,2.8852747070e+000,2.4590351328e+000,1.4203891663e+000,1.1963845158e+000,2.0591725927e+000,3.0504520045e+000,2.1013863078e+000,1.0491575826e+000,2.4068087340e+000,3.2815090393e+000,
4.0875000000e+001,2.5135334718e+000,3.7173081867e+000,2.3245828580e+000,3.0735981770e+000,2.9014880041e+000,2.4560175167e+000,1.3738385428e+000,1.1292088226e+000,2.0508468564e+000,3.0898125611e+000,2.1642202622e+000,7.1580986822e-001,2.4658092907e+000,3.4132330041e+000,
4.0968750000e+001,2.4427670651e+000,3.6399639302e+000,2.3538674108e+000,2.9973698407e+000,2.9524355048e+000,2.4039492705e+000,1.3546050130e+000,1.0305801785e+000,2.1229989658e+000,3.1129141344e+000,2.1297433074e+000,4.9250454621e-001,2.4578603902e+000,3.4466287821e+000,
4.1062500000e+001,2.2092549988e+000,3.2318015829e+000,2.2451987281e+000,2.8229427136e+000,2.9563954529e+000,2.3531713605e+000,1.3720329029e+000,9.5761145752e-001,2.2543029244e+000,3.1124512415e+000,2.1657045859e+000,6.0828817218e-001,2.4467021614e+000,3.4535581424e+000,
4.1156250000e+001,2.0514822303e+000,3.0387718080e+000,2.1065698381e+000,2.7002410823e+000,2.8854681141e+000,2.3215364613e+000,1.3891517245e+000,9.5639536264e-001,2.0912683979e+000,3.0667767151e+000,2.1748010122e+000,6.2249241906e-001,2.4143799565e+000,3.4550282106e+000,
