Time (s),AF3,AF4,F3,F4,F7,F8,FC5,FC6,T7,T8,P7,P8,O1,O2,Sampling Rate
0.0000000000e+000,3.3864687319e+000,3.1677932290e+000,2.2568338975e+000,4.3546924339e+000,2.9949511543e+000,3.6910496996e+000,2.0353512909e+000,2.8040462085e+000,2.8419168524e+000,8.7576603308e+000,3.5027089875e+000,3.8945977548e+000,3.5249777105e+000,4.1897204689e+000,1
9.3750000000e-002,3.4491238099e+000,3.1933594037e+000,2.3688083714e+000,4.6866776369e+000,3.0019697618e+000,3.7461463790e+000,2.0650532085e+000,2.8058439478e+000,2.8424989460e+000,9.2467482319e+000,3.4951099714e+000,4.2512286369e+000,3.5329247005e+000,4.4036762554e+000,
1.8750000000e-001,3.3709895173e+000,3.3524902345e+000,2.3647504082e+000,4.7235560522e+000,3.0262209746e+000,3.7379034598e+000,2.0556731038e+000,2.8076049254e+000,2.7530435390e+000,9.3410067744e+000,3.4252303800e+000,4.3221976076e+000,3.5292119525e+000,4.4976420912e+000,
2.8125000000e-001,3.3314010942e+000,3.4404604861e+000,2.3091137215e+000,4.7700169459e+000,3.3142321462e+000,3.7699047092e+000,2.1490494065e+000,2.8723799257e+000,2.7864548909e+000,9.4219603660e+000,3.3211012359e+000,4.3668629042e+000,3.5128363016e+000,4.5553779174e+000,
3.7500000000e-001,3.2176484392e+000,3.4178427849e+000,2.2026447015e+000,4.7407721284e+000,3.4151537064e+000,3.7576156243e+000,2.1590994891e+000,2.8983256147e+000,2.7910382467e+000,9.4632745462e+000,3.2473435909e+000,4.3954824380e+000,3.5152780839e+000,4.5773387714e+000,
4.6875000000e-001,3.3228624759e+000,3.5443108476e+000,2.2422657141e+000,4.7362169289e+000,3.4280858147e+000,3.9846077374e+000,2.2037007367e+000,3.0978586971e+000,2.7862189736e+000,9.4697342800e+000,3.2998381100e+000,4.4232086004e+000,3.5020839239e+000,4.6029300722e+000,
5.6250000000e-001,3.3498015910e+000,3.5348674155e+000,2.2168386018e+000,4.6995267992e+000,3.3834832418e+000,4.0463681942e+000,2.2583352156e+000,3.1800100938e+000,2.8897935268e+000,9.4432890421e+000,3.2490863884e+000,4.3740724796e+000,3.4926532756e+000,4.5873679903e+000,
6.5625000000e-001,3.3692598154e+000,3.4264062330e+000,2.1574301051e+000,4.7005270549e+000,3.3960348070e+000,4.0536783833e+000,2.3047830656e+000,3.2021820791e+000,2.9250656889e+000,9.4144789714e+000,3.3002075860e+000,4.3284896877e+000,3.4648114950e+000,4.6207410942e+000,
7.5000000000e-001,3.4007538820e+000,3.5007024461e+000,2.2686027893e+000,4.5732151764e+000,3.4324361457e+000,4.1481405117e+000,2.3535349584e+000,3.2722381569e+000,2.8281417541e+000,9.2354533917e+000,3.3690505408e+000,4.1162202105e+000,3.4438054553e+000,4.4661203975e+000,
8.4375000000e-001,3.3825260474e+000,3.4334342684e+000,2.2804362541e+000,4.3469743317e+000,3.5082090272e+000,4.2149705422e+000,2.3810653535e+000,3.2619885615e+000,2.8592175425e+000,8.9773345466e+000,3.4060345032e+000,3.8813590324e+000,3.4818223827e+000,4.2731840894e+000,
9.3750000000e-001,3.3978149541e+000,3.5387954850e+000,2.4160816682e+000,4.4612271106e+000,3.5399258626e+000,4.2787821273e+000,2.3967460494e+000,3.3048804089e+000,2.8986040443e+000,9.3310091115e+000,3.2733991035e+000,4.0268205459e+000,3.3360086333e+000,4.4989144254e+000,
1.0312500000e+000,3.8049759921e+000,3.5548427534e+000,2.4900953264e+000,4.3592109945e+000,3.9147632526e+000,4.2441091145e+000,2.4779144357e+000,3.2849386790e+000,2.9459643567e+000,9.2921020771e+000,3.3299416969e+000,3.9768895014e+000,3.4288247044e+000,4.5297945954e+000,
1.1250000000e+000,3.7779507033e+000,3.4436026663e+000,2.4569076776e+000,3.9893632984e+000,3.9745790135e+000,4.2789820140e+000,2.5081665977e+000,3.2689385810e+000,3.0447045801e+000,8.9135804386e+000,3.4039608683e+000,3.5823416435e+000,3.5006582201e+000,4.4122698792e+000,
1.2187500000e+000,3.8545418853e+000,3.2810035393e+000,2.4367118367e+000,3.9162373002e+000,4.0372475684e+000,4.3022161040e+000,2.4844056523e+000,3.3019604495e+000,3.1198724130e+000,8.7777198053e+000,3.5193277923e+000,3.5219128168e+000,3.5743682224e+000,4.4270035375e+000,
1.3125000000e+000,3.8589981127e+000,3.1625757384e+000,2.4434560319e+000,3.7781673665e+000,3.8738754059e+000,4.2430045625e+000,2.5071956876e+000,3.2560719464e+000,3.0439312620e+000,8.6766917581e+000,3.5519088055e+000,3.3868979917e+000,3.6156762018e+000,4.4012430870e+000,
1.4062500000e+000,3.8437619128e+000,3.1996185585e+000,2.4173225401e+000,3.9644803977e+000,3.8783037628e+000,4.2539684985e+000,2.5060484518e+000,3.2988610625e+000,3.0314919747e+000,9.2650513923e+000,3.6048898921e+000,3.3969149595e+000,3.7303445369e+000,4.4483745748e+000,
1.5000000000e+000,3.8442593514e+000,3.0709586745e+000,2.4344638383e+000,4.2623579961e+000,3.9256096991e+000,4.0606664771e+000,2.4918034875e+000,3.1186960576e+000,2.9767007463e+000,1.0071388550e+001,3.6274754828e+000,3.8650170819e+000,3.8303098325e+000,4.7905100635e+000,
1.5937500000e+000,3.9036310951e+000,3.3443612068e+000,2.5331050180e+000,4.8177268618e+000,4.0006435964e+000,4.2224554715e+000,2.5035031030e+000,3.1771167090e+000,2.8928288682e+000,1.0784621843e+001,3.7322966794e+000,4.7510198402e+000,3.8753705761e+000,5.2567431250e+000,
1.6875000000e+000,3.9621063335e+000,3.3435321825e+000,2.5446716600e+000,4.9462196237e+000,4.0566635713e+000,4.3440328727e+000,2.5290034914e+000,3.1500378456e+000,2.9165320028e+000,1.0979597440e+001,3.6348461425e+000,4.9034433338e+000,3.7948935299e+000,5.3451847863e+000,
1.7812500000e+000,3.9743599925e+000,3.2911572990e+000,2.5097398820e+000,5.0701396269e+000,4.1090926287e+000,4.3730254832e+000,2.5273098267e+000,3.2538454733e+000,2.8734500433e+000,1.1090917492e+001,3.6120340151e+000,5.0794981203e+000,3.7673307812e+000,5.4915162852e+000,
1.8750000000e+000,3.9789818286e+000,3.3347520449e+000,2.5149122225e+000,5.3292484679e+000,4.1014639829e+000,4.3672399723e+000,2.5202223784e+000,3.2336939779e+000,2.9270859075e+000,1.1313349614e+001,3.6813574332e+000,5.3242070555e+000,3.7471808848e+000,5.5447656788e+000,
1.9687500000e+000,3.8457219366e+000,3.3635712011e+000,2.4044789199e+000,5.4262527697e+000,3.9866794811e+000,4.3944317452e+000,2.4767009778e+000,3.3003437459e+000,2.9219412173e+000,1.1573212902e+001,3.7292187593e+000,5.5906428322e+000,3.7650828897e+000,5.7979964962e+000,
2.0625000000e+000,3.7144158051e+000,3.3884976435e+000,2.3863774417e+000,5.4261071002e+000,3.8260790284e+000,4.4112233419e+000,2.4718925981e+000,3.2785707861e+000,2.8765720054e+000,1.1587184451e+001,3.6176848913e+000,5.5822868428e+000,3.5977884069e+000,5.7754370536e+000,
2.1562500000e+000,3.6734700149e+000,3.3894305208e+000,2.3700040337e+000,5.4269389715e+000,3.8288653303e+000,4.3493406282e+000,2.4304617789e+000,3.2779324630e+000,2.9282610657e+000,1.1606514247e+001,3.5788452751e+000,5.5841730130e+000,3.5502469238e+000,5.7804697917e+000,
2.2500000000e+000,3.7724237716e+000,3.4264218016e+000,2.3897949471e+000,5.4351106570e+000,4.0351701830e+000,4.3659333522e+000,2.3686649206e+000,3.2388100471e+000,2.7586195853e+000,1.1608488303e+001,3.4632457337e+000,5.5887232189e+000,3.4967422434e+000,5.7794822235e+000,
2.3437500000e+000,3.7915061796e+000,3.4481077534e+000,2.3988745025e+000,5.4382264468e+000,4.0247787745e+000,4.4282588802e+000,2.3245284359e+000,3.2689878796e+000,2.8103732313e+000,1.1619637487e+001,3.4472519195e+000,5.5897382873e+000,3.4654564784e+000,5.7831920190e+000,
2.4375000000e+000,3.7872308287e+000,3.4763098072e+000,2.4366196105e+000,5.3863556306e+000,4.1019770748e+000,4.4325549102e+000,2.4401599863e+000,3.1356883210e+000,2.9581066931e+000,1.1573895408e+001,3.5171108751e+000,5.5882145120e+000,3.4612838333e+000,5.7890592403e+000,
2.5312500000e+000,3.6944911857e+000,3.4471893802e+000,2.3294817092e+000,5.1247344964e+000,4.0400671920e+000,4.5064082441e+000,2.3899905895e+000,3.1266706846e+000,2.9479957505e+000,1.1317762196e+001,3.3651341275e+000,5.3101682361e+000,3.2197298178e+000,5.4764883564e+000,
2.6250000000e+000,3.7118174473e+000,3.4275956593e+000,2.3920907055e+000,5.0095111248e+000,4.0753505503e+000,4.4565749694e+000,2.4219731194e+000,3.1192831913e+000,2.9657244103e+000,1.1277229840e+001,3.4827887777e+000,5.2400114582e+000,3.4836910685e+000,5.4502922479e+000,
2.7187500000e+000,3.6122536193e+000,3.3862918284e+000,2.4933742540e+000,4.8448034996e+000,3.9779051234e+000,4.2539729776e+000,2.5296257546e+000,3.0370731593e+000,3.0420970980e+000,1.1112784857e+001,3.4581163799e+000,5.0616418067e+000,3.5066608990e+000,5.2722755105e+000,
2.8125000000e+000,3.8579503182e+000,3.5962598708e+000,2.6763792624e+000,4.6436361340e+000,3.9991985238e+000,4.3279586390e+000,2.5437450982e+000,3.1261484567e+000,3.0032882611e+000,1.0964402515e+001,3.4990447471e+000,4.8123828840e+000,3.5503916542e+000,5.2118265097e+000,
2.9062500000e+000,3.7950175647e+000,3.5686314176e+000,2.6020347636e+000,4.4438836665e+000,3.9736236981e+000,4.2615472787e+000,2.5501366451e+000,3.0671951128e+000,2.9304700779e+000,1.0766034429e+001,3.3723750208e+000,4.5359613749e+000,3.5294108257e+000,5.1027319154e+000,
3.0000000000e+000,3.7481404280e+000,3.4893247875e+000,2.6004117138e+000,4.0511100127e+000,3.8817529775e+000,4.1957659960e+000,2.5076690963e+000,3.0564226365e+000,2.9880758279e+000,1.0047077883e+001,3.4695483225e+000,3.6263616515e+000,3.5493060628e+000,4.5086362446e+000,
3.0937500000e+000,3.7089768127e+000,3.4950822663e+000,2.6294894415e+000,4.0944208626e+000,3.8866889485e+000,4.1544780071e+000,2.5292105654e+000,3.1060768552e+000,3.0215696026e+000,1.0014643774e+001,3.5336820971e+000,3.6491692906e+000,3.6801303816e+000,4.5309441134e+000,
3.1875000000e+000,3.6425420086e+000,3.4955068539e+000,2.6760854665e+000,4.0378879640e+000,3.7281734824e+000,4.1841433642e+000,2.4702085802e+000,3.1267629115e+000,2.9463678069e+000,9.9387839427e+000,3.4695910578e+000,3.5909432779e+000,3.5832379980e+000,4.4199606807e+000,
3.2812500000e+000,4.0033096154e+000,3.5581433630e+000,2.6920561259e+000,4.0713296207e+000,3.5920123103e+000,4.1514231214e+000,2.4360798292e+000,3.1547356509e+000,2.9586490561e+000,9.9123460364e+000,3.5482187022e+000,3.5622917683e+000,3.5866917671e+000,4.4156311304e+000,
3.3750000000e+000,4.3178453189e+000,3.6152310298e+000,2.7355244693e+000,4.0591159082e+000,3.5812866960e+000,4.1508023774e+000,2.3813810588e+000,3.2207507351e+000,2.8801732016e+000,9.8242610184e+000,3.6107388505e+000,3.5604018595e+000,3.6139352088e+000,4.3735304592e+000,
3.4687500000e+000,4.3225945927e+000,3.5625288122e+000,2.7862507087e+000,4.0389337310e+000,3.6302824813e+000,4.1379071443e+000,2.4074278430e+000,3.2801564828e+000,2.8025423191e+000,9.8118239480e+000,3.4456732142e+000,3.5876020108e+000,3.5121721372e+000,4.3472526861e+000,
3.5625000000e+000,4.3523062166e+000,3.4562073518e+000,2.8306214274e+000,4.0068239409e+000,3.6193271111e+000,4.0019376415e+000,2.3824511774e+000,3.1997808295e+000,2.7542766304e+000,9.6470441909e+000,3.4920609630e+000,3.5473214128e+000,3.5156571913e+000,4.2845955933e+000,
3.6562500000e+000,4.3420817394e+000,3.5585059894e+000,2.7640053545e+000,3.9680880511e+000,3.6560806523e+000,4.0145434743e+000,2.2446635218e+000,3.2052028057e+000,2.7648014165e+000,8.8668704057e+000,3.4522530014e+000,3.1752030262e+000,3.3499322743e+000,3.9841480454e+000,
3.7500000000e+000,4.3458862192e+000,3.6035766892e+000,2.7128787498e+000,3.9649414256e+000,3.6607506202e+000,4.0172038634e+000,2.1205625248e+000,3.1766514640e+000,2.8624493884e+000,8.5858689896e+000,3.4591945112e+000,3.2721006349e+000,3.3050548762e+000,4.0562822703e+000,
3.8437500000e+000,4.2465843360e+000,3.5331010638e+000,2.6205818367e+000,3.6381090629e+000,3.7279987588e+000,4.0286363902e+000,2.0697605473e+000,3.1190567957e+000,2.9177892649e+000,7.9632020746e+000,3.4565304482e+000,3.1295531553e+000,3.3646771194e+000,3.7940242641e+000,
3.9375000000e+000,4.2523544537e+000,3.4603018134e+000,2.6391411297e+000,3.5308092586e+000,3.7346042428e+000,3.9713824436e+000,2.0269037933e+000,3.0820216825e+000,2.9560498202e+000,7.9389439806e+000,3.4004892644e+000,3.0278401385e+000,3.3523102391e+000,3.6432763296e+000,
4.0312500000e+000,4.3105715451e+000,3.5244949231e+000,2.6904894076e+000,3.5478255971e+000,3.7965263455e+000,4.1276379890e+000,2.0031473746e+000,3.0686882449e+000,3.0379774483e+000,7.5209025615e+000,3.5536459933e+000,2.7770153502e+000,3.3063306815e+000,3.5925905231e+000,
4.1250000000e+000,4.2955948795e+000,3.4949971342e+000,2.5379486311e+000,3.4947378710e+000,3.7229765669e+000,4.1676162356e+000,1.8983881739e+000,3.1329269871e+000,2.9762855517e+000,7.7542827025e+000,3.5178043548e+000,2.7625496622e+000,3.2422665771e+000,3.6174005368e+000,
4.2187500000e+000,4.4988053717e+000,3.5330237920e+000,2.5041133139e+000,3.5613694173e+000,4.0805148096e+000,4.2005751326e+000,1.9667456142e+000,3.0818914869e+000,2.9470076310e+000,8.5861614256e+000,3.5535817813e+000,2.8726246767e+000,3.3176472248e+000,3.7081686218e+000,
4.3125000000e+000,4.3353177464e+000,3.6483263104e+000,2.4777859725e+000,4.4830610427e+000,4.1357168728e+000,4.4333844532e+000,1.9596236167e+000,3.1841765205e+000,3.0596866464e+000,1.0848691992e+001,3.5939762048e+000,4.6572663022e+000,3.3529373645e+000,5.0488870188e+000,
4.4062500000e+000,4.4146522732e+000,3.6170461430e+000,2.4792322477e+000,4.8765689072e+000,4.2836944379e+000,4.4767361854e+000,1.8987867098e+000,3.1444411923e+000,3.1206902090e+000,1.1225483479e+001,3.5786262739e+000,5.0355598109e+000,3.3547411137e+000,5.3951963845e+000,
4.5000000000e+000,4.4212805651e+000,3.7016747423e+000,2.4676609081e+000,4.9129705492e+000,4.2539166048e+000,4.6000311744e+000,1.9904116235e+000,3.2044155376e+000,3.1273609537e+000,1.1278701512e+001,3.6339944393e+000,5.0977495588e+000,3.6916429429e+000,5.4535150231e+000,
4.5937500000e+000,4.4323995382e+000,3.7630436044e+000,2.4604074073e+000,4.9089964833e+000,4.2357061047e+000,4.7445309704e+000,2.0575863286e+000,3.2553449471e+000,3.1463463090e+000,1.1370208716e+001,3.6128960206e+000,5.1025754349e+000,3.7476442628e+000,5.4680100957e+000,
4.6875000000e+000,4.4202544892e+000,3.7255124940e+000,2.4788744266e+000,4.9215443373e+000,4.2611531908e+000,4.7235133941e+000,2.0681413008e+000,3.2092169986e+000,3.1695498255e+000,1.1398488585e+001,3.6121289243e+000,5.1071375769e+000,3.8019000891e+000,5.4744284851e+000,
4.7812500000e+000,4.4160657616e+000,3.6627484702e+000,2.3322241156e+000,4.9036681052e+000,4.2315923090e+000,4.7222637927e+000,2.1233478974e+000,3.1629160434e+000,3.1696845208e+000,1.1402142687e+001,3.5818662230e+000,5.0905911238e+000,3.7833342023e+000,5.4512826409e+000,
4.8750000000e+000,4.4229024516e+000,3.7058883059e+000,2.3147871118e+000,4.9175885476e+000,4.2149332162e+000,4.7155281122e+000,2.1158030436e+000,3.1819949190e+000,3.2389312571e+000,1.1402534725e+001,3.6703429628e+000,5.0900796691e+000,3.7961516668e+000,5.4523525755e+000,
4.9687500000e+000,4.4373866895e+000,3.7019585464e+000,2.1814412414e+000,4.9173714232e+000,4.2103143621e+000,4.6871912582e+000,2.1160830610e+000,3.1588494993e+000,3.2832255814e+000,1.1419040131e+001,3.5828568773e+000,5.0924684676e+000,3.8190344729e+000,5.4529646038e+000,
5.0625000000e+000,4.4500949611e+000,3.7406815444e+000,2.3132078530e+000,4.9254131783e+000,4.2370116011e+000,4.6440592405e+000,2.2031593727e+000,3.2245137917e+000,3.2240499176e+000,1.1420572088e+001,3.6044332015e+000,5.0937971005e+000,3.8195929300e+000,5.4558862765e+000,
5.1562500000e+000,4.4378654979e+000,3.7180365958e+000,2.3526225755e+000,4.9156853526e+000,4.2002242187e+000,4.6106397314e+000,2.3195591084e+000,3.1847217776e+000,3.2945091502e+000,1.1393634487e+001,3.5725776680e+000,5.0963228335e+000,3.8045444896e+000,5.4585715812e+000,
5.2500000000e+000,4.2169956026e+000,3.5988148846e+000,2.3697876287e+000,4.8935868044e+000,3.8594159445e+000,4.5787743486e+000,2.2486552011e+000,3.1481585798e+000,3.3273961110e+000,1.1370989792e+001,3.5497441816e+000,5.0949852055e+000,3.7904979837e+000,5.4598851172e+000,
5.3437500000e+000,3.7572256525e+000,3.4588903284e+000,2.3791815535e+000,4.2116106737e+000,3.7985394238e+000,4.3927004044e+000,2.2511152666e+000,3.0420614063e+000,3.1931669343e+000,1.0301701136e+001,3.4728202002e+000,4.0084085129e+000,3.8129951989e+000,4.5073308015e+000,
5.4375000000e+000,3.7364388767e+000,3.5574743876e+000,2.3473175785e+000,3.6876280490e+000,3.8241212790e+000,4.4021315104e+000,2.2979682417e+000,3.0493658885e+000,3.3241647726e+000,9.7504052376e+000,3.4941229054e+000,3.1284792257e+000,3.7552327337e+000,3.9284793892e+000,
5.5312500000e+000,3.8267953198e+000,3.5095871646e+000,2.3658323565e+000,3.5491036224e+000,3.8595104917e+000,4.3952473797e+000,2.2175456522e+000,3.0266249943e+000,3.3462428261e+000,9.4461477762e+000,3.4204717656e+000,2.4220552770e+000,3.4812049698e+000,3.5573298707e+000,
5.6250000000e+000,3.7879191109e+000,3.5174962419e+000,2.3260108521e+000,3.5902587795e+000,3.8520045984e+000,4.3159919535e+000,2.2025729774e+000,3.0163226058e+000,3.2785780268e+000,8.7483963828e+000,3.3169900324e+000,2.3064714718e+000,3.3994007669e+000,3.4507523783e+000,
5.7187500000e+000,3.8497868774e+000,3.5415141264e+000,2.3479043429e+000,3.6257669918e+000,3.8636890585e+000,4.3381661355e+000,2.1972037324e+000,3.0743709424e+000,3.2628319483e+000,8.3840151246e+000,3.3889907712e+000,2.3862009587e+000,3.4241089682e+000,3.5192423572e+000,
5.8125000000e+000,3.9162527777e+000,3.4782324293e+000,2.5431373995e+000,3.7456929142e+000,3.8666527467e+000,4.2519473801e+000,2.2589535203e+000,3.2300371429e+000,3.1733147556e+000,8.7078902858e+000,3.4061214307e+000,2.5256362082e+000,3.4265907435e+000,3.6009646833e+000,
5.9062500000e+000,3.9265773280e+000,3.4500362097e+000,2.5705674391e+000,3.7170697176e+000,3.8923217640e+000,4.3400585081e+000,2.2625770341e+000,3.2099928246e+000,2.9852165886e+000,8.7019705540e+000,3.2901317950e+000,2.6714546396e+000,3.3411449717e+000,3.7424574542e+000,
6.0000000000e+000,3.9090707624e+000,3.3617273331e+000,2.4745699245e+000,3.8301011074e+000,3.8583769028e+000,4.4107970816e+000,2.2977176951e+000,3.1999067009e+000,3.0665818755e+000,1.0087089514e+001,3.2477585565e+000,2.9215924853e+000,3.3533681441e+000,3.7839782471e+000,
6.0937500000e+000,3.9537989832e+000,3.3749417656e+000,2.5138568646e+000,4.0943274408e+000,3.8376014822e+000,4.3981281809e+000,2.2254492690e+000,3.0917101470e+000,2.9799699053e+000,1.1021268425e+001,3.4030519746e+000,3.3106247377e+000,3.4701756538e+000,3.9529935511e+000,
6.1875000000e+000,3.9410386232e+000,3.4212810837e+000,2.5605100594e+000,4.1455715248e+000,3.8367528548e+000,4.4345067295e+000,2.1545023178e+000,3.0106279879e+000,3.0139921868e+000,1.1177463427e+001,3.3925138462e+000,3.5080499195e+000,3.4102556075e+000,4.0037901837e+000,
6.2812500000e+000,3.9890134902e+000,3.5209360607e+000,2.5943165097e+000,4.1573168532e+000,3.8179774283e+000,4.4524123614e+000,2.2286585436e+000,3.0748602391e+000,3.0259945943e+000,1.1195924402e+001,3.5114481716e+000,3.5020990707e+000,3.5615761378e+000,4.0153728780e+000,
6.3750000000e+000,3.9291945155e+000,3.5100796195e+000,2.7436456287e+000,4.1344391548e+000,3.4376606444e+000,4.4610304470e+000,2.3132926247e+000,3.0723094690e+000,3.0821166172e+000,1.1200265189e+001,3.4543194667e+000,3.5084595764e+000,3.5302066127e+000,4.0216883166e+000,
6.4687500000e+000,3.8882220414e+000,3.4472810210e+000,2.8452708934e+000,4.1314467927e+000,3.2852895205e+000,4.3860206558e+000,2.3834464032e+000,3.0076875464e+000,2.9102442547e+000,1.1201554230e+001,3.5214475636e+000,3.5311698668e+000,3.5372589318e+000,4.0910902679e+000,
6.5625000000e+000,3.8752622800e+000,3.4980751913e+000,2.8732163772e+000,4.0966813331e+000,3.2140920467e+000,4.3404695290e+000,2.3562287250e+000,3.0158786555e+000,2.8883598832e+000,1.1193142081e+001,3.5567349699e+000,3.5502164372e+000,3.5591059532e+000,4.1110021315e+000,
6.6562500000e+000,3.8405582349e+000,3.4569598105e+000,2.8448921339e+000,4.0901009613e+000,3.1174221005e+000,4.3010645153e+000,2.3849082642e+000,2.9811663666e+000,2.9405628300e+000,1.1195968927e+001,3.5875921479e+000,3.5795415546e+000,3.6718547390e+000,4.1730891782e+000,
6.7500000000e+000,3.7868647771e+000,3.4884315102e+000,2.8523212328e+000,4.0784341137e+000,3.2153437357e+000,4.3737067549e+000,2.3757710277e+000,2.9439407788e+000,3.0527289508e+000,1.1192787454e+001,3.5177920163e+000,3.5670095527e+000,3.6012245669e+000,4.0728173773e+000,
6.8437500000e+000,4.4083436089e+000,3.6438691033e+000,2.8353556826e+000,4.0927201513e+000,3.5326253837e+000,4.5443486766e+000,2.4220712012e+000,2.9280105892e+000,3.0706034815e+000,1.1192798276e+001,3.5341842320e+000,3.5461312423e+000,3.6145208688e+000,4.0471675298e+000,
6.9375000000e+000,4.4407248180e+000,3.7036693772e+000,2.8149736273e+000,4.1539674129e+000,3.5767687797e+000,4.4305790610e+000,2.3713083719e+000,2.9012726787e+000,3.0646241745e+000,1.1189593258e+001,3.5935873802e+000,3.4455743513e+000,3.9124854468e+000,4.0352688700e+000,
7.0312500000e+000,4.4381486291e+000,3.7560336761e+000,2.8927403314e+000,3.8518934134e+000,3.5734127641e+000,4.4704210446e+000,2.3703338474e+000,2.8875751255e+000,3.0727931530e+000,1.0294086552e+001,3.5129117682e+000,3.1655929572e+000,3.9311585744e+000,3.9335008741e+000,
7.1250000000e+000,4.4635262299e+000,3.8437742723e+000,2.9108732546e+000,3.7690173720e+000,3.6425665040e+000,4.4868792292e+000,2.4675340737e+000,2.9389612112e+000,3.1901463874e+000,1.0033595055e+001,3.4419032013e+000,3.0224364074e+000,4.0126269842e+000,4.0170826699e+000,
7.2187500000e+000,4.4591138400e+000,3.8309610613e+000,2.8429183337e+000,3.7970082792e+000,3.7329682170e+000,4.4772767375e+000,2.4451279600e+000,3.0013500106e+000,3.1809350689e+000,9.8458525964e+000,3.4350650325e+000,2.6870285585e+000,4.1367892411e+000,4.0571300678e+000,
7.3125000000e+000,4.4168546743e+000,3.8207160838e+000,2.7799198853e+000,3.8348453556e+000,3.7726456938e+000,4.4627602063e+000,2.4077631803e+000,3.0227161663e+000,3.2438518919e+000,9.8422546965e+000,3.3737778561e+000,2.8311948705e+000,4.0727129267e+000,4.1582619523e+000,
7.4062500000e+000,4.4071025355e+000,3.7763915193e+000,2.8966899475e+000,4.0751364187e+000,3.7673024742e+000,4.4919566470e+000,2.4497718380e+000,3.0869496181e+000,3.1978270639e+000,1.0620907060e+001,3.4279058197e+000,3.2714215375e+000,4.1039247855e+000,4.3562988362e+000,
7.5000000000e+000,4.4193844695e+000,3.6568842889e+000,3.4318887672e+000,4.1393549888e+000,3.8446148766e+000,4.4050758262e+000,2.7632801422e+000,3.0507577960e+000,3.2688682397e+000,1.0781326029e+001,3.4276798742e+000,3.4103725463e+000,4.1145176994e+000,4.4389650577e+000,
7.5937500000e+000,4.4765668200e+000,3.6367564280e+000,3.4307381965e+000,4.1612356489e+000,3.9058880737e+000,4.4327758729e+000,2.7485649346e+000,3.0715982709e+000,3.3115781051e+000,1.0795634527e+001,3.4201057232e+000,3.4397342853e+000,4.0721041063e+000,4.4395077151e+000,
7.6875000000e+000,4.5205608998e+000,3.6803091717e+000,3.4277961590e+000,4.1392966650e+000,3.9704360299e+000,4.3999695084e+000,2.7970096508e+000,2.9919081373e+000,3.2544816808e+000,1.0801603631e+001,3.4922019692e+000,3.5127312240e+000,4.1481415380e+000,4.4786847613e+000,
7.7812500000e+000,4.2863171902e+000,3.5534834650e+000,3.3714932228e+000,4.2017025408e+000,3.8012530809e+000,4.2566556332e+000,2.7569954654e+000,2.9969524617e+000,3.2205625081e+000,1.0897666332e+001,3.4545791141e+000,3.5184135664e+000,4.1715949239e+000,4.5304006082e+000,
7.8750000000e+000,3.8926814906e+000,3.5497085203e+000,3.3580142963e+000,4.1292966440e+000,3.6858489492e+000,4.2500879910e+000,2.6911713499e+000,2.9949112392e+000,3.1570663752e+000,1.0875963930e+001,3.4058748921e+000,3.4889896968e+000,4.0411529497e+000,4.5052083024e+000,
7.9687500000e+000,3.7804834260e+000,3.5909368025e+000,3.3457448466e+000,4.0413698618e+000,3.5982168798e+000,4.2209709308e+000,2.7185654899e+000,3.0122268642e+000,3.1920961297e+000,1.0871642258e+001,3.4189672929e+000,3.5047865737e+000,3.9774823342e+000,4.4492076818e+000,
8.0625000000e+000,3.6897897907e+000,3.4997602653e+000,3.2889108250e+000,4.0508792234e+000,3.5771387132e+000,4.2703109119e+000,2.6642572459e+000,3.0964325807e+000,3.0121337544e+000,1.0825995432e+001,3.3868171407e+000,3.4879077069e+000,3.9164217809e+000,4.4128230801e+000,
8.1562500000e+000,3.6740365188e+000,3.4672069562e+000,3.2788654987e+000,3.9814113435e+000,3.5710986979e+000,4.3311899724e+000,2.6621617926e+000,3.1765355348e+000,3.1709953436e+000,1.0640977621e+001,3.4687900705e+000,3.4230275250e+000,3.7737574111e+000,4.3097653171e+000,
8.2500000000e+000,4.3280494100e+000,3.7925333485e+000,3.3006871092e+000,4.0061619468e+000,3.7493631563e+000,4.4967478224e+000,2.6880751692e+000,3.1853369487e+000,3.1431507094e+000,1.0554653171e+001,3.4434192123e+000,3.3591277449e+000,3.7083195269e+000,4.2402410361e+000,
8.3437500000e+000,4.4253260437e+000,3.9174156932e+000,3.3223201377e+000,4.0300203751e+000,3.8261807272e+000,4.4640790160e+000,2.6922296909e+000,3.1370513341e+000,3.1342176829e+000,1.0544522880e+001,3.4288318214e+000,3.2587437843e+000,3.7455751951e+000,4.1398411944e+000,
8.4375000000e+000,4.3924450706e+000,3.9127114159e+000,2.6516902786e+000,3.8078890668e+000,3.8886716649e+000,4.4149817150e+000,2.1894954314e+000,3.0890627785e+000,3.1428559686e+000,9.4430196750e+000,3.3987134800e+000,2.9141267404e+000,3.6933322198e+000,3.9300608183e+000,
8.5312500000e+000,4.3602284284e+000,3.9251206678e+000,2.2234543483e+000,3.8511599364e+000,3.8195563217e+000,4.3846631084e+000,2.0541385915e+000,3.1488556071e+000,3.0554447622e+000,9.4256937761e+000,3.3987452478e+000,2.9216399127e+000,3.6187052396e+000,3.9269699121e+000,
8.6250000000e+000,4.2931313680e+000,3.9297099192e+000,2.1711565512e+000,3.8422755161e+000,3.7489884867e+000,4.4016982631e+000,2.1061885995e+000,3.1890995398e+000,2.9913286800e+000,9.3463751829e+000,3.3022849970e+000,2.7812798348e+000,3.6008087768e+000,3.8495644213e+000,
8.7187500000e+000,4.2938528849e+000,3.8655765775e+000,2.1478953145e+000,3.7690712274e+000,3.6861027820e+000,4.4095616876e+000,2.0683067526e+000,3.2401083475e+000,2.9888607707e+000,8.9424514924e+000,3.2437140014e+000,2.5937765870e+000,3.3585943790e+000,3.8007421301e+000,
8.8125000000e+000,4.3135017676e+000,3.8556539675e+000,2.1825949759e+000,3.7119424770e+000,3.6705011799e+000,4.3497249100e+000,2.1590778057e+000,3.1894483864e+000,2.9782349638e+000,8.5521710218e+000,3.2153980803e+000,2.5991387766e+000,3.3160401396e+000,3.7440772281e+000,
8.9062500000e+000,4.2745037824e+000,3.8116818666e+000,2.2119483618e+000,3.7210953175e+000,3.6357258998e+000,4.2783227142e+000,2.1501309482e+000,3.1850271803e+000,3.0467168975e+000,8.4916934831e+000,3.1774952200e+000,2.5471847346e+000,3.2034745047e+000,3.7573585993e+000,
9.0000000000e+000,4.2863036651e+000,3.8098496456e+000,2.2232063395e+000,3.7738556591e+000,3.6759293576e+000,4.2242439115e+000,2.1928300021e+000,3.1759497635e+000,2.9763846463e+000,8.5119682311e+000,3.1813376379e+000,2.6144671165e+000,3.2383472290e+000,3.8045064026e+000,
9.0937500000e+000,4.2981186983e+000,3.8492622078e+000,2.1956077300e+000,3.8745694927e+000,3.7303341680e+000,4.1662868440e+000,2.2027991450e+000,2.9841039726e+000,2.8960759998e+000,8.5577055554e+000,3.1144042572e+000,2.6075137575e+000,3.1222705530e+000,3.7054012334e+000,
9.1875000000e+000,4.2570819888e+000,3.8289097708e+000,2.2426458773e+000,3.8822778052e+000,3.6538760492e+000,4.0566958471e+000,2.1494589177e+000,2.9256371698e+000,2.7286122287e+000,8.5423720182e+000,3.0039048445e+000,2.6029965061e+000,3.0727780942e+000,3.6349337609e+000,
9.2812500000e+000,3.9381549416e+000,3.5520734725e+000,2.1802562745e+000,3.8765411236e+000,3.4408970751e+000,4.0255362517e+000,2.0917116340e+000,2.9541623851e+000,2.6845357696e+000,8.5446962048e+000,2.9972113675e+000,2.6258660884e+000,3.0509347305e+000,3.7321114753e+000,
9.3750000000e+000,4.1508578655e+000,3.5305486011e+000,2.1121293143e+000,3.8595644792e+000,3.5011869173e+000,4.1117839981e+000,2.2775303107e+000,2.9323041089e+000,2.6781814336e+000,8.5278596248e+000,2.9527027875e+000,2.6048684481e+000,2.9252030378e+000,3.6137245569e+000,
9.4687500000e+000,4.3464827481e+000,3.6515202967e+000,2.2234403925e+000,3.6763922846e+000,3.5497930208e+000,4.1413703032e+000,2.3157984173e+000,2.9383182254e+000,2.6651225245e+000,7.2549847580e+000,2.9118417136e+000,2.0468180132e+000,2.9147051139e+000,3.2705225038e+000,
9.5625000000e+000,4.3181770748e+000,3.6593937483e+000,2.2163957014e+000,3.6986521580e+000,3.4786201160e+000,4.0949797028e+000,2.3777170414e+000,2.9338064033e+000,2.7194244932e+000,6.9869536328e+000,2.8118500700e+000,1.9623946692e+000,2.9284383408e+000,3.2601269010e+000,
9.6562500000e+000,4.3155694123e+000,3.6140718714e+000,2.2465023324e+000,3.7234237813e+000,3.4799858353e+000,4.0166384153e+000,2.3942143322e+000,2.7838752261e+000,2.7422866113e+000,7.2851820463e+000,2.6904011466e+000,2.0638511930e+000,2.8493020410e+000,3.3107283523e+000,
9.7500000000e+000,4.2944234565e+000,3.6295296339e+000,2.2449503495e+000,3.7334102516e+000,3.4494229750e+000,3.9402270521e+000,2.3448651378e+000,2.7410013533e+000,2.7005292850e+000,7.6299413034e+000,2.7223254866e+000,2.0387117803e+000,2.8874476526e+000,3.2181174163e+000,
9.8437500000e+000,4.2981199060e+000,3.6089064774e+000,2.2697717559e+000,3.7145107958e+000,3.4374432837e+000,3.9469402518e+000,2.4104925884e+000,2.7679712515e+000,2.7356995045e+000,7.7052094759e+000,2.7597575352e+000,1.9581180215e+000,3.0545656555e+000,3.3266627842e+000,
9.9375000000e+000,4.3228657615e+000,3.6058635392e+000,2.2884882560e+000,3.6509107358e+000,3.4780357228e+000,4.0175311813e+000,2.3579263197e+000,2.8160421494e+000,2.7078992865e+000,7.7781203152e+000,2.7947753083e+000,1.7055711125e+000,3.0721784809e+000,3.3474836632e+000,
1.0031250000e+001,4.3409336725e+000,3.6328631398e+000,2.3024884853e+000,3.5930482616e+000,3.5194115204e+000,3.9974032577e+000,2.3208506731e+000,2.8073030142e+000,2.7629087564e+000,7.5783100319e+000,2.7647310346e+000,1.6556475707e+000,3.1427560291e+000,3.3263992907e+000,
1.0125000000e+001,4.3834052343e+000,3.7409716627e+000,2.3860928999e+000,3.5505615088e+000,3.5162797013e+000,4.0526487151e+000,2.3750942893e+000,2.8869875895e+000,2.8113574527e+000,7.6334617347e+000,2.8098084413e+000,1.9836201409e+000,3.2207511765e+000,3.4178018207e+000,
1.0218750000e+001,4.3916934489e+000,3.7369402062e+000,2.4823989322e+000,3.5900935420e+000,3.5756751277e+000,4.0405689682e+000,2.4831533225e+000,2.9288459285e+000,2.8789480127e+000,7.6631164320e+000,2.8166342940e+000,2.2137025283e+000,3.3041419511e+000,3.5401354023e+000,
1.0312500000e+001,4.0317576080e+000,3.5931717667e+000,2.4570125755e+000,3.4570397864e+000,3.4580984147e+000,3.7205814173e+000,2.4155062373e+000,2.8200503043e+000,2.8597838838e+000,7.7070570205e+000,2.8840951480e+000,2.2504424953e+000,3.3597781073e+000,3.4832257149e+000,
1.0406250000e+001,3.7021330459e+000,3.5232726225e+000,2.4244073423e+000,3.4474622850e+000,3.4302689618e+000,3.7408850834e+000,2.3502037932e+000,2.8376302213e+000,2.9119559393e+000,7.7119306535e+000,2.9755131427e+000,2.2304914173e+000,3.4170067722e+000,3.5098986388e+000,
1.0500000000e+001,3.5842572392e+000,3.5918958264e+000,2.3485742826e+000,3.4254895187e+000,3.8153977748e+000,3.8035283521e+000,2.3838732775e+000,2.9196573093e+000,2.8814578498e+000,7.7135960212e+000,2.9552665604e+000,2.4123117553e+000,3.4654243857e+000,3.4571834435e+000,
1.0593750000e+001,3.6710495581e+000,3.6178968095e+000,2.3765366384e+000,3.4273768905e+000,3.8225948318e+000,3.9879217879e+000,2.2753484253e+000,2.8947485690e+000,2.8508915360e+000,7.5036361760e+000,2.9919497373e+000,2.4621272294e+000,3.5043925959e+000,3.4572691888e+000,
1.0687500000e+001,3.8650249536e+000,3.7219583748e+000,2.6003045139e+000,3.4130248070e+000,3.8984452355e+000,4.1385480333e+000,2.3167677314e+000,2.9199445417e+000,2.8522984917e+000,7.1372660010e+000,2.9902278992e+000,2.4924995066e+000,3.6156834480e+000,3.6695295561e+000,
1.0781250000e+001,3.9494231376e+000,3.8116622186e+000,2.6647279511e+000,3.5689945437e+000,3.9290244262e+000,4.2066080507e+000,2.4279612355e+000,2.9849404411e+000,2.8706448033e+000,7.1388756419e+000,3.2581126168e+000,2.7392640652e+000,3.7256745370e+000,3.7923150517e+000,
1.0875000000e+001,3.9635134804e+000,3.8238776873e+000,2.6745670893e+000,3.5646828715e+000,3.9341643814e+000,4.1731581703e+000,2.3868715493e+000,2.9618089481e+000,2.8406884193e+000,6.9377596673e+000,3.2541560979e+000,2.8053609294e+000,3.7166421578e+000,3.7966102688e+000,
1.0968750000e+001,3.9600973346e+000,3.7738509573e+000,2.6463185470e+000,3.5787700564e+000,3.9015641106e+000,4.1921947783e+000,2.4428562424e+000,2.9787949298e+000,2.8969155408e+000,6.8655077032e+000,3.1911644004e+000,2.9615523868e+000,3.7529989822e+000,3.8577334305e+000,
1.1062500000e+001,3.9976704272e+000,3.7793554494e+000,2.7233115369e+000,3.6494920019e+000,3.9039496108e+000,4.2723159202e+000,2.4474319413e+000,3.0496582126e+000,2.9201624546e+000,6.8854360260e+000,3.1875864467e+000,2.9589934632e+000,3.6640315524e+000,3.9151115980e+000,
1.1156250000e+001,4.0234881936e+000,3.6317487293e+000,2.7086707846e+000,3.6157063278e+000,4.0809985546e+000,4.1771905905e+000,2.5296840815e+000,2.9142026556e+000,3.0111265906e+000,6.7150788249e+000,3.1183749410e+000,2.9083171797e+000,3.6234970981e+000,3.8308338308e+000,
1.1250000000e+001,4.0403231100e+000,3.6702049474e+000,2.7320116078e+000,3.6546324854e+000,4.1339919848e+000,4.1894974071e+000,2.4699476688e+000,2.9490935540e+000,3.0262873044e+000,6.6555486651e+000,3.1094403613e+000,2.9135650907e+000,3.6025830379e+000,3.7700726104e+000,
1.1343750000e+001,4.0886690309e+000,3.7911373146e+000,2.7538739213e+000,3.6979680865e+000,4.0963128882e+000,4.4124654283e+000,2.4895376945e+000,3.1301381609e+000,3.0249771443e+000,8.8085893668e+000,3.0796096381e+000,3.1085686768e+000,3.5426616883e+000,3.9189658664e+000,
1.1437500000e+001,4.0371093395e+000,3.7884416579e+000,2.7386520310e+000,3.9665802430e+000,3.8866503877e+000,4.4019001723e+000,2.4928309088e+000,3.0511770979e+000,3.0254009542e+000,9.7237903210e+000,3.0509072024e+000,3.6897840253e+000,3.4654655879e+000,4.3310717416e+000,
1.1531250000e+001,4.0359115072e+000,3.7644847802e+000,2.7685414465e+000,4.0400393673e+000,3.7650731377e+000,4.3620297755e+000,2.5054480591e+000,3.0541800648e+000,3.1087423978e+000,9.8798534408e+000,3.1437630191e+000,3.8240593825e+000,3.5223418254e+000,4.4765769651e+000,
1.1625000000e+001,3.9681565263e+000,3.6593656338e+000,2.7003477236e+000,4.1584031846e+000,3.7647833108e+000,4.1442647647e+000,2.5728461369e+000,3.0123630623e+000,3.1382321121e+000,1.0089013499e+001,3.1602133124e+000,4.0600301222e+000,3.5202516963e+000,4.6502021219e+000,
1.1718750000e+001,3.9107466642e+000,3.6445919431e+000,2.6329284061e+000,4.5828484982e+000,3.8084914518e+000,4.1097804073e+000,2.5468903868e+000,3.0252968661e+000,3.2043922009e+000,1.0827207235e+001,3.2445128908e+000,4.8470726110e+000,3.6868018313e+000,5.1442484813e+000,
1.1812500000e+001,3.7861627240e+000,3.5559641103e+000,2.5477157080e+000,4.5972133548e+000,3.9157547460e+000,4.1218916267e+000,2.4946087658e+000,3.0105638530e+000,3.2096217460e+000,1.0942797664e+001,3.0648917423e+000,4.9490833981e+000,3.8661365302e+000,5.2407274392e+000,
1.1906250000e+001,3.8089400872e+000,3.5990635546e+000,2.6189151111e+000,4.7595847154e+000,3.9543721885e+000,4.1404378686e+000,2.5141032711e+000,3.0870048048e+000,3.2154018428e+000,1.1176700575e+001,3.1230178949e+000,5.1241271967e+000,3.8701710016e+000,5.4372234442e+000,
1.2000000000e+001,3.7828350633e+000,3.5993067795e+000,2.5573924010e+000,4.7726290253e+000,3.9248176367e+000,4.0999956314e+000,2.4742029341e+000,3.0444547418e+000,3.2267656066e+000,1.1211196451e+001,3.0946948765e+000,5.1543722700e+000,3.8218611891e+000,5.4899513204e+000,
1.2093750000e+001,3.6929951581e+000,3.5750581336e+000,2.5197379693e+000,4.7381190660e+000,3.9195270356e+000,4.1694708027e+000,2.4690128577e+000,3.0905730255e+000,3.2394938540e+000,1.1216927820e+001,3.1008173031e+000,5.1601640579e+000,3.7743552666e+000,5.4847013523e+000,
1.2187500000e+001,3.5251408325e+000,3.6608714571e+000,2.4703802612e+000,4.7422791787e+000,3.7746770144e+000,4.2090182853e+000,2.3783135100e+000,3.1531536450e+000,3.1861544490e+000,1.1222701006e+001,3.0927130893e+000,5.1596930252e+000,3.7795732992e+000,5.4870141813e+000,
1.2281250000e+001,3.5582479644e+000,3.5758105843e+000,2.5134966198e+000,4.7205954802e+000,3.9273869311e+000,4.0625704983e+000,2.4402304135e+000,3.1080829184e+000,3.1695384772e+000,1.1243079053e+001,3.0942873360e+000,5.1529272906e+000,3.8235505107e+000,5.4841511413e+000,
1.2375000000e+001,3.6513279945e+000,3.4970943792e+000,2.4842547352e+000,4.6946882811e+000,3.9632058593e+000,4.0244367343e+000,2.4167499827e+000,3.0897670724e+000,3.1968164311e+000,1.1123529263e+001,3.1105991267e+000,5.1131718402e+000,3.8316553707e+000,5.4124583592e+000,
1.2468750000e+001,3.8084214754e+000,3.5094310181e+000,2.5401829218e+000,4.5568748239e+000,3.9975190114e+000,4.1096721451e+000,2.5313673930e+000,3.1349864938e+000,3.1083903864e+000,1.1011953990e+001,3.1942945195e+000,5.0125325894e+000,3.8554804947e+000,5.3392599048e+000,
1.2562500000e+001,3.8301729486e+000,3.5285295302e+000,2.5531512539e+000,4.5460597619e+000,3.9935519796e+000,4.2175150201e+000,2.5246475259e+000,3.1468330689e+000,3.0732630530e+000,1.0979167214e+001,3.1545609940e+000,4.9595054915e+000,3.8286332641e+000,5.2997219439e+000,
1.2656250000e+001,3.7555524942e+000,3.5578147228e+000,2.5409434680e+000,4.4830724170e+000,3.9646472449e+000,4.3166557871e+000,2.4277205694e+000,3.1212645671e+000,2.9596026533e+000,1.0874939837e+001,3.1364104743e+000,4.8612982603e+000,3.7477583356e+000,5.2286523574e+000,
1.2750000000e+001,3.7574889921e+000,3.6270643123e+000,2.5589985117e+000,3.9428757969e+000,3.8586345223e+000,4.4584659717e+000,2.4070558866e+000,3.1374710504e+000,3.0093327562e+000,1.0140152894e+001,3.1698287121e+000,3.9872206064e+000,3.4922199479e+000,4.6558559955e+000,
1.2843750000e+001,3.8029802376e+000,3.5863046942e+000,2.5743415828e+000,3.8941699233e+000,3.8951005456e+000,4.4203879763e+000,2.4273203215e+000,3.0843517111e+000,2.9630655680e+000,9.9508444517e+000,3.0863457021e+000,3.7751238763e+000,3.1734324576e+000,4.5240163160e+000,
1.2937500000e+001,3.8371385000e+000,3.5925820442e+000,2.5664616490e+000,3.3506636441e+000,3.9577961681e+000,4.4363771365e+000,2.5494774068e+000,3.1031442449e+000,3.0285479170e+000,9.1151838047e+000,3.1698170026e+000,2.5950779965e+000,3.2888526508e+000,3.6261177541e+000,
1.3031250000e+001,3.8547439242e+000,3.5335142966e+000,2.5873301477e+000,3.3984638063e+000,4.0878326552e+000,4.3730844612e+000,2.6030025243e+000,3.0782137864e+000,3.0426295404e+000,9.3137419101e+000,3.1849011607e+000,2.6976419728e+000,3.5586922700e+000,3.9511088098e+000,
1.3125000000e+001,3.8571456664e+000,3.5193220145e+000,2.5351082295e+000,3.5176581346e+000,4.1215326736e+000,4.3830133365e+000,2.5795616932e+000,3.0660970534e+000,3.0174429761e+000,9.6072251167e+000,3.2108512596e+000,2.5977982969e+000,3.7355946771e+000,4.0569514178e+000,
1.3218750000e+001,3.8130212100e+000,3.3817053373e+000,2.5768944190e+000,3.5966844242e+000,4.0147151716e+000,4.3411385361e+000,2.5742534696e+000,2.9845865091e+000,3.1030309672e+000,9.5699419190e+000,3.1854947047e+000,2.6055412321e+000,3.7397443245e+000,4.0673991361e+000,
1.3312500000e+001,3.7384885305e+000,3.4426329118e+000,2.5301275257e+000,3.6522590300e+000,3.9023727577e+000,4.3408234298e+000,2.4854122076e+000,3.0151734065e+000,3.1059491820e+000,9.4651389749e+000,3.2316895248e+000,2.6988168007e+000,3.6921922745e+000,4.0740354685e+000,
1.3406250000e+001,3.5423247953e+000,3.4080124266e+000,2.5657588114e+000,3.6102867526e+000,3.8632258414e+000,4.1740025459e+000,2.4315560620e+000,2.8825477397e+000,3.1453564698e+000,9.4798528468e+000,3.2117665093e+000,2.7605557756e+000,3.7384510525e+000,4.0952630599e+000,
1.3500000000e+001,3.5451372683e+000,3.3972631093e+000,2.5680982353e+000,3.6053042785e+000,3.8816813562e+000,4.1955958543e+000,2.5089541759e+000,2.8587849430e+000,3.2643586129e+000,9.4645247987e+000,3.0970500215e+000,2.7767196999e+000,3.6860735334e+000,3.9767901674e+000,
1.3593750000e+001,3.5582538082e+000,3.4361349946e+000,2.5395514719e+000,3.5868816968e+000,3.9028711367e+000,4.0473967421e+000,2.5101609764e+000,2.8998652211e+000,3.3419755133e+000,9.4625544036e+000,3.0732617772e+000,2.8630815028e+000,3.7287225278e+000,3.9610311119e+000,
1.3687500000e+001,3.6356732105e+000,3.5101078469e+000,2.5219083709e+000,3.6666352194e+000,3.9052623675e+000,4.1567081391e+000,2.5232185490e+000,3.0191673363e+000,3.3460368955e+000,9.4510901122e+000,3.0545227445e+000,2.8690229398e+000,3.8184235091e+000,3.9950311764e+000,
1.3781250000e+001,3.5528554685e+000,3.3595723839e+000,2.5178091816e+000,3.6997791181e+000,3.8730620118e+000,3.9231818498e+000,2.5401954897e+000,2.9547427175e+000,3.3804925220e+000,9.4524269121e+000,2.9927957082e+000,2.8939329148e+000,3.9024053355e+000,4.0690656768e+000,
1.3875000000e+001,3.4542146425e+000,3.3602640672e+000,2.5396319336e+000,3.6893450891e+000,3.7979363715e+000,3.9579193363e+000,2.5309399569e+000,3.0419927692e+000,3.3198271713e+000,9.3762059769e+000,2.9895255080e+000,2.8957707216e+000,3.8631730627e+000,4.0007492469e+000,
1.3968750000e+001,3.4194390704e+000,3.3268737829e+000,2.4635931281e+000,3.6894171366e+000,3.6519438782e+000,3.9506859351e+000,2.3515443231e+000,2.9954578999e+000,3.2898859117e+000,9.1225693893e+000,3.0479307277e+000,2.7878794301e+000,3.8715697971e+000,3.9173110868e+000,
1.4062500000e+001,3.4640058140e+000,3.3170062066e+000,2.4784318442e+000,3.6247265969e+000,3.5060775829e+000,3.9805527471e+000,2.3675678900e+000,2.9651020296e+000,3.2466705501e+000,8.2012096393e+000,3.0978524483e+000,2.5885737558e+000,3.7373779079e+000,3.6889257753e+000,
1.4156250000e+001,3.4410459306e+000,3.3863863565e+000,2.5344712744e+000,3.5675852568e+000,3.2750323378e+000,4.0046456317e+000,2.3470539246e+000,3.0517239973e+000,3.1453565745e+000,7.4064692302e+000,3.1197454907e+000,2.6717246271e+000,3.6075057527e+000,3.6713811852e+000,
1.4250000000e+001,3.9289387709e+000,3.4174051826e+000,2.4653094037e+000,3.4198469022e+000,3.3105470485e+000,4.0141361213e+000,2.3592320567e+000,3.0858875364e+000,3.0297955921e+000,7.2297767017e+000,3.2232940356e+000,2.5473866079e+000,3.6822909439e+000,3.7140752577e+000,
1.4343750000e+001,4.4595977990e+000,3.6133979097e+000,2.5690845216e+000,3.4877151485e+000,3.6118646315e+000,4.2093674591e+000,2.4423832373e+000,3.1373210983e+000,3.0544595882e+000,6.8467382293e+000,3.2679101521e+000,2.5059451984e+000,3.7061097935e+000,3.7326989891e+000,
1.4437500000e+001,4.4695041298e+000,3.6392898052e+000,2.5130672360e+000,3.5308521196e+000,3.6911659942e+000,4.3155628018e+000,2.3690807351e+000,3.2201399008e+000,3.0591135754e+000,6.7514126517e+000,3.3428777898e+000,2.3502314887e+000,3.7480952677e+000,3.8095205911e+000,
1.4531250000e+001,4.4626349784e+000,3.6462999999e+000,2.4698673075e+000,3.4859957811e+000,3.6146681762e+000,4.3201036601e+000,2.1881937246e+000,3.2045071947e+000,2.8997301711e+000,6.5001537777e+000,3.2623261451e+000,2.3019326953e+000,3.7284524652e+000,3.8188493880e+000,
1.4625000000e+001,4.4452878102e+000,3.5366854069e+000,2.4220822750e+000,3.4273088203e+000,3.6391213477e+000,4.2618010793e+000,2.2533690430e+000,3.1181062607e+000,2.8530546273e+000,6.2458006892e+000,3.3169692359e+000,2.2107152659e+000,3.7252404674e+000,3.7946254944e+000,
1.4718750000e+001,4.4549455513e+000,3.4589392624e+000,2.3871526032e+000,3.3745208477e+000,3.6277147257e+000,4.2271293733e+000,2.2296407102e+000,3.1388530668e+000,2.8414130101e+000,6.0975930877e+000,3.2915353035e+000,2.2437982817e+000,3.7984193582e+000,3.9549072848e+000,
1.4812500000e+001,4.4599474381e+000,3.4661666660e+000,2.3426898508e+000,3.3341098139e+000,3.6387949887e+000,4.1798267459e+000,2.1563640756e+000,3.1219990581e+000,2.8564168353e+000,5.5909305909e+000,3.3188471308e+000,2.3221220200e+000,4.1240110601e+000,4.1968060376e+000,
1.4906250000e+001,4.4671421504e+000,3.4963054197e+000,2.3488772933e+000,3.2889132079e+000,3.7311080164e+000,4.2047269401e+000,2.1293390185e+000,3.0967359602e+000,2.9914683749e+000,5.4433885390e+000,3.4308091706e+000,2.4116164411e+000,4.1250337149e+000,4.2952455837e+000,
1.5000000000e+001,4.4874972082e+000,3.6202068753e+000,2.3344944276e+000,3.3913777365e+000,3.7741743938e+000,4.2737219113e+000,2.1473780353e+000,3.1399823098e+000,2.9725624541e+000,5.4432854336e+000,3.3601097907e+000,2.4871892203e+000,4.0860890417e+000,4.3695461319e+000,
1.5093750000e+001,4.4816434470e+000,3.5741525821e+000,2.3781210950e+000,3.3761312372e+000,3.7944458146e+000,4.2356908333e+000,2.0563202134e+000,3.1436653558e+000,2.9244139371e+000,5.4544542914e+000,3.3702096816e+000,2.5005876242e+000,4.1882084882e+000,4.3769059910e+000,
1.5187500000e+001,4.4780859751e+000,3.5832460909e+000,2.3128391440e+000,3.4569298641e+000,3.7634580328e+000,4.1739660839e+000,2.0296718682e+000,3.0964078805e+000,2.9323797545e+000,5.4676207245e+000,3.3740472046e+000,2.4403479486e+000,4.4485848003e+000,4.4290612320e+000,
1.5281250000e+001,3.8319812974e+000,3.5214345015e+000,2.3166655433e+000,3.5563979571e+000,3.6627930943e+000,4.0355394628e+000,1.9196291517e+000,3.0679182123e+000,3.0193068040e+000,5.4825743714e+000,3.3275432827e+000,2.4907862299e+000,4.5028095827e+000,4.4622009877e+000,
1.5375000000e+001,3.5548985604e+000,3.5607831833e+000,2.4875058738e+000,3.6829716224e+000,3.5685508431e+000,4.1202964132e+000,1.8489945781e+000,3.0709442445e+000,3.0205948155e+000,5.3770211830e+000,3.3051978921e+000,2.6782055275e+000,4.4661519199e+000,4.5062370565e+000,
1.5468750000e+001,3.7149796131e+000,3.5613049700e+000,2.7280052283e+000,3.7095124061e+000,3.5813046719e+000,3.9939492732e+000,1.8910275728e+000,3.0447095150e+000,2.9799781041e+000,4.7949585386e+000,3.2114913306e+000,2.7349196370e+000,4.4730432967e+000,4.5025276225e+000,
1.5562500000e+001,3.7083644830e+000,3.6353244202e+000,2.7496755898e+000,3.7643953301e+000,3.5833106880e+000,4.0091000186e+000,1.8894207054e+000,3.1244407616e+000,2.9947695947e+000,4.4851397211e+000,3.2696735129e+000,2.7225875143e+000,4.5547847490e+000,4.5298565895e+000,
1.5656250000e+001,3.8440748352e+000,3.7244542236e+000,2.8340291025e+000,3.8079740436e+000,3.6374702225e+000,4.0361024759e+000,1.9298648308e+000,3.2513042248e+000,3.1005669198e+000,4.5527307735e+000,3.2923799652e+000,2.6968625198e+000,4.6025240131e+000,4.5009377890e+000,
1.5750000000e+001,3.8439791809e+000,3.8175586555e+000,2.9096618226e+000,3.8283630477e+000,3.5963409873e+000,4.1434208100e+000,2.0062522801e+000,3.3002211275e+000,3.0657432317e+000,4.5664536468e+000,3.2408179907e+000,2.6054443714e+000,4.4457622577e+000,4.3330616930e+000,
1.5843750000e+001,3.8816663952e+000,3.8489791887e+000,2.9348873422e+000,3.8497154839e+000,3.6037472845e+000,4.2402980219e+000,2.1191938795e+000,3.3042039762e+000,3.0222154182e+000,4.5047424697e+000,3.1316314736e+000,2.6752602964e+000,4.3642224445e+000,4.1221082900e+000,
1.5937500000e+001,3.9243895746e+000,3.8240848980e+000,2.9519653457e+000,3.8647769206e+000,3.5735865632e+000,4.1564037123e+000,2.1246445112e+000,3.2672529445e+000,3.0058786942e+000,4.4937821993e+000,3.1081721620e+000,2.5952346301e+000,4.3922537473e+000,3.9943821922e+000,
1.6031250000e+001,3.8621849958e+000,3.7473843252e+000,2.9398415127e+000,3.8052496718e+000,3.4692091186e+000,4.0612164942e+000,2.1882087969e+000,3.2676582289e+000,3.0229769118e+000,4.5367938862e+000,3.0790289392e+000,2.6161667505e+000,4.4372277150e+000,3.9070285265e+000,
1.6125000000e+001,3.8630617763e+000,3.8411016052e+000,2.9886201015e+000,3.8406041422e+000,3.4489897564e+000,4.1437859801e+000,2.3509822572e+000,3.3384724210e+000,2.9826646449e+000,4.7379326392e+000,3.0258939669e+000,2.5902009530e+000,4.4753750040e+000,3.8371973978e+000,
1.6218750000e+001,3.8805798684e+000,3.8173641874e+000,2.9882284995e+000,3.8571081498e+000,3.5031923426e+000,4.2487909481e+000,2.3787001621e+000,3.3157142835e+000,3.0280241320e+000,4.9585269552e+000,3.4205216311e+000,2.7050139197e+000,4.3424301710e+000,3.8133039228e+000,
1.6312500000e+001,3.8819772523e+000,3.7345134851e+000,2.9407394491e+000,3.7907418194e+000,3.4690335848e+000,4.2747556574e+000,2.4747091926e+000,3.3137653162e+000,2.9931670798e+000,5.2673844094e+000,3.6260140025e+000,2.6273316430e+000,4.2606539002e+000,3.8285235304e+000,
1.6406250000e+001,4.0679873733e+000,3.6456381529e+000,2.7398915848e+000,3.6604272343e+000,3.7845041881e+000,4.1919218833e+000,2.4979051937e+000,3.3087207147e+000,3.0015521891e+000,5.4236504063e+000,3.6682121531e+000,2.4852352199e+000,4.2743395324e+000,3.8289010301e+000,
1.6500000000e+001,3.9566495038e+000,3.6523071697e+000,2.6393647130e+000,3.6364834726e+000,3.7256150761e+000,4.2085801794e+000,2.4880752149e+000,3.2961271028e+000,2.9425162699e+000,5.5350884082e+000,3.6969123354e+000,2.4095302554e+000,4.2522646536e+000,3.8273415079e+000,
1.6593750000e+001,3.9425971172e+000,3.6308056950e+000,2.6591261818e+000,3.6358380567e+000,3.7872065179e+000,4.2627674987e+000,2.5368318616e+000,3.2962849611e+000,2.9617999658e+000,5.8493642757e+000,3.6988824483e+000,2.4327291956e+000,4.2131831899e+000,3.8066323302e+000,
1.6687500000e+001,3.7935376146e+000,3.4315701790e+000,2.4681225200e+000,3.5275623928e+000,3.6867915341e+000,4.1868006441e+000,2.4136010924e+000,3.0401039548e+000,2.8993085231e+000,5.8645047984e+000,3.7004105414e+000,2.4716458756e+000,4.1402976123e+000,3.7812493919e+000,
1.6781250000e+001,3.7818365451e+000,3.3282978564e+000,2.4418391954e+000,3.4765724653e+000,3.6769303691e+000,4.0528196771e+000,2.4534631947e+000,2.9940638050e+000,2.8966579466e+000,5.8625751293e+000,3.6842599113e+000,2.4533932796e+000,4.1375567841e+000,3.9052023385e+000,
1.6875000000e+001,3.8250280268e+000,3.4670575777e+000,2.4706173948e+000,3.4770481414e+000,3.7006957582e+000,4.1550086877e+000,2.4780297990e+000,3.0491988985e+000,2.8471924360e+000,5.8884466258e+000,3.7512843225e+000,2.3635993982e+000,4.1557943674e+000,3.9265028307e+000,
1.6968750000e+001,3.7629182133e+000,3.5014916189e+000,2.5488654980e+000,3.5134881028e+000,3.7005311859e+000,4.1651566524e+000,2.5287787759e+000,3.0900729407e+000,2.9304080404e+000,5.9052450823e+000,3.7433162247e+000,2.3331190517e+000,4.1457078373e+000,3.9291204395e+000,
1.7062500000e+001,3.8496519214e+000,3.4926707549e+000,2.5074671424e+000,3.4259323924e+000,3.7143966920e+000,4.1551765042e+000,2.3708412871e+000,2.9958488276e+000,2.9146164651e+000,5.8086605725e+000,3.7358652254e+000,2.3742977144e+000,4.0616145182e+000,4.0364467758e+000,
1.7156250000e+001,4.4005910666e+000,3.7945580834e+000,2.4933637370e+000,3.4423950360e+000,3.9079740716e+000,4.2604827757e+000,2.3611075948e+000,3.0867641160e+000,2.9765603139e+000,5.8248669468e+000,3.7668355070e+000,2.3971849076e+000,4.0214450154e+000,4.0933313466e+000,
1.7250000000e+001,4.4355982593e+000,3.8018431803e+000,2.4890665704e+000,3.3859683208e+000,3.8945859190e+000,4.1014970684e+000,2.3210925336e+000,3.0189521215e+000,3.0183185819e+000,5.7894264004e+000,3.5922638800e+000,2.2225142026e+000,4.1442749470e+000,4.0710451646e+000,
1.7343750000e+001,4.4040277059e+000,3.8288153398e+000,2.5648806945e+000,3.4366562026e+000,3.6966130054e+000,4.1245495728e+000,2.1873147739e+000,3.0092139850e+000,3.0173227305e+000,5.6292824191e+000,3.4098509228e+000,2.1781846718e+000,4.1450344603e+000,3.9616383518e+000,
1.7437500000e+001,4.2925284875e+000,3.8106451189e+000,2.5307530042e+000,3.3565371998e+000,3.5266086278e+000,4.0912831146e+000,2.1178748342e+000,2.8927326311e+000,2.9907499378e+000,5.5348170398e+000,3.4205969881e+000,2.4048456593e+000,4.2475123759e+000,3.9581400901e+000,
1.7531250000e+001,4.2771518054e+000,3.7759664439e+000,2.4904062690e+000,3.2870260245e+000,3.4734480814e+000,4.1220683135e+000,2.1293062951e+000,2.9059998564e+000,3.0766583791e+000,5.3341813770e+000,3.4328796748e+000,2.4672738109e+000,4.3403869121e+000,3.9259348053e+000,
1.7625000000e+001,4.3175989304e+000,3.8809989879e+000,2.5542849601e+000,3.3494522414e+000,3.4212588694e+000,4.1821968458e+000,2.0159548293e+000,2.9011379311e+000,3.0457089555e+000,5.0475259120e+000,3.4048062160e+000,2.4890320504e+000,4.3124205254e+000,3.9945943586e+000,
1.7718750000e+001,4.3206495089e+000,3.9085666087e+000,2.5610834990e+000,3.2986937439e+000,3.4113534375e+000,4.1678783092e+000,1.9411921412e+000,2.9463599188e+000,2.9851465566e+000,5.0955520771e+000,3.3637151866e+000,2.4168549239e+000,4.3393160748e+000,3.9186569869e+000,
1.7812500000e+001,4.2746287947e+000,3.9092537142e+000,2.5621964662e+000,3.2914159177e+000,3.3782603251e+000,4.2101237342e+000,1.7394450833e+000,2.9426794254e+000,3.0565540355e+000,5.1054822279e+000,3.3763643199e+000,2.5022601598e+000,4.3714184283e+000,3.7925060537e+000,
1.7906250000e+001,4.2351542459e+000,3.8502922961e+000,2.4849882343e+000,3.3616653782e+000,3.3035333342e+000,4.1289680539e+000,1.6612995087e+000,2.9204757211e+000,3.1560409502e+000,5.0224011967e+000,3.3617253233e+000,2.5890006307e+000,4.4379045235e+000,3.8215385965e+000,
1.8000000000e+001,4.2359712676e+000,3.8437993064e+000,2.3889019700e+000,3.4850670616e+000,3.5135991972e+000,4.1261260835e+000,1.5796923884e+000,2.9768272175e+000,3.1024229669e+000,5.0006881709e+000,3.4128701098e+000,2.5902296504e+000,4.4187145520e+000,3.8452618817e+000,
1.8093750000e+001,3.8984813066e+000,3.8896045112e+000,2.5286769916e+000,3.8522551678e+000,3.6878884263e+000,4.1818452239e+000,1.6155436911e+000,3.1579016046e+000,3.1457751153e+000,5.0125661089e+000,3.4091870448e+000,2.6683388148e+000,4.4462396750e+000,3.8572797638e+000,
1.8187500000e+001,3.4661658096e+000,3.8348193377e+000,2.5445903225e+000,3.9769094216e+000,3.6264922322e+000,4.1058204355e+000,1.6061712331e+000,3.2626133911e+000,3.1029548759e+000,5.1252299816e+000,3.4219064606e+000,2.6813135569e+000,4.4763132131e+000,3.7627293753e+000,
1.8281250000e+001,3.4133985170e+000,3.8837398627e+000,2.5803467688e+000,4.0644981050e+000,3.6411543632e+000,4.1872602725e+000,1.8290084545e+000,3.3308028880e+000,3.0809334382e+000,5.1081107212e+000,3.4539913614e+000,2.8281325473e+000,4.4762940507e+000,3.8866295429e+000,
1.8375000000e+001,3.5477915806e+000,3.9364941356e+000,2.5986495251e+000,4.1700415186e+000,3.6578557073e+000,4.1840734477e+000,2.0018690859e+000,3.4722143862e+000,3.0515968565e+000,5.0823460372e+000,3.4946441787e+000,2.6841723771e+000,4.8332187529e+000,3.8600975306e+000,
1.8468750000e+001,3.5475649474e+000,3.9393910119e+000,2.6087927705e+000,4.1815824026e+000,3.6471041694e+000,4.1511301368e+000,2.0875127575e+000,3.4652641914e+000,3.0302866699e+000,5.0895051691e+000,3.4107623972e+000,2.6721918516e+000,4.9134673350e+000,3.8608090075e+000,
1.8562500000e+001,3.5678859627e+000,3.9318288818e+000,2.5940834352e+000,4.1774090522e+000,3.6817938318e+000,4.0625346456e+000,2.1421124636e+000,3.4726990581e+000,3.0552665538e+000,4.8770709401e+000,3.5500246757e+000,2.6884994661e+000,4.9336903357e+000,3.8984335641e+000,
1.8656250000e+001,4.0794835600e+000,3.9397717164e+000,2.5835860688e+000,4.1480211903e+000,4.0214533694e+000,3.9790411879e+000,2.3044687374e+000,3.4518802427e+000,3.0302362868e+000,4.8834599712e+000,3.5892903210e+000,2.6882094611e+000,4.9668184961e+000,3.9217266749e+000,
1.8750000000e+001,4.3885730241e+000,4.0376695448e+000,2.6266971862e+000,4.1929154879e+000,4.1962771409e+000,3.9897134210e+000,2.4826340558e+000,3.4334217883e+000,2.9831716628e+000,5.1127421946e+000,3.6227128581e+000,2.7870003621e+000,5.2024580976e+000,3.9887696036e+000,
1.8843750000e+001,4.4357789949e+000,4.0697973460e+000,2.6555325161e+000,4.1884771925e+000,4.2434820899e+000,4.0083223761e+000,2.4772386660e+000,3.4716350653e+000,2.9146679110e+000,5.1711103802e+000,3.6058234101e+000,2.8666496102e+000,5.8177987398e+000,4.0316336483e+000,
1.8937500000e+001,4.4297510031e+000,4.0466883466e+000,2.5951709961e+000,4.1406745725e+000,4.2596288040e+000,3.9997630036e+000,2.5058739355e+000,3.4521579356e+000,2.8459326995e+000,5.1757698989e+000,3.5511664591e+000,2.8736981882e+000,5.8564126267e+000,4.0025500518e+000,
1.9031250000e+001,4.6610569871e+000,4.2991607423e+000,2.5357721435e+000,4.1075035020e+000,4.2265864956e+000,4.7039970979e+000,2.5072363391e+000,3.6097578659e+000,2.8094290827e+000,5.1825094692e+000,3.5416212242e+000,2.8598786991e+000,6.3437278053e+000,3.9715042651e+000,
1.9125000000e+001,4.9538903795e+000,4.4088366753e+000,2.5496277461e+000,3.8742768887e+000,4.2362678654e+000,4.8913930927e+000,2.6091127083e+000,3.5439041960e+000,2.8902509524e+000,5.0563166557e+000,3.4996840452e+000,2.7801646132e+000,6.4633873212e+000,3.7950433123e+000,
1.9218750000e+001,5.0017715038e+000,4.3889851505e+000,2.6845395452e+000,3.8318546811e+000,4.2098041723e+000,4.9181997043e+000,2.5876944459e+000,3.4982803634e+000,2.9206085641e+000,4.8705576583e+000,3.3922630745e+000,2.8196395874e+000,6.4975312344e+000,3.8770203325e+000,
1.9312500000e+001,4.9517456147e+000,4.3086999485e+000,2.5492453721e+000,3.5743110402e+000,4.1742102535e+000,4.9122188794e+000,2.4633092057e+000,3.3278875839e+000,2.9450607030e+000,4.8326485343e+000,3.1654215352e+000,2.8545932258e+000,6.4927515122e+000,3.7351042363e+000,
1.9406250000e+001,4.9558174387e+000,4.2772447925e+000,2.5106620664e+000,3.4715986678e+000,4.1839152706e+000,4.9317199772e+000,2.4622665291e+000,3.3068048853e+000,3.0041126932e+000,4.8844884488e+000,3.2148643207e+000,2.9197707490e+000,6.5898141728e+000,3.6980847767e+000,
1.9500000000e+001,4.9566105880e+000,4.2801152928e+000,2.5268030524e+000,3.4873137336e+000,4.1917991347e+000,4.9450684921e+000,2.3688553772e+000,3.3196953303e+000,2.9540812275e+000,4.8917150774e+000,3.1523680075e+000,2.9211663791e+000,6.6592606072e+000,3.6953949991e+000,
1.9593750000e+001,4.9218286648e+000,4.2385586661e+000,2.5211398551e+000,3.4692158241e+000,4.2112786230e+000,4.9708579522e+000,2.3826897804e+000,3.4505142402e+000,2.9947532872e+000,4.8524959094e+000,3.1991423589e+000,2.9065158860e+000,6.7045672645e+000,3.6923371869e+000,
1.9687500000e+001,4.6511686422e+000,4.1698957510e+000,2.4895023122e+000,3.4893133529e+000,3.9504267865e+000,4.9737933775e+000,2.3086615827e+000,3.4915505126e+000,3.0303976048e+000,4.7706259656e+000,3.1613652981e+000,2.9059072120e+000,6.7507643332e+000,3.6679758204e+000,
1.9781250000e+001,4.6329051716e+000,4.1074155967e+000,2.6477141856e+000,3.4000590982e+000,3.8264191569e+000,5.0105789310e+000,2.2905521916e+000,3.5254905063e+000,3.0560391857e+000,4.3289327322e+000,3.1766511997e+000,2.8461625232e+000,6.6971754654e+000,3.7158955276e+000,
1.9875000000e+001,4.6551009581e+000,4.1768335930e+000,2.7365559339e+000,3.4377253934e+000,3.9540716338e+000,5.0141551035e+000,2.3464837329e+000,3.5273356185e+000,3.0640049085e+000,4.2588071071e+000,3.1127715081e+000,2.6665068272e+000,6.6473268923e+000,3.6811380925e+000,
1.9968750000e+001,4.6631371008e+000,4.1115603254e+000,2.7497536826e+000,3.4278905256e+000,4.0510033524e+000,4.8639413783e+000,2.3765057108e+000,3.4461189699e+000,3.1106752617e+000,4.2766792969e+000,3.1382493411e+000,2.5484553219e+000,6.6392712005e+000,3.7122641562e+000,
2.0062500000e+001,4.3593833734e+000,3.7911249169e+000,2.7281899004e+000,3.3747740365e+000,3.8713030361e+000,4.3202623138e+000,2.3649065568e+000,3.2069155325e+000,2.9853790700e+000,4.3830970071e+000,3.2233927884e+000,2.6439154321e+000,6.4252507973e+000,3.6682192472e+000,
2.0156250000e+001,3.7166107092e+000,3.4332333501e+000,2.5622445455e+000,3.1958187319e+000,3.7499106214e+000,4.1426424376e+000,2.3417074513e+000,3.0981603751e+000,2.8378030665e+000,4.3097806323e+000,3.2419213618e+000,2.6470991208e+000,6.3708393273e+000,3.7934654892e+000,
2.0250000000e+001,3.8193688629e+000,3.5447876066e+000,2.5732880278e+000,3.2768598122e+000,3.8823520139e+000,4.2186573106e+000,2.4924625879e+000,3.1500832474e+000,2.9129024029e+000,4.3808837529e+000,3.2939317709e+000,2.5507407541e+000,6.3422406257e+000,3.8220551474e+000,
2.0343750000e+001,4.1302122935e+000,3.6721810858e+000,2.6542112282e+000,3.2837927176e+000,4.3429839786e+000,4.2160863850e+000,2.6837215017e+000,3.1999195149e+000,2.9757373655e+000,4.4586021544e+000,3.3776997690e+000,2.3567154881e+000,6.4156809773e+000,3.8670666139e+000,
2.0437500000e+001,4.2734479834e+000,3.6986756243e+000,2.7508809206e+000,3.4152586839e+000,4.6439538160e+000,4.3985426208e+000,2.7936360245e+000,3.2104902365e+000,3.0258430720e+000,4.3829093595e+000,3.3783219943e+000,2.2215974225e+000,6.7692658573e+000,3.8317633732e+000,
2.0531250000e+001,4.4234734867e+000,3.8022421394e+000,2.8409088987e+000,3.4248509784e+000,4.7007369071e+000,4.4613553256e+000,2.8664035594e+000,3.2461184593e+000,3.1143288204e+000,4.6047047664e+000,3.3362544859e+000,2.1945371193e+000,6.7622341298e+000,3.8938665020e+000,
2.0625000000e+001,4.4783390579e+000,3.9575708908e+000,2.8569783413e+000,3.4408767488e+000,4.6692712057e+000,4.5171630881e+000,2.9267088374e+000,3.0827152918e+000,3.0692277529e+000,4.6956973859e+000,3.1831646172e+000,2.1771958313e+000,6.7425190836e+000,3.9163903574e+000,
2.0718750000e+001,4.4797532091e+000,4.1187195984e+000,2.8130973325e+000,3.5558679054e+000,4.7403175736e+000,4.6119561984e+000,2.8613390237e+000,3.1395293919e+000,3.1644365974e+000,4.8063695519e+000,3.1511989765e+000,2.0812497892e+000,6.8335240689e+000,3.8596998089e+000,
2.0812500000e+001,4.4552759196e+000,4.0899643370e+000,2.7678268850e+000,3.5627366182e+000,4.7560744488e+000,4.5989001409e+000,2.8333052442e+000,3.0702733929e+000,3.1652872479e+000,4.7754993502e+000,3.3677954830e+000,2.1278050072e+000,6.8837440941e+000,3.8601057993e+000,
2.0906250000e+001,4.4619118738e+000,4.0298202671e+000,2.7442867054e+000,3.5634493517e+000,4.8989492283e+000,4.6094160658e+000,2.8420060780e+000,3.0053934828e+000,3.1970062599e+000,4.8301931440e+000,3.3691512946e+000,2.0694802996e+000,6.9347843078e+000,3.8776546797e+000,
2.1000000000e+001,4.4163798312e+000,4.0545412203e+000,2.7619663114e+000,3.6472195508e+000,4.9328362540e+000,4.6813334586e+000,2.8050341878e+000,3.0611941334e+000,3.2030575178e+000,4.8123096475e+000,3.3576004105e+000,2.0359605218e+000,7.0638679836e+000,3.8703678623e+000,
2.1093750000e+001,4.4370317933e+000,4.1427366435e+000,2.8242373367e+000,3.7037256755e+000,4.9426380699e+000,4.7383413120e+000,2.7822085562e+000,3.1929262111e+000,3.2392617191e+000,4.8099048034e+000,3.3050960435e+000,1.9139110109e+000,7.1437918165e+000,4.0183261182e+000,
2.1187500000e+001,4.4583240587e+000,4.1496527167e+000,2.8399005973e+000,3.6825968209e+000,4.9813655344e+000,4.6918369020e+000,2.7229706910e+000,3.1598075667e+000,3.2592603740e+000,4.8039491877e+000,3.3397878822e+000,2.0474943439e+000,7.1636162586e+000,3.8469086616e+000,
2.1281250000e+001,4.2857637038e+000,4.0167211005e+000,2.7367117074e+000,3.6728446324e+000,4.9144190113e+000,4.5702307721e+000,2.5597501860e+000,3.0820875531e+000,3.2116327893e+000,4.7756494970e+000,3.2564625981e+000,2.3030092938e+000,7.2567066984e+000,3.9314201220e+000,
2.1375000000e+001,4.0300997930e+000,3.9635535247e+000,2.6586714433e+000,3.6111278996e+000,4.5192579170e+000,4.5434468142e+000,2.2129798627e+000,3.0584618582e+000,3.1257134754e+000,4.7805602324e+000,3.3119173836e+000,2.4243749282e+000,7.2805695499e+000,4.0133071388e+000,
2.1468750000e+001,3.9382015436e+000,3.9792063368e+000,2.6652864794e+000,3.5755861292e+000,4.4214463840e+000,4.5472369247e+000,2.2860608305e+000,3.0937368689e+000,3.1466094758e+000,4.7889056249e+000,3.3052861657e+000,2.4649841168e+000,7.0339667580e+000,4.0203026124e+000,
2.1562500000e+001,3.7305367719e+000,3.8600973877e+000,2.5465460464e+000,3.5509810702e+000,4.3642101793e+000,4.5557528899e+000,2.1862067319e+000,3.0483480965e+000,3.0453658420e+000,4.5907816609e+000,3.2986215065e+000,2.4188674339e+000,7.0348815574e+000,3.9921244645e+000,
2.1656250000e+001,3.5651154196e+000,3.7059899852e+000,2.5752380723e+000,3.6913372644e+000,4.3746751053e+000,4.4886342271e+000,2.0771336287e+000,3.0986728983e+000,2.9923742488e+000,4.5524589903e+000,3.3428986330e+000,2.5473082588e+000,7.0174857809e+000,4.1605998940e+000,
2.1750000000e+001,3.6954932948e+000,3.8811504193e+000,2.6003765354e+000,3.8490615569e+000,4.2495812020e+000,4.6109806202e+000,2.3038250863e+000,3.3039409272e+000,2.7824758344e+000,4.5616188335e+000,3.3884722195e+000,2.7171438698e+000,6.9128801105e+000,4.2668391726e+000,
2.1843750000e+001,3.5527199442e+000,3.9722896506e+000,2.5080505023e+000,3.9521046498e+000,4.2264519827e+000,4.5818107520e+000,2.3074278622e+000,3.4341166914e+000,2.9278476875e+000,4.7187955596e+000,3.2332057861e+000,2.7770127673e+000,6.8405436538e+000,4.2803330732e+000,
2.1937500000e+001,3.5084308054e+000,3.9236376013e+000,2.4635149686e+000,3.8506336433e+000,3.7426033975e+000,4.5257846627e+000,2.2091580919e+000,3.4348791313e+000,2.7707579189e+000,4.7318319949e+000,3.2453128832e+000,2.8078876905e+000,6.7761785011e+000,4.3193437118e+000,
2.2031250000e+001,3.5203159738e+000,3.8796441764e+000,2.4530154499e+000,3.8362128062e+000,3.6182001484e+000,4.4681974927e+000,2.1889669088e+000,3.4226557474e+000,2.8657962513e+000,4.7048970629e+000,3.3000110177e+000,2.7853975710e+000,6.6948054381e+000,4.3153122760e+000,
2.2125000000e+001,3.4851292288e+000,3.7951149966e+000,2.3897002474e+000,3.8553349487e+000,3.6039665299e+000,4.4511364901e+000,2.1949850929e+000,3.3638519634e+000,2.8930473059e+000,4.7027196321e+000,3.3613109643e+000,2.6976285755e+000,6.5826169520e+000,4.2450633838e+000,
2.2218750000e+001,3.5460206935e+000,3.7189124990e+000,2.4114993110e+000,3.8691708884e+000,3.5667850195e+000,4.4768554215e+000,2.2769338082e+000,3.3807502899e+000,2.7957339540e+000,4.7024986014e+000,3.4257105354e+000,2.5441885244e+000,6.4781980593e+000,4.1977999418e+000,
2.2312500000e+001,4.8936015209e+000,4.2346009905e+000,2.5812273135e+000,3.8475117910e+000,4.1321627572e+000,4.7378780795e+000,2.5387993534e+000,3.4989158193e+000,2.9236796470e+000,4.7472679361e+000,3.5930142714e+000,2.4813572253e+000,6.2642964594e+000,4.2206389123e+000,
2.2406250000e+001,5.2118116923e+000,4.4248738921e+000,2.6805813635e+000,3.9460595880e+000,4.2597503930e+000,4.8275605808e+000,2.6306465583e+000,3.6119017636e+000,3.0659931211e+000,6.2204413620e+000,3.6231686890e+000,2.5357471168e+000,6.3378380131e+000,4.2226249936e+000,
2.2500000000e+001,5.2247877291e+000,4.4386958544e+000,2.6887609890e+000,4.2020590626e+000,4.2977322395e+000,4.7791018168e+000,2.5299375329e+000,3.6410434413e+000,3.1016375490e+000,7.5368004291e+000,3.7039795805e+000,2.8885324304e+000,6.3932374188e+000,4.3063475989e+000,
2.2593750000e+001,5.2292450711e+000,4.4240841302e+000,2.7041705353e+000,4.2474835572e+000,4.2672541897e+000,4.7697301119e+000,2.4842977439e+000,3.6785565763e+000,3.1313389578e+000,7.8762415579e+000,3.7679485660e+000,2.9696815439e+000,6.5510098867e+000,4.2041055679e+000,
2.2687500000e+001,5.2177049427e+000,4.3394868685e+000,2.6245664701e+000,4.1324521289e+000,4.2410054587e+000,4.7005769232e+000,2.3764984586e+000,3.6328080178e+000,3.2011787867e+000,7.9815571415e+000,3.8348898422e+000,2.9860544356e+000,6.5595079362e+000,4.2655898946e+000,
2.2781250000e+001,5.2212074337e+000,4.2755701656e+000,2.6137311486e+000,4.0490890424e+000,4.2528671701e+000,4.5533971006e+000,2.2840136828e+000,3.4289909303e+000,3.2551861791e+000,7.9836850172e+000,3.8354998935e+000,2.8331786460e+000,6.5676336636e+000,4.2033414529e+000,
2.2875000000e+001,5.3443561240e+000,4.4305734110e+000,2.6968982515e+000,4.1702914385e+000,4.2773304468e+000,4.7228243502e+000,2.3667470951e+000,3.4341966922e+000,3.2389729125e+000,7.9827763380e+000,3.8436506208e+000,2.8586950556e+000,6.5521801061e+000,4.1612937353e+000,
2.2968750000e+001,5.4199424127e+000,4.5112321167e+000,2.8523520511e+000,4.2229462395e+000,4.3160215185e+000,4.7677299849e+000,2.5060239852e+000,3.4657223362e+000,3.2461021943e+000,7.9856216489e+000,3.8916230024e+000,2.9529736265e+000,6.4057019320e+000,4.2302989361e+000,
2.3062500000e+001,5.4399170228e+000,4.5512898184e+000,2.8818165784e+000,4.2136390333e+000,4.3429968986e+000,4.8171841588e+000,2.6325767556e+000,3.5474597131e+000,3.1568653483e+000,7.9887442928e+000,3.9850084202e+000,3.0226044925e+000,6.3163901439e+000,4.4959215999e+000,
2.3156250000e+001,5.4402961242e+000,4.5596942423e+000,2.8947526451e+000,4.1972731511e+000,4.3054013939e+000,4.8012448806e+000,2.6552665426e+000,3.5552280736e+000,3.2269969266e+000,7.9928119599e+000,3.9458481237e+000,3.1352564134e+000,6.2394710262e+000,4.5467055152e+000,
2.3250000000e+001,5.3421259332e+000,4.4977638573e+000,2.9083593579e+000,4.1677147291e+000,4.1187576702e+000,4.6784225220e+000,2.5570662793e+000,3.5119649583e+000,3.2411220026e+000,7.9939403204e+000,3.8803036877e+000,3.1466358570e+000,6.2407860926e+000,4.5077443783e+000,
2.3343750000e+001,4.5454992652e+000,4.0704480214e+000,2.7727090724e+000,4.1287745057e+000,3.7113565775e+000,4.3582668367e+000,2.5038389728e+000,3.3354976269e+000,3.1707218771e+000,8.0022469633e+000,3.7771858143e+000,3.1951647507e+000,6.1995122307e+000,4.4587470243e+000,
2.3437500000e+001,4.3987898439e+000,3.9623263462e+000,2.6990129272e+000,4.0591345666e+000,3.5578779043e+000,4.3003170861e+000,2.5500979812e+000,3.2971853931e+000,3.0078311317e+000,7.7649537838e+000,3.8755587685e+000,3.1927877306e+000,6.1035463631e+000,4.4255567063e+000,
2.3531250000e+001,4.4136901934e+000,3.9630093324e+000,2.6685457497e+000,3.8275324748e+000,3.6464264260e+000,4.3627496730e+000,2.6259061389e+000,3.3659208320e+000,3.3834822052e+000,6.7178503831e+000,4.0903106540e+000,2.9745012769e+000,5.9885750539e+000,4.3594332288e+000,
2.3625000000e+001,4.4005259194e+000,3.9459037063e+000,2.6802031608e+000,3.7504489271e+000,3.6667179140e+000,4.3971921775e+000,2.6430632912e+000,3.2958152342e+000,3.4029931935e+000,6.6640827494e+000,4.0327122136e+000,2.8763898635e+000,5.9990391953e+000,4.3017436588e+000,
2.3718750000e+001,4.4441052965e+000,4.0204853380e+000,2.7529541704e+000,3.8338818215e+000,3.7189320008e+000,4.5528863568e+000,2.6756422043e+000,3.4181130069e+000,3.5105719866e+000,6.4126556727e+000,4.1191919173e+000,2.8355364493e+000,6.1929146836e+000,4.1970776927e+000,
2.3812500000e+001,4.4577147870e+000,4.0096193214e+000,2.7762654723e+000,3.7881976969e+000,3.9129933099e+000,4.5593399031e+000,2.7562661751e+000,3.4379048973e+000,3.6404550919e+000,6.4056721858e+000,4.1979765866e+000,2.8229962130e+000,6.2100860960e+000,4.2997877192e+000,
2.3906250000e+001,4.1144849664e+000,3.7245157114e+000,2.7033819435e+000,3.6780459178e+000,4.1174483937e+000,4.3942640327e+000,2.8441362587e+000,3.4623109977e+000,3.5767687110e+000,6.3977506010e+000,4.2643585761e+000,2.8782344002e+000,6.3300862824e+000,4.3065882560e+000,
2.4000000000e+001,4.0949462874e+000,3.5810658104e+000,2.6841806549e+000,3.7320573677e+000,4.1095489869e+000,4.5294144431e+000,2.7996670776e+000,3.4463284714e+000,3.6153769565e+000,6.3824392702e+000,4.4431816059e+000,2.8396366982e+000,6.3379391544e+000,4.1539678145e+000,
2.4093750000e+001,4.0639491906e+000,3.5658963033e+000,2.6535338007e+000,3.7196108864e+000,4.0912337674e+000,4.6491385121e+000,2.7411075272e+000,3.4473018444e+000,3.5949801239e+000,6.3471944846e+000,4.4047716858e+000,2.7588101425e+000,6.3558112986e+000,3.8970908236e+000,
2.4187500000e+001,4.1736353097e+000,3.7295777699e+000,2.8564182681e+000,3.8552934168e+000,4.1831387661e+000,4.7524520753e+000,2.7953801659e+000,3.5271892025e+000,3.5445649933e+000,6.3464803066e+000,4.5359401881e+000,2.7302676875e+000,6.3209376925e+000,3.8717785539e+000,
2.4281250000e+001,4.2369053197e+000,3.8227012139e+000,2.8584840505e+000,4.0179448051e+000,4.8354402835e+000,4.8463865761e+000,2.8939155733e+000,3.5822669464e+000,3.6175874598e+000,6.4710235863e+000,4.5436725191e+000,2.6801341175e+000,6.2989480295e+000,3.9364606052e+000,
2.4375000000e+001,4.2975812929e+000,3.9814669420e+000,2.9448630507e+000,4.0651051702e+000,4.9542121662e+000,4.9431879362e+000,2.8585611717e+000,3.6088724731e+000,3.7256961617e+000,6.4726677784e+000,4.5184135014e+000,2.6252649284e+000,6.2552785510e+000,4.0174040069e+000,
2.4468750000e+001,4.2903234114e+000,4.0311812725e+000,2.9824458280e+000,4.0643457537e+000,4.9694966788e+000,4.9245907117e+000,2.8702454947e+000,3.5873368324e+000,3.7142436743e+000,6.4628374870e+000,4.5603536974e+000,2.6649504761e+000,6.2054523388e+000,4.0631295499e+000,
2.4562500000e+001,4.2238176519e+000,4.0054170381e+000,2.9627637229e+000,4.0508237211e+000,4.9550438845e+000,4.8515438043e+000,2.8004207492e+000,3.4391976012e+000,3.5224423161e+000,6.1093268518e+000,4.4278811669e+000,2.5831119847e+000,6.1959069543e+000,4.0337463797e+000,
2.4656250000e+001,4.1930219301e+000,4.0249397526e+000,2.9863449977e+000,4.0288535683e+000,4.9722842362e+000,4.7242469122e+000,2.7696083322e+000,3.3780492729e+000,3.5449731471e+000,5.2997491986e+000,4.3549837872e+000,2.7053641901e+000,6.0491896184e+000,4.1327527668e+000,
2.4750000000e+001,4.1454728215e+000,3.9716936210e+000,2.9859832671e+000,3.9978346708e+000,4.9871151202e+000,4.7039956886e+000,2.7591603868e+000,3.3433744975e+000,3.4325750656e+000,5.4518168199e+000,4.2494522142e+000,2.7174772863e+000,5.9200992616e+000,4.0345446414e+000,
2.4843750000e+001,4.0134942181e+000,4.1104489131e+000,2.9392451491e+000,3.9684408002e+000,4.8875970034e+000,5.1238891841e+000,2.6016295041e+000,3.5141437286e+000,3.3262574503e+000,5.4759824257e+000,4.2295826786e+000,2.6961619025e+000,6.0101941224e+000,3.9496982833e+000,
2.4937500000e+001,3.8809713344e+000,4.0545206108e+000,2.8818137428e+000,3.8451836028e+000,4.8862923132e+000,5.1830371224e+000,2.3681069563e+000,3.4527913537e+000,3.4028833023e+000,5.4370850585e+000,3.9854931961e+000,2.6661265895e+000,6.0587789060e+000,3.9122925845e+000,
2.5031250000e+001,3.8529555033e+000,4.1488217256e+000,2.7978846367e+000,3.7949363400e+000,4.8764276070e+000,5.2289797071e+000,2.3636404485e+000,3.4513873077e+000,3.3782584733e+000,5.4159976400e+000,3.7999545201e+000,2.5665110807e+000,6.3927336586e+000,3.8740320974e+000,
2.5125000000e+001,3.8408738549e+000,4.1715445811e+000,2.8478444960e+000,3.7961480491e+000,4.8732264811e+000,5.2244829602e+000,2.5047803145e+000,3.4603464857e+000,3.4055491680e+000,5.4197668868e+000,3.7096127931e+000,2.5283590198e+000,6.6241725522e+000,3.8783041626e+000,
2.5218750000e+001,3.6834097510e+000,4.1624030695e+000,2.7147409985e+000,3.6800570203e+000,4.6906993167e+000,5.2322885688e+000,2.4927559853e+000,3.4505740839e+000,3.3797333050e+000,5.2730710103e+000,3.4693232219e+000,2.5265974426e+000,6.6301800416e+000,3.8186219629e+000,
2.5312500000e+001,3.7478131596e+000,4.1251440346e+000,2.6718139644e+000,3.4882537685e+000,4.0899912362e+000,5.2050778423e+000,2.3997813166e+000,3.4336761732e+000,3.2933187493e+000,4.9825694030e+000,3.6658045582e+000,2.6844423904e+000,6.6105435802e+000,3.8070858945e+000,
2.5406250000e+001,3.9845316192e+000,4.1287789994e+000,2.5280845178e+000,3.4263206701e+000,4.0775585844e+000,5.2239587220e+000,2.3364788779e+000,3.4509686751e+000,3.2013754949e+000,5.1171028306e+000,3.5227934993e+000,2.7112976984e+000,6.6281777292e+000,3.8136596710e+000,
2.5500000000e+001,4.7309651467e+000,4.3032286926e+000,2.7244722896e+000,3.5336760336e+000,4.1654932639e+000,5.2542488346e+000,2.3524374258e+000,3.4931564752e+000,3.1706509728e+000,5.5202510783e+000,3.4607419691e+000,2.7737853816e+000,6.6050518148e+000,3.9624169120e+000,
2.5593750000e+001,4.7522096698e+000,4.2547104623e+000,2.7223875839e+000,3.4806474088e+000,4.1471164149e+000,5.2350057352e+000,2.3717293807e+000,3.4659666124e+000,3.2021050935e+000,5.6598091296e+000,3.4855544382e+000,2.8676458267e+000,6.5717041766e+000,3.9763208542e+000,
2.5687500000e+001,4.8156748067e+000,4.2289262899e+000,2.6000199453e+000,3.4483735760e+000,4.0831156743e+000,5.2635457180e+000,2.3811200544e+000,3.4373503405e+000,3.1413097927e+000,5.6857790027e+000,3.5636371860e+000,2.7723751733e+000,6.4570266863e+000,4.0205698255e+000,
2.5781250000e+001,4.8214717486e+000,4.1683469830e+000,2.6755378286e+000,3.4379511503e+000,4.0738152832e+000,5.1364385028e+000,2.4069343817e+000,3.3299528332e+000,3.1883528604e+000,5.6280551069e+000,3.5982055788e+000,2.7817340345e+000,6.3808268540e+000,4.0619270771e+000,
2.5875000000e+001,4.8452261693e+000,4.0823321398e+000,2.7272784173e+000,3.4336550995e+000,3.8338583498e+000,4.8725993170e+000,2.4701574448e+000,3.2367651293e+000,3.1100786316e+000,5.6000156306e+000,3.6679349945e+000,2.8282417468e+000,6.3049011643e+000,4.1114322065e+000,
2.5968750000e+001,4.8390138909e+000,4.1172281427e+000,2.7167169763e+000,3.4849284061e+000,3.8090865608e+000,4.7919626011e+000,2.4866075699e+000,3.2549680349e+000,3.1374000501e+000,5.6085658486e+000,3.6792639695e+000,2.8573723803e+000,5.9848370758e+000,4.1057142263e+000,
2.6062500000e+001,4.8355785033e+000,4.0396532504e+000,2.7488721134e+000,3.5218212447e+000,3.7381910454e+000,4.4939637638e+000,2.3883542465e+000,3.1284606687e+000,3.1758475576e+000,5.7277893203e+000,3.6319563806e+000,2.8980853418e+000,5.1753658844e+000,4.1545642526e+000,
2.6156250000e+001,4.8502861514e+000,4.0595768249e+000,2.7571337479e+000,3.5417087728e+000,3.8079824519e+000,4.4746471148e+000,2.4514648635e+000,3.0765682047e+000,3.2072308165e+000,5.7717836470e+000,3.6178784407e+000,2.9853465179e+000,4.5122762671e+000,4.1366190207e+000,
2.6250000000e+001,4.8245325135e+000,3.9101540627e+000,2.6950623966e+000,3.4052306129e+000,3.9105684480e+000,4.3173841807e+000,2.4443495465e+000,2.9364795538e+000,3.2428608532e+000,5.7810793247e+000,3.6674250970e+000,2.9640461742e+000,4.4837258335e+000,4.1788365102e+000,
2.6343750000e+001,4.8386117645e+000,3.8418160931e+000,2.6647826451e+000,3.3251186315e+000,3.9924292438e+000,4.2399410073e+000,2.4408799962e+000,2.8448362134e+000,3.2779890331e+000,5.7520808203e+000,3.5971199693e+000,2.8420577709e+000,4.3960174280e+000,4.1725802962e+000,
2.6437500000e+001,4.2628689931e+000,3.5574429092e+000,2.5996005045e+000,3.3392431422e+000,3.6599335952e+000,4.1580578565e+000,2.3616411034e+000,2.7846237659e+000,3.3073108467e+000,5.6904297855e+000,3.5726581954e+000,2.7589071357e+000,4.3105604859e+000,3.9717953607e+000,
2.6531250000e+001,3.9307032130e+000,3.4917803960e+000,2.5906753652e+000,3.2580018273e+000,3.6592528026e+000,4.3329853569e+000,2.4015215997e+000,2.8411994416e+000,3.2379024995e+000,5.7296098106e+000,3.5853328711e+000,2.6211163536e+000,4.2369294720e+000,4.0514022338e+000,
2.6625000000e+001,3.8179500254e+000,3.5355409905e+000,2.5730795418e+000,3.2315174994e+000,3.6551004318e+000,4.3894978270e+000,2.3883535063e+000,2.9793073529e+000,3.1863391406e+000,5.7583249943e+000,3.5841718538e+000,2.7297776432e+000,4.1409965281e+000,4.1793253081e+000,
2.6718750000e+001,3.6771826843e+000,3.5575382289e+000,2.6103030140e+000,3.2115801550e+000,3.7007835015e+000,4.2866726590e+000,2.3869819261e+000,2.9490990326e+000,3.2051238085e+000,5.8389129137e+000,3.4215752216e+000,2.6932560415e+000,3.9917707426e+000,4.0723526053e+000,
2.6812500000e+001,3.7344377140e+000,3.6015852494e+000,2.5359066558e+000,3.1943121131e+000,3.7756530850e+000,4.4351577142e+000,2.5237937789e+000,3.0929270912e+000,3.2338495391e+000,5.8324878943e+000,3.4093858861e+000,2.7055862464e+000,3.9410687781e+000,4.0380395838e+000,
2.6906250000e+001,3.7097481192e+000,3.6178898434e+000,2.4814959307e+000,3.2394159215e+000,3.7733380579e+000,4.4206847946e+000,2.5185582336e+000,3.0124286597e+000,3.2386835408e+000,5.8439551236e+000,3.4467462309e+000,2.7034146230e+000,3.8724637397e+000,4.0431233765e+000,
2.7000000000e+001,3.7322507481e+000,3.5563868524e+000,2.4567158463e+000,3.1568168531e+000,3.8295977924e+000,4.4300539397e+000,2.4854935644e+000,3.0451657074e+000,3.1888609291e+000,5.8269546867e+000,3.4410732173e+000,2.6741584103e+000,3.8073549859e+000,4.0059775560e+000,
2.7093750000e+001,3.7286431987e+000,3.4566265237e+000,2.3399196639e+000,2.9897498107e+000,3.8438704603e+000,4.4446121992e+000,2.4445880161e+000,3.1261556197e+000,3.0698133505e+000,5.8136438383e+000,3.4006397996e+000,2.5946477858e+000,3.8367959475e+000,4.0372825070e+000,
2.7187500000e+001,3.9507003787e+000,3.4611343809e+000,2.4033760089e+000,3.0159514313e+000,4.2852783534e+000,4.4898486512e+000,2.4768647650e+000,3.2163987800e+000,3.0313020292e+000,5.7724934667e+000,3.3655403697e+000,2.5240123085e+000,3.9286476489e+000,4.0788807538e+000,
2.7281250000e+001,3.9155683408e+000,3.4646892540e+000,2.4201419397e+000,3.0100685395e+000,4.2369371939e+000,4.4785957148e+000,2.4187328607e+000,3.2142262920e+000,2.8131386658e+000,5.7641654378e+000,3.2548541888e+000,2.4428015332e+000,3.8065308321e+000,4.1191860016e+000,
2.7375000000e+001,3.9445215210e+000,3.5973533116e+000,2.4366510385e+000,3.0945563733e+000,4.2148340362e+000,4.5580259913e+000,2.4543351773e+000,3.3677217764e+000,2.7698725308e+000,5.7128470217e+000,3.1477654994e+000,2.4833714882e+000,3.7606827729e+000,4.1167536808e+000,
2.7468750000e+001,3.9469763256e+000,3.5808164292e+000,2.3136637786e+000,3.0497494256e+000,4.2120319948e+000,4.4847602169e+000,2.4997440927e+000,3.3456890376e+000,2.7143381470e+000,5.3613538740e+000,3.0880913604e+000,2.7015947478e+000,3.8252316530e+000,4.1138591749e+000,
2.7562500000e+001,3.9097889819e+000,3.5451841931e+000,2.3492460716e+000,3.0760660827e+000,4.1697158425e+000,4.4901754567e+000,2.4998139381e+000,3.2744628252e+000,2.7159688164e+000,5.2837757546e+000,3.1693275285e+000,2.6953132684e+000,3.9384865960e+000,4.1428353811e+000,
2.7656250000e+001,4.0368470322e+000,3.7336361053e+000,2.4293319652e+000,3.4092603274e+000,4.1406442028e+000,4.4729069339e+000,2.4803671503e+000,3.3667433602e+000,2.6775088686e+000,5.1546853587e+000,3.1553771763e+000,2.7341074209e+000,3.9404394777e+000,4.0170110529e+000,
2.7750000000e+001,4.0608711460e+000,3.7746464613e+000,2.4436865019e+000,3.5312739733e+000,4.1319173616e+000,4.5613355486e+000,2.4820362992e+000,3.3952337623e+000,2.5863067959e+000,5.3142779708e+000,3.6207251554e+000,2.7763365551e+000,3.9698213252e+000,4.2102007818e+000,
2.7843750000e+001,4.1947230223e+000,3.9223331126e+000,2.8276618143e+000,3.6223609772e+000,4.3830322186e+000,4.5848592297e+000,2.6580909189e+000,3.5611088558e+000,2.6342488109e+000,8.2048124742e+000,4.7548837554e+000,3.4517140861e+000,4.1640631347e+000,4.2075762249e+000,
2.7937500000e+001,4.2385062469e+000,3.9227961122e+000,2.8625778504e+000,3.5843832298e+000,4.4163283120e+000,4.5637389148e+000,2.6719922959e+000,3.5726188521e+000,2.6826861043e+000,8.6325733750e+000,4.7835948356e+000,3.5883985148e+000,4.0940188938e+000,4.2404679111e+000,
2.8031250000e+001,4.2806706090e+000,3.9862695199e+000,2.9089949441e+000,3.6022130417e+000,4.4335278266e+000,4.5982976343e+000,2.8224611694e+000,3.5446590838e+000,2.7996089988e+000,8.6352302919e+000,4.8225771505e+000,3.5758907494e+000,4.0383108855e+000,4.2389579665e+000,
2.8125000000e+001,4.3442111886e+000,3.9823955622e+000,2.9301353658e+000,3.6376179813e+000,4.5278211031e+000,4.5605440337e+000,2.8110591452e+000,3.4923995273e+000,2.9145845538e+000,8.7145565372e+000,4.8553649006e+000,3.6355700345e+000,4.0224966728e+000,4.2856661173e+000,
2.8218750000e+001,4.2653542476e+000,4.0532119385e+000,2.9980228318e+000,3.7441797593e+000,4.2970140142e+000,4.5606484000e+000,2.8178458911e+000,3.5513708734e+000,3.0678806353e+000,8.7217722818e+000,4.8812031874e+000,3.6472415181e+000,3.9981586829e+000,4.2669161304e+000,
2.8312500000e+001,4.2878584600e+000,4.0474513362e+000,2.9939764246e+000,3.7418802502e+000,4.3116563541e+000,4.5734663776e+000,2.7629414727e+000,3.5563793725e+000,3.1186939124e+000,8.8077060968e+000,4.9101101155e+000,3.6728613587e+000,4.0228956568e+000,4.2638427319e+000,
2.8406250000e+001,4.2187773575e+000,4.0091305303e+000,2.9713305045e+000,3.7643961720e+000,4.3242279971e+000,4.4990114144e+000,2.7453851687e+000,3.4942355429e+000,3.1143132876e+000,8.8384651144e+000,4.9497248684e+000,3.6327398836e+000,4.0261900651e+000,4.2669984931e+000,
2.8500000000e+001,4.2354361688e+000,4.0235434597e+000,2.9643021738e+000,3.7541811738e+000,4.3478967216e+000,4.5216646314e+000,2.7497997880e+000,3.5179146616e+000,3.0739455724e+000,8.8397959718e+000,4.9336312974e+000,3.5664340242e+000,4.0681035120e+000,4.1405175363e+000,
2.8593750000e+001,4.2260305139e+000,3.9602102325e+000,2.9583198457e+000,3.6899956775e+000,4.3896312221e+000,4.4457562733e+000,2.7714081551e+000,3.5055323936e+000,3.0655242467e+000,8.8410629523e+000,4.9038469875e+000,3.5464713586e+000,4.0110429118e+000,4.1281097119e+000,
2.8687500000e+001,4.1115322573e+000,3.7927552236e+000,2.8630398804e+000,3.5346548539e+000,4.3971659471e+000,4.3670960653e+000,2.7839025153e+000,3.4815957460e+000,3.1181619566e+000,8.8479315182e+000,4.8784011793e+000,3.5483841099e+000,4.0882930168e+000,4.1239805281e+000,
2.8781250000e+001,3.9358892563e+000,3.5538528950e+000,2.6563398078e+000,3.2862607383e+000,4.2153113406e+000,4.1520896086e+000,2.5776741614e+000,3.2471457615e+000,3.1057479360e+000,8.7517349019e+000,4.4508306166e+000,3.2841460498e+000,4.0077638660e+000,3.9716037364e+000,
2.8875000000e+001,3.8455509306e+000,3.5646531952e+000,2.5413258838e+000,3.3831085981e+000,4.1537421747e+000,4.0503575219e+000,2.6218439645e+000,3.1227473338e+000,3.2579238066e+000,7.7177559946e+000,3.8385297593e+000,2.7442787206e+000,3.8497575049e+000,3.8994604798e+000,
2.8968750000e+001,3.7729588112e+000,3.5925361499e+000,2.5537827187e+000,3.5237040237e+000,4.1759477189e+000,4.0956625869e+000,2.6252740851e+000,3.1933735173e+000,3.3315135215e+000,7.3576246950e+000,3.8631437868e+000,2.6226068324e+000,3.8198836489e+000,3.8203383230e+000,
2.9062500000e+001,3.7220521413e+000,3.5724615479e+000,2.4409391916e+000,3.4396253127e+000,4.1805666604e+000,4.0403067815e+000,2.5356981287e+000,3.1753053734e+000,3.2717644895e+000,7.2724266230e+000,3.7360578877e+000,2.6774123578e+000,3.7894480487e+000,3.9267514473e+000,
2.9156250000e+001,3.5476875654e+000,3.5808940465e+000,2.4693579712e+000,3.4865264738e+000,3.9981125448e+000,4.0435589231e+000,2.4654921871e+000,3.2053435715e+000,3.2224337856e+000,6.9890682389e+000,3.7347429892e+000,2.5358627931e+000,3.7663778487e+000,3.8480559011e+000,
2.9250000000e+001,3.4611291453e+000,3.5080913767e+000,2.3700341362e+000,3.4655497438e+000,3.9039554764e+000,4.0238570844e+000,2.4218395533e+000,3.1180700025e+000,3.2386424537e+000,7.0538372765e+000,3.8108130218e+000,2.6367920975e+000,3.7793904982e+000,3.7767283897e+000,
2.9343750000e+001,3.4586803930e+000,3.4902218054e+000,2.4872484933e+000,3.6196976988e+000,3.8656164034e+000,4.0909017078e+000,2.4292558585e+000,3.1667076522e+000,3.2727044082e+000,6.3792616119e+000,3.8586244232e+000,2.6563787340e+000,3.7159123965e+000,3.7316180778e+000,
2.9437500000e+001,3.5061653144e+000,3.6192815143e+000,2.5445992423e+000,3.6289735905e+000,3.8837303492e+000,4.1718631954e+000,2.3737334269e+000,3.2237096641e+000,3.3486398738e+000,6.5234271386e+000,3.8100019566e+000,2.7254597558e+000,3.7360041959e+000,3.7097583584e+000,
2.9531250000e+001,3.6066748651e+000,3.6319795170e+000,2.4890690476e+000,3.6368248897e+000,3.8635283355e+000,4.1585604402e+000,2.2893070040e+000,3.2286285749e+000,3.3594940409e+000,6.5800724417e+000,3.8303808586e+000,2.6920703428e+000,3.6968372979e+000,3.6535762277e+000,
2.9625000000e+001,3.6819806246e+000,3.6835073675e+000,2.5355511250e+000,3.6348609651e+000,3.8389049568e+000,4.2184097682e+000,2.3548449378e+000,3.2778776002e+000,3.3686165048e+000,6.7512456188e+000,3.8556087091e+000,2.6577026056e+000,3.6225038203e+000,3.7002956736e+000,
2.9718750000e+001,3.6888023279e+000,3.7021540112e+000,2.5625145943e+000,3.6313325535e+000,3.8221976104e+000,4.2648468851e+000,2.4172703786e+000,3.3058452307e+000,3.3356221322e+000,6.7277033703e+000,3.7726640651e+000,2.6585751995e+000,3.5833547009e+000,3.7635186382e+000,
2.9812500000e+001,3.6959247213e+000,3.6600360592e+000,2.5173385223e+000,3.5744443951e+000,3.8092192850e+000,4.2426029421e+000,2.3822471611e+000,3.3164045226e+000,3.3289150547e+000,6.6818353319e+000,3.7324698883e+000,2.8287213857e+000,3.6193740516e+000,3.9136206688e+000,
2.9906250000e+001,3.6933266334e+000,3.5493623887e+000,2.5138968587e+000,3.4725662501e+000,3.6993004297e+000,4.1943194178e+000,2.2599998002e+000,3.2983668470e+000,3.2233550837e+000,6.8363727531e+000,3.7339491552e+000,2.8914419282e+000,3.7251994601e+000,4.0500134006e+000,
3.0000000000e+001,4.3962293899e+000,3.8450061733e+000,2.6007164685e+000,3.5483013751e+000,3.8792124517e+000,4.3020276957e+000,2.2744590392e+000,3.3040694676e+000,3.1446487761e+000,6.8438603926e+000,3.7010354916e+000,2.8634730759e+000,3.8113383437e+000,4.0118888404e+000,
3.0093750000e+001,4.6530566944e+000,3.9092798191e+000,2.6345536689e+000,3.6318981432e+000,3.8180269921e+000,4.3365674885e+000,2.1750071014e+000,3.2533624141e+000,3.1223230769e+000,6.9313621631e+000,3.7253072526e+000,2.8907338825e+000,3.8388063657e+000,3.9571099188e+000,
3.0187500000e+001,4.6891571797e+000,3.8854211987e+000,2.5107808055e+000,3.5788608764e+000,3.7497417373e+000,4.3338295548e+000,2.2490061850e+000,3.2473005672e+000,3.0346137697e+000,6.9081962143e+000,3.6346792862e+000,2.8950359673e+000,3.7025691554e+000,3.9312652905e+000,
3.0281250000e+001,4.8264962656e+000,3.9704195937e+000,2.4849765433e+000,3.5613474578e+000,4.0978982090e+000,4.4227188215e+000,2.3778146627e+000,3.2722982131e+000,2.9734266366e+000,6.8585830471e+000,3.4833125372e+000,2.8586517107e+000,3.6946420058e+000,3.9205530193e+000,
3.0375000000e+001,4.8440405088e+000,4.0122934555e+000,2.5745861260e+000,3.5721698383e+000,4.1407147607e+000,4.3658619281e+000,2.4388558231e+000,3.1626429945e+000,2.9137129633e+000,6.8903011113e+000,3.3714556175e+000,2.8474441759e+000,3.6397977695e+000,3.9028103278e+000,
3.0468750000e+001,4.8338408876e+000,4.0498280322e+000,2.5551766321e+000,3.5665146208e+000,4.1692742107e+000,4.4890648011e+000,2.4576806001e+000,3.1658002640e+000,2.8646518572e+000,6.7123850838e+000,3.3334082555e+000,2.9056557707e+000,3.7555970456e+000,3.9297831139e+000,
3.0562500000e+001,4.8040181727e+000,4.1557134005e+000,2.5337897007e+000,3.6764806026e+000,4.2562390817e+000,4.9060967159e+000,2.4741414529e+000,3.5007424288e+000,2.8653600261e+000,6.6579074162e+000,3.3532735237e+000,2.9113481503e+000,3.7037770262e+000,3.8520484878e+000,
3.0656250000e+001,4.8229041163e+000,4.1625585930e+000,2.5426052367e+000,3.7203162366e+000,4.2823137003e+000,4.9175585232e+000,2.5113962857e+000,3.3709134297e+000,3.0068687582e+000,6.9499113146e+000,3.4025933339e+000,2.9204476790e+000,3.6846881662e+000,3.7703635418e+000,
3.0750000000e+001,4.8566591751e+000,4.2443799554e+000,2.5951673731e+000,3.8101277754e+000,4.2950207683e+000,4.9202147051e+000,2.4831346832e+000,3.4299737121e+000,3.0534669713e+000,7.2025797273e+000,3.3668275713e+000,2.8847354782e+000,3.6314315556e+000,3.7655465162e+000,
3.0843750000e+001,4.8595018190e+000,4.2830211609e+000,2.5994738425e+000,3.8399114257e+000,4.3194029513e+000,5.0426459660e+000,2.4907921510e+000,3.4514346825e+000,3.0276317735e+000,7.1922233376e+000,3.2844858973e+000,2.6873200803e+000,3.5545005960e+000,3.5830104593e+000,
3.0937500000e+001,4.7837159357e+000,4.2275561873e+000,2.5207079129e+000,3.7824714074e+000,4.3004980920e+000,5.0304689847e+000,2.4131136501e+000,3.4108361377e+000,3.0223103785e+000,7.1058204561e+000,3.3288357866e+000,2.6294389035e+000,3.4823144985e+000,3.7085722809e+000,
3.1031250000e+001,4.4173481398e+000,4.0784927943e+000,2.5285211421e+000,3.6907195026e+000,4.2177395635e+000,4.9994288601e+000,2.3781697540e+000,3.4475234491e+000,3.0253347007e+000,7.0573692969e+000,3.3043874225e+000,2.7146647170e+000,3.4140918809e+000,3.8003999317e+000,
3.1125000000e+001,4.0008184118e+000,4.0222514600e+000,2.5550677626e+000,3.6516018463e+000,4.1141536844e+000,4.9980556413e+000,2.2744378944e+000,3.4518522199e+000,3.1081466566e+000,7.0007396530e+000,3.2906603403e+000,2.6248448885e+000,3.6857645112e+000,3.9307691415e+000,
3.1218750000e+001,4.3803469861e+000,4.1385176412e+000,2.6999930848e+000,3.7518062725e+000,4.7959193309e+000,5.0576774600e+000,2.6190691959e+000,3.4807350346e+000,3.1608369885e+000,7.0127048858e+000,3.3626690689e+000,2.5978238989e+000,3.7962423848e+000,4.0405683788e+000,
3.1312500000e+001,4.3669275293e+000,4.1053484709e+000,2.6984727480e+000,3.6359754671e+000,4.7268625965e+000,5.0225158749e+000,2.5537414165e+000,3.5024527547e+000,3.1816253541e+000,6.9601040352e+000,3.4496105724e+000,2.7486053763e+000,3.7951331035e+000,4.2388744321e+000,
3.1406250000e+001,4.3413378229e+000,4.0543422509e+000,2.6151653770e+000,3.6039559878e+000,4.6895157483e+000,5.0117795530e+000,2.4808227945e+000,3.4945450944e+000,3.1902940114e+000,6.9256258885e+000,3.4128900501e+000,2.7405904385e+000,3.7165134483e+000,4.2204911081e+000,
3.1500000000e+001,4.3436954640e+000,3.8995862260e+000,2.6157383788e+000,3.4949605929e+000,4.6599389034e+000,4.6165606054e+000,2.5650106513e+000,3.2343680107e+000,3.2357502414e+000,7.1252379085e+000,3.4533266836e+000,2.7387699438e+000,3.6471024349e+000,4.2679954768e+000,
3.1593750000e+001,4.3312180117e+000,3.8314453718e+000,2.6361620302e+000,3.4396810387e+000,4.6208703699e+000,4.5019722591e+000,2.5954966159e+000,3.1516422142e+000,3.1674549432e+000,7.1990545084e+000,3.4697119389e+000,2.7856745884e+000,3.6546053966e+000,4.3045382404e+000,
3.1687500000e+001,4.2827184872e+000,3.7740058550e+000,2.6081251047e+000,3.3484008543e+000,4.6008612044e+000,4.4975823968e+000,2.5223666860e+000,3.1282756694e+000,3.0103969974e+000,6.5994798345e+000,3.5156015048e+000,2.7661574264e+000,3.6924427898e+000,4.3952916767e+000,
3.1781250000e+001,4.2347236551e+000,3.6324835657e+000,2.5469058691e+000,3.1648757086e+000,4.6125738714e+000,4.4083649893e+000,2.6496722102e+000,3.0136900210e+000,3.0371109550e+000,6.5809129994e+000,3.5562941179e+000,2.7999866335e+000,3.6734234639e+000,4.3491133818e+000,
3.1875000000e+001,4.2453344450e+000,3.6144007717e+000,2.5586195691e+000,3.1623105625e+000,4.5673643807e+000,4.1593695610e+000,2.6956771336e+000,2.9392493635e+000,3.0185713616e+000,6.6324179057e+000,3.4833556010e+000,2.7707941650e+000,3.6082758670e+000,4.2863704627e+000,
3.1968750000e+001,4.3512953451e+000,3.6638288377e+000,2.5207121153e+000,3.1048528826e+000,4.5850664651e+000,4.2427397365e+000,2.7779853722e+000,2.9291492246e+000,3.0481883199e+000,6.6368277929e+000,3.4860701870e+000,2.8930545882e+000,3.6105796572e+000,4.1499727664e+000,
3.2062500000e+001,4.4023627340e+000,3.6209696848e+000,2.5640247924e+000,3.2248189997e+000,4.5994542613e+000,4.2376017829e+000,2.8224986566e+000,2.8639190710e+000,3.0941817085e+000,6.6392463795e+000,3.4914891246e+000,2.8913890004e+000,3.6217974150e+000,4.2101215118e+000,
3.2156250000e+001,4.3497098984e+000,3.8327369249e+000,2.4593495539e+000,3.3784172167e+000,4.4076206777e+000,4.7687151917e+000,2.7480459637e+000,3.0911827709e+000,3.1080568094e+000,6.5701858244e+000,3.4431602945e+000,2.9218532090e+000,3.4770789151e+000,4.1679812242e+000,
3.2250000000e+001,3.8946187560e+000,3.7238033653e+000,2.3854200888e+000,3.3412343580e+000,3.6965714284e+000,4.7211850255e+000,2.5317038367e+000,3.0301396824e+000,3.0599484250e+000,6.4670543976e+000,3.3572050545e+000,2.7941222921e+000,3.3991421031e+000,3.9306763499e+000,
3.2343750000e+001,3.8298872094e+000,3.7118499039e+000,2.3491172983e+000,3.2830917466e+000,3.7864533165e+000,4.6207123500e+000,2.6125985569e+000,2.9227539750e+000,3.0554187627e+000,6.4724142152e+000,3.3201331563e+000,2.6867353281e+000,3.4235122257e+000,3.8766605867e+000,
3.2437500000e+001,3.9528603870e+000,3.8062700081e+000,2.3706086300e+000,3.3043639766e+000,3.9498711077e+000,4.7044906756e+000,2.6032329770e+000,3.1278969979e+000,3.0877392675e+000,6.4436938591e+000,3.2707482261e+000,2.6148280897e+000,3.4697193197e+000,3.8305146630e+000,
3.2531250000e+001,3.8800658548e+000,3.7800714347e+000,2.3390346694e+000,3.3310277485e+000,3.9690903659e+000,4.6877496584e+000,2.5591403227e+000,3.0403039832e+000,3.0690601224e+000,5.9967823189e+000,3.2753880137e+000,2.6104305288e+000,3.5436015612e+000,3.7759519958e+000,
3.2625000000e+001,3.8936674477e+000,3.7974760065e+000,2.3150107444e+000,3.3568380708e+000,3.9558572663e+000,4.6995314150e+000,2.5232418043e+000,3.0382541667e+000,3.1466943765e+000,5.7048457858e+000,3.2105981740e+000,2.6594734286e+000,3.5811620391e+000,3.7178023540e+000,
3.2718750000e+001,3.9646120995e+000,3.7921010254e+000,2.3037936190e+000,3.3719118165e+000,3.9980699808e+000,4.7239159057e+000,2.6315613853e+000,3.0407675161e+000,3.1100816512e+000,6.3474162853e+000,3.2663127014e+000,2.6806979761e+000,3.7006267395e+000,3.6615688610e+000,
3.2812500000e+001,3.9893382131e+000,3.7672813261e+000,2.3351464566e+000,3.3668601610e+000,4.0792150124e+000,4.6952966535e+000,2.5104988152e+000,3.0544707722e+000,3.0632400840e+000,6.4066774588e+000,3.3417548923e+000,2.6691065418e+000,3.7469569198e+000,3.7522728500e+000,
3.2906250000e+001,3.9310721224e+000,3.8622060275e+000,2.3639120822e+000,3.4276171974e+000,4.3108196492e+000,4.7334860441e+000,2.5156549482e+000,3.0613914331e+000,3.0910892616e+000,6.4410534754e+000,3.4068047848e+000,2.6892647260e+000,3.7202666130e+000,3.8070645056e+000,
3.3000000000e+001,3.8037710461e+000,3.8144428418e+000,2.3865710361e+000,3.3918005112e+000,4.3398725572e+000,4.6605726054e+000,2.4302930483e+000,3.0316830367e+000,3.0469995023e+000,6.4297030123e+000,3.4122259531e+000,2.5704546227e+000,3.6755124558e+000,3.7631603995e+000,
3.3093750000e+001,3.8173519185e+000,3.7151520892e+000,2.3459401345e+000,3.2118231583e+000,4.3522473423e+000,4.3944346316e+000,2.3703951665e+000,2.9068104848e+000,2.9291454431e+000,6.4253121629e+000,3.4465095284e+000,2.5323410508e+000,3.6547411650e+000,3.6998671315e+000,
3.3187500000e+001,3.8169121315e+000,3.5340875926e+000,2.3330220208e+000,3.1375022906e+000,4.1954866810e+000,3.9937160483e+000,2.3054755729e+000,2.7867491208e+000,2.8468427055e+000,6.4155707506e+000,3.5394127276e+000,2.5402229003e+000,3.6344026049e+000,3.5840831789e+000,
3.3281250000e+001,3.9057211957e+000,3.5386751024e+000,2.3481718050e+000,3.1106892846e+000,4.1604413499e+000,3.9748612240e+000,2.3161926379e+000,2.8703062574e+000,2.8453313407e+000,6.3945394800e+000,3.5096013335e+000,2.5556937162e+000,3.7015302699e+000,3.5049598592e+000,
3.3375000000e+001,3.7776731534e+000,3.3889778761e+000,2.3293752132e+000,3.1090754756e+000,4.0854589628e+000,3.9007416686e+000,2.1649619962e+000,2.7440590493e+000,2.8145326045e+000,6.3923202224e+000,3.5886924141e+000,2.5768574607e+000,3.7152549494e+000,3.5261867808e+000,
3.3468750000e+001,3.7461316111e+000,3.3073270413e+000,2.3060819978e+000,3.1582533233e+000,3.9418587424e+000,3.8355255609e+000,2.1630164949e+000,2.6939980681e+000,2.7817511245e+000,6.3789573900e+000,3.6598130788e+000,2.7137958498e+000,3.7300349389e+000,3.5313648790e+000,
3.3562500000e+001,3.8247970628e+000,3.3598988097e+000,2.4107151556e+000,3.2462994106e+000,4.0399495578e+000,3.8086788852e+000,2.3055706838e+000,2.7716854798e+000,2.8008104315e+000,6.3640055040e+000,3.6914379047e+000,2.7676156345e+000,3.7300574594e+000,3.6249835710e+000,
3.3656250000e+001,4.0017111448e+000,3.3654272880e+000,2.5162304865e+000,3.3373265662e+000,4.3211978547e+000,3.8278809815e+000,2.4516914405e+000,2.7303281427e+000,2.6168963295e+000,6.2664619801e+000,3.6527968371e+000,2.8400654388e+000,3.6655391688e+000,3.7529644787e+000,
3.3750000000e+001,4.0898927644e+000,3.4257007105e+000,2.7090701975e+000,3.4040947302e+000,4.3799905515e+000,3.8446347971e+000,2.4703744802e+000,2.7209283500e+000,2.8199675072e+000,7.8651292431e+000,3.6905009123e+000,2.8797783740e+000,3.6170140610e+000,3.8939676541e+000,
3.3843750000e+001,4.0693025028e+000,3.4345905060e+000,2.6665405024e+000,3.4014761634e+000,4.1122923313e+000,3.8302271140e+000,2.3941536576e+000,2.7801300506e+000,2.8124396021e+000,8.8968651858e+000,3.5972626588e+000,2.9597259648e+000,3.5571553256e+000,3.8627096831e+000,
3.3937500000e+001,4.1417604947e+000,3.2824961748e+000,2.6246421611e+000,3.3434648681e+000,4.0588187663e+000,3.7453273785e+000,2.3687399757e+000,2.7567104198e+000,2.8108825585e+000,8.9679417974e+000,3.6236429720e+000,2.9773781263e+000,3.5710693702e+000,3.8869178970e+000,
3.4031250000e+001,4.2505526634e+000,3.3716738838e+000,2.5571011008e+000,3.3597554562e+000,4.0520643265e+000,3.7207326273e+000,2.4576545055e+000,2.7878163052e+000,2.8592879138e+000,9.0355783139e+000,3.6206918046e+000,2.9286771934e+000,3.4882822818e+000,3.7946264689e+000,
3.4125000000e+001,4.3296263552e+000,3.4432020442e+000,2.6204168784e+000,3.4105524512e+000,4.0826109583e+000,3.7679268161e+000,2.4468419507e+000,2.7689360429e+000,2.8956829370e+000,9.0777802003e+000,3.6291088286e+000,2.9471435554e+000,3.4428263342e+000,3.8604951709e+000,
3.4218750000e+001,4.3905522959e+000,3.5737077898e+000,2.6915942301e+000,3.5675246889e+000,4.1214707422e+000,3.9778517635e+000,2.4658855268e+000,2.9113663330e+000,2.9220606135e+000,9.0944223342e+000,3.6250225766e+000,2.9617593493e+000,3.3968455994e+000,4.0011573393e+000,
3.4312500000e+001,4.3504693910e+000,3.6188278753e+000,2.6559324742e+000,3.5174668198e+000,4.1060168813e+000,3.9953651174e+000,2.4855011511e+000,2.8649686185e+000,2.9026127969e+000,9.1078269989e+000,3.6321711154e+000,2.9910888040e+000,3.3818388462e+000,4.0272614267e+000,
3.4406250000e+001,4.3287301278e+000,3.6390769374e+000,2.6790051021e+000,3.5027712333e+000,4.1167285534e+000,4.1519528537e+000,2.4944079442e+000,2.9097144263e+000,2.9476966238e+000,9.1138641574e+000,3.6015196774e+000,2.9861713919e+000,3.4215595400e+000,4.0591734842e+000,
3.4500000000e+001,4.3864756131e+000,3.7186134680e+000,2.6663158106e+000,3.4325558416e+000,4.2329509251e+000,4.6342788259e+000,2.5033707732e+000,3.0704726235e+000,2.9773920103e+000,9.1201073973e+000,3.5045326799e+000,2.9652239067e+000,3.3562586332e+000,4.0356633960e+000,
3.4593750000e+001,4.2775080324e+000,3.7420496667e+000,2.6747004015e+000,3.3338911055e+000,4.2169646501e+000,4.7189844689e+000,2.2790040979e+000,3.0943655108e+000,2.9469244663e+000,9.1190482769e+000,3.4537216807e+000,2.8304267260e+000,3.4086225755e+000,3.9975802251e+000,
3.4687500000e+001,4.1370821812e+000,3.7098111114e+000,2.5187042893e+000,3.3175827377e+000,3.9470902531e+000,4.6917415215e+000,2.0544524549e+000,3.0702664613e+000,2.8371014896e+000,9.1111318759e+000,3.2856045266e+000,2.6500076056e+000,3.3809234365e+000,3.8688610410e+000,
3.4781250000e+001,4.1533302873e+000,4.0102080716e+000,2.6923543395e+000,3.3780278684e+000,4.0162062451e+000,4.8684732763e+000,2.1510464574e+000,3.4002681436e+000,2.8089647593e+000,8.2916067672e+000,3.5948879573e+000,2.8226040071e+000,3.4534456515e+000,3.7868687800e+000,
3.4875000000e+001,4.1696270797e+000,3.9692940007e+000,2.6856675000e+000,3.3488834507e+000,4.1715354065e+000,4.8523437560e+000,2.1941223751e+000,3.3618230660e+000,2.8652120533e+000,7.2821491118e+000,3.6561640134e+000,2.7026158107e+000,3.5645325190e+000,3.6971362009e+000,
3.4968750000e+001,4.1320745320e+000,4.0022354446e+000,2.7157303710e+000,3.3579760334e+000,4.1718151421e+000,4.8596712765e+000,2.1399214246e+000,3.3483575322e+000,2.8477172717e+000,7.0779966859e+000,3.5999559198e+000,2.6785371466e+000,3.5778096133e+000,3.8427855323e+000,
3.5062500000e+001,3.8823959160e+000,3.9727033742e+000,2.7269851713e+000,3.4384385813e+000,4.1561024354e+000,4.8818669555e+000,2.1472927009e+000,3.3967039257e+000,2.9011457970e+000,6.4482342120e+000,3.6088448402e+000,2.7976067450e+000,3.6174351856e+000,3.8616469747e+000,
3.5156250000e+001,3.9851989800e+000,4.1013191119e+000,2.7867874535e+000,3.5295925357e+000,4.1287732617e+000,4.9141938981e+000,2.2016981548e+000,3.4516786891e+000,2.9768594405e+000,6.2413246969e+000,3.5928591237e+000,2.8713780385e+000,3.6902940157e+000,3.8112571187e+000,
3.5250000000e+001,4.5877977160e+000,4.1842154581e+000,2.7375743360e+000,3.4101002363e+000,4.3942374005e+000,4.9051949124e+000,2.3062833734e+000,3.3879962039e+000,2.9319394673e+000,5.8995123208e+000,3.6122356771e+000,2.8786455379e+000,3.7121192605e+000,3.8173946838e+000,
3.5343750000e+001,4.6754690447e+000,4.1791671223e+000,2.6960769270e+000,3.3880848500e+000,4.4022992818e+000,4.9088894984e+000,2.2460480719e+000,3.3684030105e+000,2.8894748399e+000,5.5400809971e+000,3.6217501924e+000,2.8411047316e+000,3.8001772281e+000,3.8967120729e+000,
3.5437500000e+001,4.7138337973e+000,4.2095293518e+000,2.6975705449e+000,3.4693155180e+000,4.4474436857e+000,4.8819894850e+000,2.3045145107e+000,3.4158290618e+000,2.8199515535e+000,5.1040099112e+000,3.6504064835e+000,2.9093457990e+000,3.8853075877e+000,3.8995341478e+000,
3.5531250000e+001,4.7046462319e+000,4.1543500918e+000,2.6826183133e+000,3.4360969905e+000,4.2256541924e+000,4.5621561789e+000,2.2767379769e+000,3.2410826287e+000,2.8152651058e+000,4.9682191021e+000,3.6375178797e+000,2.9287566779e+000,3.8491578492e+000,3.8573366357e+000,
3.5625000000e+001,4.7105164759e+000,4.1724420612e+000,2.6265595659e+000,3.4822391463e+000,4.2240740653e+000,4.5983124319e+000,2.4339876301e+000,3.2769293126e+000,2.9550777162e+000,4.9733739966e+000,3.6974403277e+000,2.9802612120e+000,3.8363410811e+000,3.8447487304e+000,
3.5718750000e+001,4.6447869049e+000,3.9767457078e+000,2.4087408458e+000,3.3325898540e+000,4.1326409724e+000,4.3892109665e+000,2.3029857437e+000,2.9820700262e+000,3.0006417857e+000,4.9880696258e+000,3.4471395741e+000,2.9704379768e+000,3.7968110511e+000,4.0096032916e+000,
3.5812500000e+001,4.6556238135e+000,3.9561485465e+000,2.4307596760e+000,3.4306986623e+000,4.2761321209e+000,4.5291226646e+000,2.4391754356e+000,3.0675911265e+000,2.9975837499e+000,5.1442025438e+000,3.4888308626e+000,2.9521279384e+000,3.7926410982e+000,4.1086585667e+000,
3.5906250000e+001,4.6564444480e+000,3.9687304990e+000,2.4031172111e+000,3.4512400338e+000,4.1818148757e+000,4.5749557565e+000,2.5127372607e+000,3.1415886197e+000,2.9322130236e+000,5.3931564652e+000,3.5308130643e+000,2.9543338271e+000,3.7940328333e+000,4.0093615844e+000,
3.6000000000e+001,4.6447702963e+000,4.0288909936e+000,2.3711377710e+000,3.5223218127e+000,4.0930833972e+000,4.6756140265e+000,2.4319366058e+000,3.2495416322e+000,2.9774593259e+000,6.5723161546e+000,3.5544359884e+000,2.9938202184e+000,3.8677756465e+000,3.9972744129e+000,
3.6093750000e+001,4.6410074670e+000,3.9573974765e+000,2.4254026600e+000,3.4813186417e+000,4.0643991012e+000,4.6662408988e+000,2.4966628464e+000,3.2638620732e+000,2.9241562213e+000,6.7124322770e+000,3.5754930830e+000,2.9142329737e+000,3.8517170299e+000,3.9674786180e+000,
3.6187500000e+001,4.3204304780e+000,3.8962073233e+000,2.3438653404e+000,3.5107445958e+000,3.8917123677e+000,4.7247822282e+000,2.4170049026e+000,3.3019510486e+000,2.8759370390e+000,6.6965931617e+000,3.4348645369e+000,2.8260118799e+000,3.7668380339e+000,3.8828196977e+000,
3.6281250000e+001,3.6295637290e+000,3.6873481058e+000,2.4348391156e+000,3.5087681317e+000,3.7032747947e+000,4.6762750950e+000,2.5043839717e+000,3.3489898395e+000,2.9287540257e+000,6.7085428693e+000,3.4988525240e+000,2.8067183827e+000,3.7375639717e+000,3.7737196601e+000,
3.6375000000e+001,3.6119527218e+000,3.7572545274e+000,2.5099374582e+000,3.5626973647e+000,3.7276665145e+000,4.6996113875e+000,2.5589526603e+000,3.4533271133e+000,2.9547828642e+000,6.7329162925e+000,3.5467038880e+000,2.9006207951e+000,3.6806250776e+000,3.8313582209e+000,
3.6468750000e+001,3.4756410772e+000,3.6855240950e+000,2.6111601402e+000,3.5684587559e+000,3.6746822115e+000,4.5723810366e+000,2.6206729201e+000,3.4062346214e+000,3.0354213544e+000,6.8792523849e+000,3.5378977192e+000,2.9499954970e+000,3.6253147248e+000,3.8492145715e+000,
3.6562500000e+001,3.6031771187e+000,3.7145726760e+000,2.6544183285e+000,3.6126342550e+000,3.7514036943e+000,4.6097616965e+000,2.6604392066e+000,3.4864774717e+000,2.9993428729e+000,6.9467331731e+000,3.6042678658e+000,2.9644656006e+000,3.6572757465e+000,3.7964906322e+000,
3.6656250000e+001,3.6788372215e+000,3.7863876844e+000,2.8233340438e+000,3.7114928088e+000,3.7838774627e+000,4.6717816575e+000,2.6382674425e+000,3.5969485665e+000,3.0079687552e+000,6.9500306089e+000,3.6790837929e+000,3.0532054487e+000,3.6213594084e+000,3.8210587376e+000,
3.6750000000e+001,3.7265272726e+000,3.7619465256e+000,2.7908783309e+000,3.6972898920e+000,3.6488415098e+000,4.6481081166e+000,2.5251256229e+000,3.5710489945e+000,2.9384802105e+000,6.9263816258e+000,3.6974004243e+000,2.9557512780e+000,3.6666218712e+000,3.7300990109e+000,
3.6843750000e+001,3.7373798334e+000,3.7122585337e+000,2.7602946756e+000,3.6438967275e+000,3.4875972715e+000,4.5895862865e+000,2.4776396693e+000,3.4736104128e+000,2.9859689916e+000,6.9069032719e+000,3.6373112171e+000,2.9869361918e+000,3.6756082245e+000,3.6124628975e+000,
3.6937500000e+001,3.6582055451e+000,3.7377175076e+000,2.7999867633e+000,3.6204170246e+000,3.5012142376e+000,4.5643209751e+000,2.4967734813e+000,3.4971930089e+000,2.9740656406e+000,6.6835746725e+000,3.6113055794e+000,2.9369574103e+000,3.5529748454e+000,3.5695290757e+000,
3.7031250000e+001,3.6094389229e+000,3.6872863925e+000,2.7965338228e+000,3.6009705029e+000,3.5639582021e+000,4.4870084867e+000,2.5373155810e+000,3.4187462608e+000,2.9566211051e+000,5.8622037974e+000,3.6090144494e+000,2.9022507252e+000,3.4840902427e+000,3.5563222924e+000,
3.7125000000e+001,3.8344599340e+000,3.6901816017e+000,2.7649213835e+000,3.5496408056e+000,4.1175706175e+000,4.5092437512e+000,2.6292969788e+000,3.4408706927e+000,2.9662887171e+000,5.7477431572e+000,3.6154790963e+000,2.8396551083e+000,3.4601321157e+000,3.5630984057e+000,
3.7218750000e+001,3.8566692032e+000,3.6155785046e+000,2.7167993657e+000,3.4494433769e+000,4.2282840768e+000,4.4961390101e+000,2.6143258865e+000,3.4170661313e+000,3.0100706520e+000,7.3644469777e+000,3.7393570814e+000,2.9829835830e+000,3.5231151468e+000,3.8422977507e+000,
3.7312500000e+001,3.8983596639e+000,3.6602354731e+000,2.7873045778e+000,3.5399033705e+000,4.2406684199e+000,4.4715481780e+000,2.5225407465e+000,3.3827559712e+000,3.0049570175e+000,8.9652149761e+000,3.8437694403e+000,3.1504245697e+000,3.6077997826e+000,4.1859605282e+000,
3.7406250000e+001,3.8581788493e+000,3.5773602906e+000,2.7005289974e+000,3.5247847296e+000,4.2455083172e+000,4.3698368462e+000,2.5113367257e+000,3.3411985102e+000,2.9797224957e+000,8.9950383604e+000,3.9204008332e+000,3.1260886318e+000,3.5680582469e+000,4.0886863178e+000,
3.7500000000e+001,3.7949879374e+000,3.5878711048e+000,2.5961240038e+000,3.4388864064e+000,4.1995365889e+000,4.5034859617e+000,2.4037494064e+000,3.3615009299e+000,3.0104566695e+000,8.9869365767e+000,3.9469892575e+000,3.0237913830e+000,3.5955365393e+000,4.0867178943e+000,
3.7593750000e+001,3.6511928262e+000,3.5235807884e+000,2.5244544369e+000,3.3770517176e+000,4.1504763613e+000,4.3762919024e+000,2.2996029954e+000,3.2405742729e+000,2.9987440804e+000,8.9815507044e+000,3.8498199316e+000,2.8935536540e+000,3.5274983552e+000,4.0691061293e+000,
3.7687500000e+001,3.7022963416e+000,3.4906157653e+000,2.3967445518e+000,3.3582138812e+000,4.1243516829e+000,4.3299456993e+000,2.3124615815e+000,3.1940925678e+000,2.9548852519e+000,8.9815072081e+000,3.7900767501e+000,2.9121208034e+000,3.5328208087e+000,4.0939368952e+000,
3.7781250000e+001,3.6575468392e+000,3.5651637109e+000,2.3947121792e+000,3.3913029760e+000,4.1401509946e+000,4.3945323569e+000,2.3368679485e+000,3.2582215918e+000,2.9181021589e+000,8.9814352211e+000,3.7602937711e+000,2.8810747637e+000,3.4226475848e+000,4.1245240347e+000,
3.7875000000e+001,3.6335985293e+000,3.5622493244e+000,2.3381479100e+000,3.3977607485e+000,4.1264353199e+000,4.3539406073e+000,2.3903407221e+000,3.2294998892e+000,2.8344517759e+000,8.9821136256e+000,3.7606326864e+000,2.8501356352e+000,3.3931793069e+000,4.1190148477e+000,
3.7968750000e+001,3.6621626601e+000,3.5431179449e+000,2.4412628052e+000,3.3861863334e+000,4.1076232212e+000,4.4163883681e+000,2.3992009173e+000,3.1992777326e+000,2.7768646298e+000,8.9842745455e+000,3.7529772415e+000,2.9384782972e+000,3.3853000561e+000,4.1355494133e+000,
3.8062500000e+001,3.8392008043e+000,3.8269325196e+000,2.6280389996e+000,3.5539695520e+000,4.1623528401e+000,4.5513287070e+000,2.3864542216e+000,3.3407868205e+000,2.7811801170e+000,9.2445508745e+000,3.8236652253e+000,3.0749335522e+000,3.4523247012e+000,4.2681074611e+000,
3.8156250000e+001,3.6841211663e+000,3.8813685330e+000,2.6173625712e+000,4.1319770500e+000,3.7122851561e+000,4.5319146348e+000,2.4507779668e+000,3.3339116598e+000,2.8762132331e+000,1.0400151316e+001,3.7717855284e+000,4.1938418427e+000,3.5063561099e+000,4.8855596130e+000,
3.8250000000e+001,3.6776516870e+000,3.8774718475e+000,2.6180714482e+000,4.1945396545e+000,3.8573971690e+000,4.5309258758e+000,2.5626095504e+000,3.2212547985e+000,2.8670231092e+000,1.0545091427e+001,3.6195696641e+000,4.3018926152e+000,3.3908992922e+000,4.8830753536e+000,
3.8343750000e+001,3.6556511601e+000,3.8162185143e+000,2.5759580587e+000,4.1700345465e+000,3.8339076631e+000,4.5612198124e+000,2.5062513194e+000,3.2652498326e+000,2.7582997598e+000,1.0572158707e+001,3.3755020759e+000,4.2870299874e+000,3.3851126265e+000,4.8637616729e+000,
3.8437500000e+001,3.7750432201e+000,3.8429571770e+000,2.6419814126e+000,4.1619011114e+000,3.8557133244e+000,4.5471107603e+000,2.5333289550e+000,3.2917850173e+000,2.7078182356e+000,1.0621982731e+001,3.3490142399e+000,4.2957325801e+000,3.4162662973e+000,4.9100868222e+000,
3.8531250000e+001,3.8324131146e+000,3.8071814974e+000,2.7178506289e+000,4.1841670106e+000,3.8840015532e+000,4.4782241238e+000,2.6103454881e+000,3.3032722426e+000,2.7931013123e+000,1.0633062762e+001,3.4063613183e+000,4.3158828185e+000,3.5897752312e+000,4.9244991670e+000,
3.8625000000e+001,3.8651771540e+000,3.8497870937e+000,2.7453529347e+000,4.2195434621e+000,3.9166866370e+000,4.4868578847e+000,2.6838236523e+000,3.2407481474e+000,2.7775470908e+000,1.0649884649e+001,3.4261072771e+000,4.3221938682e+000,3.6497636891e+000,4.9445336892e+000,
3.8718750000e+001,3.9727459670e+000,3.9058676947e+000,2.7557460047e+000,4.2304498676e+000,4.0426708655e+000,4.5704737919e+000,2.8032780488e+000,3.3167303246e+000,2.8822742203e+000,1.0681695745e+001,3.5562210492e+000,4.3269133420e+000,3.7060992739e+000,4.9344207826e+000,
3.8812500000e+001,4.1078935387e+000,3.8775310121e+000,2.7392404074e+000,4.2294182401e+000,4.2405844647e+000,4.5316854023e+000,2.9908285087e+000,3.2874962623e+000,2.9357318898e+000,1.0710726757e+001,3.6419834841e+000,4.3211072695e+000,3.7644219899e+000,4.9327461500e+000,
3.8906250000e+001,4.2587380047e+000,3.9383601244e+000,2.8396601955e+000,4.2693853609e+000,4.4386519349e+000,4.6539112675e+000,3.0993626095e+000,3.4266487079e+000,3.0137830537e+000,1.0715309596e+001,3.7187500084e+000,4.3248941730e+000,3.7537247165e+000,4.9668328670e+000,
3.9000000000e+001,4.2493260793e+000,3.9157727172e+000,2.7840760253e+000,4.2775893381e+000,4.4452131348e+000,4.5650999341e+000,3.0578803986e+000,3.4233636807e+000,3.1261981104e+000,1.0738522538e+001,3.5676652852e+000,4.3128751308e+000,3.8203768541e+000,5.0113995065e+000,
3.9093750000e+001,4.1789594065e+000,3.6868131414e+000,2.6206957589e+000,4.0574857772e+000,4.3816703431e+000,4.3694480449e+000,3.0284745659e+000,3.2423687573e+000,3.2487100016e+000,1.0438780508e+001,3.7315638389e+000,3.9400154188e+000,3.8544118438e+000,4.7736666347e+000,
3.9187500000e+001,4.1429741032e+000,3.6931782568e+000,2.6117433509e+000,3.4653883030e+000,4.4036675605e+000,4.4277583875e+000,3.0151689761e+000,3.3361347056e+000,3.3120117229e+000,9.5813342227e+000,3.7403935507e+000,3.0994114162e+000,3.8709244794e+000,4.3315160808e+000,
3.9281250000e+001,4.1105681486e+000,3.7309675591e+000,2.6250532104e+000,3.5722319221e+000,4.1924373087e+000,4.3639355347e+000,2.9817389310e+000,3.3747384879e+000,3.2947733476e+000,9.2324797580e+000,3.7596552180e+000,2.8760762930e+000,3.8717150482e+000,4.2265800652e+000,
3.9375000000e+001,4.1621032893e+000,3.6865824440e+000,2.5566327972e+000,3.6044946812e+000,4.3213822396e+000,4.3194674080e+000,3.0374124638e+000,3.4378069346e+000,3.3009060405e+000,8.9284975976e+000,3.7412345865e+000,2.8856229613e+000,3.8186649749e+000,4.1491743455e+000,
3.9468750000e+001,4.2069601433e+000,3.6953251945e+000,2.5189855045e+000,3.6153969242e+000,4.3401886402e+000,4.2769054524e+000,3.0046350433e+000,3.4145594184e+000,3.2105121484e+000,8.7109706988e+000,3.7070860232e+000,2.8557965115e+000,3.8372252684e+000,4.2495830251e+000,
3.9562500000e+001,4.2155924127e+000,3.6113878609e+000,2.4576943092e+000,3.4942619882e+000,4.3439100298e+000,4.1718131477e+000,2.9537880767e+000,3.6121931299e+000,3.1509377664e+000,8.7176747738e+000,3.6279285558e+000,2.9258352688e+000,3.7284285271e+000,4.3016033871e+000,
3.9656250000e+001,4.1940790663e+000,3.6975841978e+000,2.4989214297e+000,3.4590489348e+000,4.2830594908e+000,4.3897501237e+000,2.8332573175e+000,3.7449380163e+000,3.1134821516e+000,8.8488703946e+000,3.6099597666e+000,2.8685563473e+000,3.7157986194e+000,4.2931029316e+000,
3.9750000000e+001,4.1521226308e+000,3.6584774239e+000,2.5780797366e+000,3.4691485027e+000,4.2444640806e+000,4.2994631753e+000,2.7910764866e+000,3.7653448703e+000,3.1188670356e+000,8.5155079276e+000,3.5090407507e+000,2.9252642209e+000,3.6535880548e+000,4.3160253597e+000,
3.9843750000e+001,3.9760555696e+000,3.6645330750e+000,2.6041919880e+000,3.4359030116e+000,3.8697640168e+000,4.3031915644e+000,2.4393361127e+000,3.8203854323e+000,3.0987741462e+000,8.4559586305e+000,3.3638105673e+000,2.9537256763e+000,3.7816288089e+000,4.3418219262e+000,
3.9937500000e+001,4.0794244356e+000,3.7002347978e+000,2.5602474386e+000,3.3276697117e+000,3.8459411235e+000,4.3251436759e+000,2.3379479560e+000,3.8195261725e+000,3.0082071208e+000,8.3688952885e+000,3.3378302471e+000,3.0139293579e+000,3.8900047530e+000,4.2958740142e+000,
4.0031250000e+001,4.3372410674e+000,3.7452778681e+000,2.6913785625e+000,3.2424532667e+000,3.8687665507e+000,4.4637905953e+000,2.3953850775e+000,3.8794628632e+000,2.9419518969e+000,7.9973564897e+000,3.3426611622e+000,3.0866198752e+000,3.8533388066e+000,4.2329489803e+000,
4.0125000000e+001,4.3147785243e+000,3.6777653689e+000,2.6589726904e+000,3.2435246533e+000,3.7972289379e+000,4.3723477352e+000,2.3076653685e+000,3.8536330404e+000,2.8196715240e+000,7.9586683423e+000,3.2239761680e+000,3.0074320129e+000,3.8434944608e+000,4.2591466678e+000,
4.0218750000e+001,4.3567339265e+000,3.6828666149e+000,2.7595278121e+000,3.3145979900e+000,3.8002408385e+000,4.3568102416e+000,2.3059526810e+000,3.8142076930e+000,2.7387456231e+000,7.9922596169e+000,3.3022296343e+000,2.9325301961e+000,3.8714014803e+000,4.2762901636e+000,
4.0312500000e+001,4.3213251484e+000,3.6310744173e+000,2.7484378933e+000,3.3131397162e+000,3.8201779327e+000,4.4246549962e+000,2.3403788361e+000,3.8213721641e+000,2.8113070861e+000,8.0309259354e+000,3.2480484842e+000,2.9382899930e+000,3.8128103348e+000,4.2719678393e+000,
4.0406250000e+001,4.2129119072e+000,3.7051964376e+000,2.7186067554e+000,3.2725935561e+000,3.6827425275e+000,4.4142119020e+000,2.2870145534e+000,3.8322074337e+000,3.0482520016e+000,8.0322717234e+000,3.2391175625e+000,2.8963756564e+000,3.8333741870e+000,4.3340486745e+000,
4.0500000000e+001,4.1541824421e+000,3.7511531924e+000,2.6822636795e+000,3.2970737732e+000,3.6189893861e+000,4.5603140479e+000,2.2902779029e+000,3.8125471074e+000,3.0598972797e+000,7.9598723654e+000,3.2304522178e+000,2.9768702663e+000,3.7673402382e+000,4.1622982104e+000,
4.0593750000e+001,4.1518260339e+000,3.6942223651e+000,2.7038464264e+000,3.3953929239e+000,3.6134184698e+000,4.4611870921e+000,2.2832415680e+000,3.6599420331e+000,3.1784632548e+000,7.8125417022e+000,3.3257011345e+000,2.9119049562e+000,3.7215367336e+000,4.1791134533e+000,
4.0687500000e+001,4.2362966734e+000,3.7052987621e+000,2.5701322473e+000,3.3689414163e+000,3.7417224495e+000,4.4376593119e+000,2.3396972632e+000,3.5831209096e+000,3.1835520477e+000,6.6311698478e+000,3.3238504406e+000,2.9359788338e+000,3.7045053479e+000,4.0961546768e+000,
4.0781250000e+001,4.2800471537e+000,3.7080628143e+000,2.5537725922e+000,3.3997270811e+000,3.7421277807e+000,4.4409325297e+000,2.3613941048e+000,3.4932780017e+000,3.1353317719e+000,6.8925254742e+000,3.4031397270e+000,2.9087551324e+000,3.7221972558e+000,4.1341154672e+000,
4.0875000000e+001,4.2364365492e+000,3.7750738128e+000,2.5705927045e+000,3.4652411448e+000,3.7929107813e+000,4.5174313714e+000,2.3060567821e+000,3.4971818313e+000,3.1891191992e+000,6.9353958494e+000,3.4595634681e+000,2.9223817464e+000,3.5716380344e+000,4.0539706535e+000,
4.0968750000e+001,4.0690318927e+000,3.6609191472e+000,2.5785976539e+000,3.4815580453e+000,3.7459252703e+000,4.3911574602e+000,2.2255202416e+000,3.4491005987e+000,3.1454852748e+000,7.0134931192e+000,3.3613260991e+000,2.8981563186e+000,3.4896798240e+000,4.0363240466e+000,
4.1062500000e+001,3.6570840271e+000,3.6231895341e+000,2.4328220740e+000,3.5285161695e+000,3.6693867719e+000,4.2605920194e+000,2.2215440337e+000,3.4266002388e+000,3.1959322209e+000,6.9919323736e+000,3.3384293088e+000,2.7869975798e+000,3.4628499708e+000,4.0291454989e+000,
4.1156250000e+001,3.6685752301e+000,3.6401466996e+000,2.5445535764e+000,3.4709236591e+000,3.5960010333e+000,4.2614357080e+000,2.2948697183e+000,3.4691599001e+000,3.1168525722e+000,6.8376818001e+000,3.3466165474e+000,2.7831457110e+000,3.4564425966e+000,4.0074002910e+000,
