Time (s),AF3,AF4,F3,F4,F7,F8,FC5,FC6,T7,T8,P7,P8,O1,O2,Sampling Rate
0.0000000000e+000,4.9686651433e+000,4.5947892201e+000,3.6793010233e+000,3.6847281544e+000,4.8548576854e+000,5.4018291424e+000,4.3542774367e+000,5.5440633078e+000,4.4305480812e+000,4.3101895813e+000,3.8876148193e+000,4.2079800029e+000,3.7418007915e+000,4.4048709064e+000,1
9.3750000000e-002,4.8728780130e+000,4.4658895698e+000,3.6257316966e+000,3.6243861539e+000,4.7569397636e+000,5.0402863238e+000,4.3339500329e+000,3.5805643336e+000,4.3586047702e+000,4.3617356348e+000,3.8034024387e+000,4.1988041527e+000,3.7095337044e+000,4.4047262589e+000,
1.8750000000e-001,4.8001526144e+000,4.4323090080e+000,3.6539850971e+000,3.6943283919e+000,4.7756404625e+000,4.8516197430e+000,4.3535850420e+000,3.0859211050e+000,4.3778327634e+000,4.3878132206e+000,3.8532426110e+000,4.3133038611e+000,3.7240135098e+000,4.4444831591e+000,
2.8125000000e-001,4.2223697933e+000,3.9705775755e+000,3.4965650284e+000,3.5722604027e+000,4.6091741670e+000,4.6165304677e+000,4.2592514386e+000,3.0257535671e+000,4.2684162986e+000,4.3520232371e+000,3.8775867143e+000,4.0868122435e+000,3.5778155702e+000,4.2960550719e+000,
3.7500000000e-001,3.9067179938e+000,3.7143124206e+000,3.2239014791e+000,3.4725737665e+000,4.4938618107e+000,4.5901518552e+000,4.1755871479e+000,2.7667197022e+000,4.0888403117e+000,4.3322105337e+000,3.6542744589e+000,4.0160461155e+000,3.4142523778e+000,4.1689383115e+000,
4.6875000000e-001,3.9299666636e+000,3.7013261540e+000,3.2166437370e+000,3.3876717974e+000,4.4718648907e+000,4.5691591781e+000,4.1976490909e+000,2.6417876083e+000,3.9790088505e+000,4.3186395667e+000,3.5963621586e+000,3.9372438302e+000,3.3198367899e+000,4.1202336451e+000,
5.6250000000e-001,3.9189907113e+000,3.5744347252e+000,3.1756017800e+000,3.1942551461e+000,4.4136512951e+000,4.4240527215e+000,4.1576784620e+000,2.7577188215e+000,3.9256705383e+000,4.2622111175e+000,3.6475938074e+000,3.8922504101e+000,3.4151498702e+000,4.2061200315e+000,
6.5625000000e-001,3.8153756015e+000,3.6200668827e+000,3.1491114598e+000,3.1926206270e+000,4.2058179876e+000,4.6020272933e+000,3.9673701473e+000,2.8137867452e+000,3.7941651149e+000,4.2652804881e+000,3.6442208364e+000,3.9726374896e+000,3.3785165794e+000,4.2160438203e+000,
7.5000000000e-001,3.7636792654e+000,3.6130428731e+000,3.1601516203e+000,3.2593968094e+000,4.0621235460e+000,4.5062993967e+000,3.9311755488e+000,2.8579224318e+000,3.7943609472e+000,4.4212700755e+000,3.6785967830e+000,4.0304853634e+000,3.3502934552e+000,4.1635052230e+000,
8.4375000000e-001,3.6881426517e+000,3.6213788943e+000,3.1164419084e+000,3.2754047761e+000,3.9597814824e+000,4.4489609093e+000,3.8821573983e+000,2.8889888177e+000,3.7322553661e+000,4.4583850607e+000,3.7417956760e+000,4.1195286988e+000,3.4481433420e+000,4.3050020443e+000,
9.3750000000e-001,3.6906682748e+000,3.6554184698e+000,3.1168245761e+000,3.2413584499e+000,3.9705433205e+000,4.4770478140e+000,3.7816542576e+000,2.9779843532e+000,3.7135636126e+000,4.5963528921e+000,3.7146459715e+000,4.1365094734e+000,3.4104636222e+000,4.3688180278e+000,
1.0312500000e+000,3.7247293991e+000,3.7164238568e+000,3.1408538089e+000,3.2898121830e+000,3.9695731641e+000,4.4571604546e+000,3.7713642462e+000,2.9268746202e+000,3.7579518772e+000,4.6176152603e+000,3.6996485332e+000,4.1619630586e+000,3.4340021441e+000,4.4091718826e+000,
1.1250000000e+000,3.7530925950e+000,3.7021606229e+000,3.1502111676e+000,3.2525630954e+000,3.9398888143e+000,4.4792402614e+000,3.7415528553e+000,2.8477944315e+000,3.7835247672e+000,4.5951703097e+000,3.6576206158e+000,4.2360330084e+000,3.3918223955e+000,4.4375750151e+000,
1.2187500000e+000,3.7819761444e+000,3.7257861200e+000,3.1297178450e+000,3.3092123487e+000,3.9278277822e+000,4.6590338885e+000,3.6080794163e+000,2.9212253619e+000,3.9803654692e+000,4.5879693844e+000,3.4395807002e+000,4.3316411277e+000,3.4518186451e+000,4.5019591942e+000,
1.3125000000e+000,3.8709539717e+000,3.7907387026e+000,3.1964706543e+000,3.3698504268e+000,3.9209937543e+000,4.7370482070e+000,3.6065895070e+000,2.9085696756e+000,4.0171269866e+000,4.6513660841e+000,3.3969872791e+000,4.4286253585e+000,3.5172119282e+000,4.5978876875e+000,
1.4062500000e+000,4.1794510905e+000,4.0226613834e+000,3.3162248252e+000,3.4934391559e+000,4.1370255364e+000,4.7597335729e+000,3.6344869569e+000,2.9600220659e+000,4.0477326648e+000,4.6861734206e+000,3.3996420395e+000,4.4060128390e+000,3.5052357113e+000,4.6208495955e+000,
1.5000000000e+000,4.2911696525e+000,4.1674358141e+000,3.3668240881e+000,3.5360662047e+000,4.2583522686e+000,4.7905630063e+000,3.7682439098e+000,2.9998711517e+000,4.0802163627e+000,4.8133598999e+000,3.3945255729e+000,4.4009814967e+000,3.5297870943e+000,4.5922715573e+000,
1.5937500000e+000,4.3346437500e+000,4.1649143481e+000,3.4019261749e+000,3.5772873877e+000,4.2671498761e+000,4.8604087489e+000,3.8028509780e+000,2.9064891468e+000,4.0878853271e+000,4.8233217985e+000,3.3497469393e+000,4.3879818218e+000,3.3906981792e+000,4.5051258761e+000,
1.6875000000e+000,4.3095005726e+000,4.1358830736e+000,3.3495673911e+000,3.5500490237e+000,4.3307560428e+000,4.8231535068e+000,3.8470463609e+000,2.8229007073e+000,4.1002988104e+000,4.8109045691e+000,3.2557089563e+000,4.2860246810e+000,3.3264816714e+000,4.4432130169e+000,
1.7812500000e+000,4.3508032667e+000,4.1676640080e+000,3.3413665119e+000,3.5322698951e+000,4.3850281824e+000,4.9654121322e+000,3.9522724284e+000,2.8696024675e+000,4.0841928002e+000,4.7294367079e+000,3.3533338238e+000,4.2628736844e+000,3.4367123911e+000,4.4498758481e+000,
1.8750000000e+000,4.4285920719e+000,4.1794023471e+000,3.4418685465e+000,3.6342227489e+000,4.3831401453e+000,4.9685453752e+000,3.9970016158e+000,2.8484339195e+000,4.0634870503e+000,4.6790406594e+000,3.0797310923e+000,4.2746948491e+000,3.4180448233e+000,4.4313032954e+000,
1.9687500000e+000,4.4347951328e+000,4.2076722639e+000,3.4455909439e+000,3.6409546456e+000,4.3152273619e+000,4.9964347489e+000,3.9827420199e+000,2.7499834929e+000,4.1549312391e+000,4.5326693085e+000,3.0504565735e+000,4.3269774489e+000,3.4116268564e+000,4.3994586149e+000,
2.0625000000e+000,4.4901631426e+000,4.3130103523e+000,3.4714786174e+000,3.7538037885e+000,4.5373023034e+000,5.0070025858e+000,4.1301337132e+000,2.8413151625e+000,4.1335389197e+000,4.4953858327e+000,3.1370753287e+000,4.3082640538e+000,3.4164628406e+000,4.4075598806e+000,
2.1562500000e+000,4.5209218356e+000,4.3752490242e+000,3.4415796631e+000,3.7110232742e+000,4.7956517953e+000,5.0442439824e+000,4.6375882549e+000,4.9695009936e+000,4.1679996021e+000,4.6919320459e+000,3.1612037108e+000,4.3254690520e+000,3.3357552738e+000,4.4359867293e+000,
2.2500000000e+000,4.5144516631e+000,4.4266525931e+000,3.4622259797e+000,3.7195385443e+000,4.8487438094e+000,5.1369278153e+000,4.8113312957e+000,5.7632255270e+000,4.1600059327e+000,4.7308856855e+000,3.2755468490e+000,4.2368307775e+000,3.4503529275e+000,4.4383904676e+000,
2.3437500000e+000,4.4586389791e+000,4.4588214419e+000,3.4580719060e+000,3.8406843525e+000,4.9516028462e+000,5.4657676846e+000,4.9300413787e+000,6.0061631991e+000,4.1525666732e+000,4.6438363997e+000,3.3283112697e+000,4.2895658864e+000,3.3716485648e+000,4.4720182918e+000,
2.4375000000e+000,4.4698384703e+000,4.5060351718e+000,3.4820606646e+000,3.9892319117e+000,5.1418130697e+000,5.7941300744e+000,5.1169707723e+000,6.1010036330e+000,4.3850402464e+000,4.8475480994e+000,3.5326532461e+000,4.3834766584e+000,3.5010907749e+000,4.5704094693e+000,
2.5312500000e+000,4.3713948481e+000,4.6382160651e+000,3.5012563270e+000,4.2457642229e+000,5.5515412844e+000,6.0083993396e+000,5.2568404789e+000,6.1599276275e+000,4.5532883370e+000,4.8127673498e+000,3.6980725012e+000,4.5260769793e+000,3.6171887103e+000,4.6767376364e+000,
2.6250000000e+000,4.4732012247e+000,4.8516358817e+000,3.6335892666e+000,4.6141009415e+000,5.8078042913e+000,6.2756984840e+000,5.3998892723e+000,6.1952192197e+000,4.9208687545e+000,4.8176398289e+000,3.7188674256e+000,4.6538922560e+000,3.7017279140e+000,4.7831474162e+000,
2.7187500000e+000,4.5439977842e+000,4.9559028661e+000,3.7118233984e+000,4.7097560525e+000,5.8572587797e+000,6.6370838171e+000,5.4619377445e+000,6.2464900163e+000,5.1123752395e+000,4.8769859193e+000,3.7476922445e+000,4.6766239604e+000,3.6951461522e+000,4.7845037343e+000,
2.8125000000e+000,4.4780657825e+000,5.0394374997e+000,3.6325529977e+000,4.7327872585e+000,5.9000177701e+000,6.7237578674e+000,5.5248699670e+000,6.2775521895e+000,5.2008557977e+000,4.8993779808e+000,3.8092084485e+000,4.7041151665e+000,3.7514237698e+000,4.8530659800e+000,
2.9062500000e+000,4.7274184022e+000,5.3555952350e+000,3.8686862937e+000,4.9531512806e+000,6.0601196843e+000,6.7327408366e+000,5.6711525137e+000,6.2931241783e+000,5.4019945217e+000,4.9493195246e+000,3.9361527090e+000,4.7573465633e+000,3.7643181833e+000,4.9672853983e+000,
3.0000000000e+000,4.7353211027e+000,5.3718984259e+000,3.8977187954e+000,4.9657194573e+000,6.1135771150e+000,6.8540905180e+000,5.6887722850e+000,6.3222000459e+000,5.3827602832e+000,5.0170749224e+000,3.9262823340e+000,4.7100496765e+000,3.6815790736e+000,4.9816629471e+000,
3.0937500000e+000,4.7080069566e+000,5.3968807375e+000,3.8938813894e+000,4.9653087868e+000,6.1221980435e+000,6.9165253431e+000,5.6835665933e+000,6.3434385343e+000,5.4600117627e+000,5.0417734945e+000,4.0306102832e+000,4.6798131445e+000,3.8239884477e+000,4.9493939622e+000,
3.1875000000e+000,4.6907118177e+000,5.4596459999e+000,3.9131320274e+000,4.9811871780e+000,6.1003519782e+000,7.0357070498e+000,5.6236905521e+000,6.2099619142e+000,5.4690923182e+000,5.0590840272e+000,4.0763426266e+000,4.7115938015e+000,3.8443299736e+000,5.0209533786e+000,
3.2812500000e+000,4.7137634899e+000,5.5004636129e+000,3.9323671872e+000,5.0094804231e+000,6.1062555244e+000,7.0267177312e+000,5.6601870823e+000,6.4523696304e+000,5.4729839507e+000,5.1441130535e+000,4.0963082092e+000,4.8070347580e+000,3.8723196481e+000,5.0534937776e+000,
3.3750000000e+000,4.7123637908e+000,5.5032708893e+000,3.9433063129e+000,4.9996822273e+000,6.1013776461e+000,6.9977207784e+000,5.6310930008e+000,6.3453029628e+000,5.4646042815e+000,5.2342350843e+000,4.0666619122e+000,4.6689393551e+000,3.9064638500e+000,4.9608521947e+000,
3.4687500000e+000,4.6533449500e+000,5.5849614969e+000,3.9683247419e+000,5.0484032836e+000,5.9759511132e+000,7.1346279044e+000,5.6250736187e+000,6.4314268499e+000,5.4280955242e+000,5.0782845805e+000,4.0005944567e+000,4.6736072712e+000,3.8633683552e+000,4.9527011291e+000,
3.5625000000e+000,4.6667543891e+000,5.5650770265e+000,3.9726800085e+000,4.9457217132e+000,5.7441884841e+000,7.0574092785e+000,5.5786567813e+000,6.4828959231e+000,5.2732624731e+000,5.0247574672e+000,3.8798750526e+000,4.4623273368e+000,3.7550060834e+000,4.7861582792e+000,
3.6562500000e+000,4.5908073445e+000,5.4853709859e+000,3.9360796725e+000,4.7894056248e+000,5.4962923306e+000,7.0049469590e+000,5.4681543072e+000,6.5306405361e+000,5.1670224257e+000,5.0504382845e+000,3.8225037637e+000,4.5643242033e+000,3.7464880728e+000,4.8825341524e+000,
3.7500000000e+000,4.5320886473e+000,5.3961326231e+000,3.8776239200e+000,4.6937045041e+000,5.4105860517e+000,6.7499849629e+000,5.3727176723e+000,6.5188576030e+000,5.0016725364e+000,4.9897780635e+000,3.8253644249e+000,4.6439722446e+000,3.7849899780e+000,4.9473038874e+000,
3.8437500000e+000,4.3919118415e+000,5.2728428133e+000,3.7883251212e+000,4.5612317922e+000,5.1686612439e+000,6.6805922755e+000,5.1822184637e+000,6.8191543616e+000,4.7080903683e+000,4.9611578537e+000,3.7574946559e+000,4.6781976152e+000,3.7072022403e+000,4.9474172325e+000,
3.9375000000e+000,4.1775706080e+000,5.0363826570e+000,3.6581188873e+000,4.2997177922e+000,4.9537703686e+000,6.6392855370e+000,5.0567169537e+000,6.9562418467e+000,4.5696347684e+000,4.9021010585e+000,3.7076178335e+000,4.6389163299e+000,3.6985977258e+000,4.8290562336e+000,
4.0312500000e+000,4.1643785733e+000,5.0545936659e+000,3.6164995464e+000,4.2819563422e+000,4.6099423701e+000,6.4925159370e+000,4.9983764788e+000,6.9663600488e+000,4.5034058721e+000,4.7810955994e+000,3.6794373857e+000,4.6526855329e+000,3.6758288930e+000,4.8248815923e+000,
4.1250000000e+000,4.2353828444e+000,4.9731855788e+000,3.6396904340e+000,4.2559581752e+000,4.5651313914e+000,6.3982064395e+000,4.9436974840e+000,6.9130862045e+000,4.3139277988e+000,4.7187113905e+000,3.5440444553e+000,4.6788450803e+000,3.6614883237e+000,4.8539023481e+000,
4.2187500000e+000,4.2431817641e+000,4.8601357913e+000,3.6569739424e+000,4.2331413571e+000,4.5579823888e+000,6.1851025587e+000,4.8500213458e+000,6.6144694976e+000,4.3607133313e+000,4.6756837295e+000,3.7111198989e+000,4.7033159919e+000,3.6487901663e+000,4.8836549712e+000,
4.3125000000e+000,4.1332009776e+000,4.7645744690e+000,3.5582471655e+000,4.1435144388e+000,4.4434907994e+000,6.1095803823e+000,4.4919496502e+000,6.5028843388e+000,4.3726883941e+000,4.4744186002e+000,3.7360046124e+000,4.6395874756e+000,3.5441535885e+000,4.7690071043e+000,
4.4062500000e+000,4.0348420726e+000,4.5704354392e+000,3.4756159477e+000,3.8648849098e+000,4.1297070570e+000,5.7902868598e+000,4.3351867088e+000,6.4751544237e+000,4.3516755944e+000,4.3605401260e+000,3.7489082675e+000,4.8081319727e+000,3.5402337503e+000,4.8394984931e+000,
4.5000000000e+000,3.9353258695e+000,4.1742114419e+000,3.3179729889e+000,3.5719908205e+000,4.0968557202e+000,4.7515858715e+000,3.8900470741e+000,6.3342237303e+000,4.2845888412e+000,4.3579280394e+000,3.7676415670e+000,4.9938215041e+000,3.6898564930e+000,5.0239524008e+000,
4.5937500000e+000,4.0101018622e+000,4.1679631094e+000,3.3043865503e+000,3.4519989187e+000,4.0435760032e+000,4.8050694421e+000,3.7730564139e+000,6.2237137802e+000,4.3581803344e+000,4.2162801220e+000,3.8681528361e+000,5.0221424157e+000,3.7915803738e+000,5.0823195759e+000,
4.6875000000e+000,4.6892442885e+000,4.6148655214e+000,3.7661425541e+000,3.7465976104e+000,4.4735187003e+000,4.9626092005e+000,4.1674643253e+000,6.1320169169e+000,4.3463100576e+000,4.2462283632e+000,3.9388188705e+000,5.0438927125e+000,3.8473401830e+000,5.0848176054e+000,
4.7812500000e+000,4.8795456972e+000,4.7290980864e+000,3.8620679466e+000,3.8238217379e+000,4.6578143322e+000,5.0405991564e+000,4.2493031312e+000,6.0248813208e+000,4.4451422577e+000,4.2096761193e+000,3.9810158254e+000,5.0270633232e+000,3.8838270141e+000,5.0628247235e+000,
4.8750000000e+000,4.9426669930e+000,4.7577697829e+000,3.9132319524e+000,3.8480456148e+000,4.7924292841e+000,5.0659102341e+000,4.3117527888e+000,4.4920156145e+000,4.4720394744e+000,4.2931466291e+000,3.9496249493e+000,5.0490195475e+000,3.9350927244e+000,5.1143072026e+000,
4.9687500000e+000,4.9319022527e+000,4.7241356360e+000,3.8651433224e+000,3.8429830439e+000,4.8547774706e+000,5.0186377832e+000,4.3115656900e+000,3.6852204831e+000,4.4188361714e+000,4.2678471673e+000,4.0208067000e+000,5.0997965864e+000,4.0204433313e+000,5.1470788253e+000,
5.0625000000e+000,4.8738198407e+000,4.6363631702e+000,3.8014993426e+000,3.8120051298e+000,4.7871476198e+000,4.9729182956e+000,4.2027777095e+000,3.3734813272e+000,4.4598407570e+000,4.3282810931e+000,4.0586102983e+000,5.0911383594e+000,3.9631932045e+000,5.1449239045e+000,
5.1562500000e+000,4.8538843208e+000,4.5784032821e+000,3.7779455865e+000,3.7439928018e+000,4.8121889968e+000,4.9000464733e+000,4.1702739156e+000,3.3681064407e+000,4.3767427359e+000,4.2464488027e+000,3.9563068618e+000,5.0735083157e+000,3.9332651673e+000,5.0928515932e+000,
5.2500000000e+000,4.8619660004e+000,4.5756101026e+000,3.7568589671e+000,3.7459199057e+000,4.9084544355e+000,4.9047612904e+000,4.2135586851e+000,3.3919422788e+000,4.4105200794e+000,4.2955287828e+000,3.9214671335e+000,5.1107741961e+000,3.9636903910e+000,5.1802122810e+000,
5.3437500000e+000,4.8562951932e+000,4.5797119047e+000,3.7851439339e+000,3.8072935932e+000,4.9148013316e+000,4.8900324784e+000,4.2098645050e+000,3.3672510398e+000,4.4058054287e+000,4.3360521883e+000,3.8812340169e+000,5.0732747872e+000,3.9661786949e+000,5.1697486236e+000,
5.4375000000e+000,4.9035607778e+000,4.6111141142e+000,3.8447373907e+000,3.8225914981e+000,4.9376612683e+000,4.9158279470e+000,4.2795903656e+000,3.3144561807e+000,4.4806483079e+000,4.4396985543e+000,3.9316254352e+000,5.0247697387e+000,3.9564680567e+000,5.1328751663e+000,
5.5312500000e+000,4.8944810069e+000,4.5547378772e+000,3.8593614016e+000,3.7541803243e+000,4.9443145125e+000,4.9216331289e+000,4.2996971250e+000,3.3343576172e+000,4.4350296863e+000,4.4190915325e+000,3.8489889571e+000,4.7981182755e+000,3.8588319202e+000,4.9378653880e+000,
5.6250000000e+000,4.8458023403e+000,4.5040986873e+000,3.8120344621e+000,3.6747503605e+000,4.9238685705e+000,4.8474984918e+000,4.2715949874e+000,3.2818399899e+000,4.4023301467e+000,4.3783594525e+000,3.8285434041e+000,4.6966422689e+000,3.7675974751e+000,4.8178390024e+000,
5.7187500000e+000,4.0159615387e+000,3.7962706572e+000,3.3274640712e+000,3.3351897639e+000,4.4940262284e+000,4.3929744903e+000,3.8725924906e+000,3.1442569229e+000,4.2900557923e+000,4.3673643439e+000,3.8046538479e+000,4.4935834351e+000,3.6693944936e+000,4.6511399059e+000,
5.8125000000e+000,4.0134872866e+000,3.8107948306e+000,3.3403190637e+000,3.3542884500e+000,4.5158411102e+000,4.3475583226e+000,3.9804251719e+000,2.9770587003e+000,4.2498390296e+000,4.3593880660e+000,3.8239976491e+000,4.4222885294e+000,3.6048208995e+000,4.5579063347e+000,
5.9062500000e+000,3.8959401682e+000,3.8028276083e+000,3.3332602337e+000,3.4044329211e+000,4.4594596017e+000,4.4700823176e+000,3.9050536779e+000,2.9927836252e+000,4.2324564990e+000,4.5262274963e+000,3.6977789682e+000,4.3625080425e+000,3.5390926772e+000,4.5477023598e+000,
6.0000000000e+000,3.9201217397e+000,3.9254922697e+000,3.4032953513e+000,3.4772165980e+000,4.3685770635e+000,4.5233888203e+000,3.9377661057e+000,2.9276443450e+000,4.2662640673e+000,4.7345203093e+000,3.6380136383e+000,4.3960319768e+000,3.4525011461e+000,4.5830093543e+000,
6.0937500000e+000,3.9940466118e+000,3.9986374951e+000,3.4895725865e+000,3.5008205920e+000,4.3435084564e+000,4.6066521730e+000,3.9898177899e+000,3.0731150507e+000,4.2855146418e+000,4.7604306165e+000,3.7007403564e+000,4.5103843558e+000,3.5124208347e+000,4.6370902869e+000,
6.1875000000e+000,4.0206809240e+000,4.0494892761e+000,3.4853481883e+000,3.5790726304e+000,4.3048275649e+000,4.6212993620e+000,4.0541476448e+000,3.0953303960e+000,4.2938310355e+000,4.7568198393e+000,3.7812616455e+000,4.5369262551e+000,3.5190552389e+000,4.6422607970e+000,
6.2812500000e+000,4.0836375874e+000,4.1452170242e+000,3.5166453902e+000,3.5718080603e+000,4.1264848921e+000,4.8183005299e+000,3.9590728781e+000,3.1314493424e+000,4.1822255339e+000,4.7644737545e+000,3.7030795908e+000,4.4864630301e+000,3.3870576874e+000,4.5211760393e+000,
6.3750000000e+000,4.0652993478e+000,4.1170512066e+000,3.4236665184e+000,3.5602974362e+000,4.1246915602e+000,4.8820683010e+000,3.9434376601e+000,3.2299018146e+000,4.1538634118e+000,4.7917725370e+000,3.7544056427e+000,4.4695365608e+000,3.3568224084e+000,4.4898199362e+000,
6.4687500000e+000,4.0547228651e+000,4.0831944561e+000,3.3662734135e+000,3.5434893367e+000,4.2894093001e+000,4.9523049162e+000,3.9426724707e+000,3.2174102176e+000,4.0982198418e+000,4.7656975406e+000,3.7197747681e+000,4.4674492938e+000,3.2615288878e+000,4.5436363275e+000,
6.5625000000e+000,3.9376482023e+000,3.9938627646e+000,3.2972291252e+000,3.4333761021e+000,4.3039916392e+000,4.9497641641e+000,3.8764328963e+000,3.0934380496e+000,3.9654234631e+000,4.7737542865e+000,3.5883475984e+000,4.4586369694e+000,3.1636185530e+000,4.4903449940e+000,
6.6562500000e+000,4.0315780496e+000,4.0349525919e+000,3.4620989083e+000,3.5175233701e+000,4.4037229503e+000,4.9748714518e+000,4.0395585593e+000,2.9929797375e+000,4.0582118036e+000,4.7718349629e+000,3.6010746518e+000,4.5801630043e+000,3.0325696905e+000,4.5929416163e+000,
6.7500000000e+000,4.0343204909e+000,4.0635449492e+000,3.4562792896e+000,3.5938887539e+000,4.3762328639e+000,5.0732932147e+000,3.9993773615e+000,3.0860991529e+000,4.1078988395e+000,4.8119502190e+000,3.6299785147e+000,4.7798311683e+000,3.1922206341e+000,4.7869301559e+000,
6.8437500000e+000,3.9829533283e+000,3.9863474853e+000,3.3726519746e+000,3.5957482402e+000,4.2546140893e+000,5.0331085489e+000,3.8646551916e+000,3.1520599014e+000,4.0588927230e+000,4.8120949092e+000,3.5563122246e+000,4.7858151491e+000,3.1635071244e+000,4.7466873769e+000,
6.9375000000e+000,4.0027073034e+000,3.8965793706e+000,3.3295671241e+000,3.5474116429e+000,4.2671965831e+000,5.0052268916e+000,3.9061554516e+000,3.1993682210e+000,4.0534049282e+000,4.6910223489e+000,3.6363088431e+000,4.7752895856e+000,3.2689447574e+000,4.7555549271e+000,
7.0312500000e+000,4.0087209088e+000,3.8395183218e+000,3.3644731900e+000,3.5342452819e+000,4.2704444506e+000,5.0213343786e+000,3.9329258249e+000,3.1642463658e+000,3.9830919750e+000,4.4643750289e+000,3.6687963684e+000,4.7338172958e+000,3.3774459222e+000,4.7703033444e+000,
7.1250000000e+000,4.0952174140e+000,4.7515526904e+000,3.3507117989e+000,1.0417348872e+001,4.2891216257e+000,5.0623564060e+000,3.9086829674e+000,4.4756279430e+000,3.9129225778e+000,4.4612405588e+000,3.6781176808e+000,4.6234417113e+000,3.4403611060e+000,4.7976960692e+000,
7.2187500000e+000,4.0910026604e+000,4.8805671466e+000,3.3677876400e+000,1.0789088922e+001,4.2649535432e+000,5.0532441556e+000,3.8643054586e+000,4.8614830798e+000,3.8217776357e+000,4.5512313052e+000,3.7423214847e+000,4.5572310045e+000,3.5131232109e+000,4.8188596620e+000,
7.3125000000e+000,4.0326613170e+000,4.9793199489e+000,3.4213446689e+000,1.1141741510e+001,4.2795489367e+000,4.9480600847e+000,3.9166785677e+000,4.8865205351e+000,3.9562660983e+000,4.5718572121e+000,3.7161399761e+000,4.6578949343e+000,3.5949805091e+000,4.9052653595e+000,
7.4062500000e+000,4.1167472658e+000,5.0345180968e+000,3.5580249656e+000,1.1165202896e+001,4.2829175769e+000,4.9901896938e+000,3.8765184088e+000,4.8960041605e+000,3.9804983074e+000,4.5347909625e+000,3.7089598167e+000,4.7984458771e+000,3.7075117960e+000,5.0062176025e+000,
7.5000000000e+000,4.0810046450e+000,5.0422428770e+000,3.5489975141e+000,1.1166846277e+001,4.1380909344e+000,4.9249135481e+000,3.8036294164e+000,4.9088167408e+000,3.9848396328e+000,4.5809741651e+000,3.7129675024e+000,4.8108061958e+000,3.7816499980e+000,5.0405027113e+000,
7.5937500000e+000,4.0952635624e+000,5.0455591359e+000,3.4921847711e+000,1.1167098023e+001,4.1335991061e+000,4.9471588489e+000,3.8240204694e+000,4.9153012931e+000,4.0501745472e+000,4.6209603824e+000,3.7502936300e+000,4.8032879987e+000,3.8259305423e+000,5.0536045933e+000,
7.6875000000e+000,3.9988154657e+000,5.0015172592e+000,3.3182715988e+000,1.1167046661e+001,4.0623468269e+000,4.8561073367e+000,3.6501451562e+000,4.9077130719e+000,3.9900649905e+000,4.5728096864e+000,3.7356833011e+000,4.5929209977e+000,3.8307381576e+000,4.9284373272e+000,
7.7812500000e+000,4.0970609668e+000,5.0290592662e+000,3.4005293044e+000,1.1167009697e+001,4.1981556179e+000,4.8954281298e+000,3.7341957916e+000,4.9080783781e+000,4.0493826302e+000,4.6702555205e+000,3.7352117786e+000,4.4932762093e+000,3.8579197079e+000,4.8640311265e+000,
7.8750000000e+000,4.1409437962e+000,5.0294206851e+000,3.4648824163e+000,1.1166991916e+001,4.1799927706e+000,4.9020456870e+000,3.8172191590e+000,4.8933469278e+000,4.1409714720e+000,4.6069679489e+000,3.8911138113e+000,4.4928167160e+000,3.9041054609e+000,4.8667549822e+000,
7.9687500000e+000,4.1824940003e+000,5.0721802503e+000,3.4225886511e+000,1.1167062209e+001,4.2248895351e+000,4.9552689857e+000,3.8211921017e+000,4.8934134713e+000,4.0879928133e+000,4.5986531773e+000,3.7820589879e+000,4.4880321717e+000,3.8254184013e+000,4.8103433440e+000,
8.0625000000e+000,4.2301730155e+000,5.1187463878e+000,3.5217336883e+000,1.1166884165e+001,4.2654281821e+000,4.9169343310e+000,3.8913303862e+000,4.9113685576e+000,4.0923990448e+000,4.5824656630e+000,3.7226160644e+000,4.4951467783e+000,3.9212678638e+000,4.8115414106e+000,
8.1562500000e+000,4.0719997654e+000,4.4509669382e+000,3.4680555912e+000,1.0337878513e+001,4.1842696465e+000,4.8974600261e+000,3.8182957083e+000,3.9146968867e+000,4.1019666709e+000,4.6270691948e+000,3.6363113443e+000,4.4715593236e+000,3.8699054260e+000,4.7446510182e+000,
8.2500000000e+000,4.2460587614e+000,4.3178194891e+000,3.6506724753e+000,9.3747507965e+000,4.3513145129e+000,4.8327419754e+000,3.9743491263e+000,3.3254607929e+000,4.0620316305e+000,4.6254767852e+000,3.5433182914e+000,4.4632167614e+000,3.7929017453e+000,4.7244180483e+000,
8.3437500000e+000,4.0938192304e+000,4.1858589181e+000,3.4558979242e+000,7.1954626783e+000,4.3186893368e+000,4.8353072062e+000,3.8660794076e+000,3.1521061568e+000,4.0156809905e+000,4.6273561797e+000,3.5718253566e+000,4.2764433517e+000,3.8082028918e+000,4.6241079967e+000,
8.4375000000e+000,4.0700336662e+000,4.0581435580e+000,3.3976178184e+000,4.5464038951e+000,4.3081677661e+000,4.8291641487e+000,3.8575922549e+000,3.1065229524e+000,4.0436696432e+000,4.6392047999e+000,3.5207148440e+000,4.1648673069e+000,3.7426669430e+000,4.4901570540e+000,
8.5312500000e+000,4.0795408234e+000,4.0309621456e+000,3.4252565454e+000,4.0703554896e+000,4.3230303298e+000,4.7825582874e+000,3.9018619965e+000,3.1350027942e+000,4.0508999958e+000,4.6055735041e+000,3.5419584151e+000,4.1083413794e+000,3.6951863012e+000,4.4535362922e+000,
8.6250000000e+000,4.1143083629e+000,4.1828376819e+000,3.4609580404e+000,4.0094495187e+000,4.3043144622e+000,4.8094351932e+000,3.8909743730e+000,3.2557065073e+000,4.1099080460e+000,4.6290257560e+000,3.6340167743e+000,4.1384431139e+000,3.7676158127e+000,4.4719092222e+000,
8.7187500000e+000,4.1668806299e+000,4.2597583738e+000,3.4770166306e+000,4.0431238950e+000,4.3396955114e+000,5.1145522971e+000,4.0062620473e+000,3.3619079095e+000,4.0912268790e+000,4.6782878091e+000,3.6243985186e+000,4.1638501900e+000,3.7669884525e+000,4.4860202720e+000,
8.8125000000e+000,4.0645049219e+000,4.2237959983e+000,3.4491520294e+000,4.1384552765e+000,4.2503662870e+000,5.3640525263e+000,4.3306988554e+000,3.3773107234e+000,4.0688540290e+000,4.5815206099e+000,3.6667913216e+000,4.2700368169e+000,3.6499896211e+000,4.5216583436e+000,
8.9062500000e+000,4.0161246380e+000,4.2827701401e+000,3.4419385998e+000,4.1629974517e+000,4.3003812134e+000,5.5048659331e+000,4.5584194307e+000,3.3967871651e+000,4.1720257866e+000,4.5777760081e+000,3.5531110674e+000,4.3309322237e+000,3.6581469291e+000,4.5989128263e+000,
9.0000000000e+000,4.0232391154e+000,4.2288886608e+000,3.4995838438e+000,4.0542276647e+000,4.3141983863e+000,5.5307952854e+000,4.7313148697e+000,3.3308326366e+000,4.1926070580e+000,4.7107707489e+000,3.5969006971e+000,4.2959413566e+000,3.6177132497e+000,4.5979844073e+000,
9.0937500000e+000,4.0100387059e+000,4.2614147139e+000,3.4457906362e+000,3.9183143638e+000,4.2763275404e+000,5.5960868529e+000,4.7158499204e+000,3.3524996059e+000,4.2151842138e+000,4.7019548305e+000,3.6306945241e+000,4.3121675812e+000,3.4861599643e+000,4.5693293837e+000,
9.1875000000e+000,4.0098273024e+000,4.2715495099e+000,3.4167721484e+000,3.8593505422e+000,4.3050545298e+000,5.6236771991e+000,4.7431026242e+000,3.4111154296e+000,4.2372189494e+000,4.7582036729e+000,3.5896164485e+000,4.2567660934e+000,3.4319809765e+000,4.4638242335e+000,
9.2812500000e+000,3.9064952833e+000,4.1857758297e+000,3.2718746186e+000,3.7134575620e+000,4.2394129895e+000,5.6412235296e+000,4.7852289618e+000,3.4259081656e+000,4.2596259867e+000,4.6865706711e+000,3.5470931306e+000,4.2091682815e+000,3.3430521278e+000,4.3754252117e+000,
9.3750000000e+000,3.9666092575e+000,4.2568383981e+000,3.3064703596e+000,3.7489686624e+000,4.3094655790e+000,5.6847057443e+000,4.8086302403e+000,3.3949049199e+000,4.3409154466e+000,4.6380466662e+000,3.5012012093e+000,4.1798830973e+000,3.2769298407e+000,4.3482505262e+000,
9.4687500000e+000,3.9813307044e+000,4.2672534717e+000,3.3187845408e+000,3.7987666058e+000,4.3095042397e+000,5.7370911474e+000,4.8394568363e+000,3.6296485810e+000,4.2969065447e+000,4.5389780493e+000,3.3836871960e+000,4.0589424619e+000,3.1705639271e+000,4.2335754518e+000,
9.5625000000e+000,3.9944517534e+000,4.2750565800e+000,3.3160870925e+000,3.8350746664e+000,4.3301973950e+000,5.8041082062e+000,5.0742619992e+000,3.5916449183e+000,4.2930787773e+000,4.6141040684e+000,3.3577439511e+000,4.0880133137e+000,3.0190122742e+000,4.3056332249e+000,
9.6562500000e+000,3.9407460700e+000,4.2192286688e+000,3.2717507671e+000,3.8309726885e+000,4.3768729008e+000,5.8344904446e+000,5.0449952159e+000,3.5470628601e+000,4.3503586732e+000,4.6860664209e+000,3.2345742551e+000,4.0901983992e+000,2.9748694191e+000,4.3478717241e+000,
9.7500000000e+000,3.8913805281e+000,4.1889040470e+000,3.2253220269e+000,3.8865877477e+000,4.4236032093e+000,5.7753452651e+000,5.0901786982e+000,3.4980702858e+000,4.4441336232e+000,4.7149651336e+000,3.2771081377e+000,4.1409432320e+000,3.3016086678e+000,4.3322424029e+000,
9.8437500000e+000,3.9134196889e+000,4.2648616060e+000,3.1832438073e+000,3.8930948098e+000,4.4548304111e+000,5.6218320496e+000,4.9541541173e+000,3.6330779998e+000,4.4903344181e+000,4.9152453651e+000,3.3271815624e+000,4.0799685887e+000,3.3552594691e+000,4.2321802658e+000,
9.9375000000e+000,3.8751418303e+000,4.2474772306e+000,3.2187969170e+000,3.9122216860e+000,4.3920546824e+000,5.6923590662e+000,4.9136208377e+000,3.7441146563e+000,4.3862327763e+000,4.9346595154e+000,3.2910113469e+000,3.9417807581e+000,3.2713464240e+000,4.1046289244e+000,
1.0031250000e+001,3.7329663513e+000,4.1533357606e+000,3.0862463875e+000,3.8811964700e+000,4.4123601902e+000,5.6542797925e+000,4.9197902725e+000,3.7171238912e+000,4.4639229704e+000,4.8635004303e+000,3.3791370450e+000,3.9561996604e+000,3.3893943701e+000,4.1242358740e+000,
1.0125000000e+001,3.7264312995e+000,4.0642907910e+000,3.0895143709e+000,3.9559526386e+000,4.4902503616e+000,5.7368588557e+000,4.9563975197e+000,3.7361885100e+000,4.4361482854e+000,5.0084349936e+000,3.3344794952e+000,3.9075202057e+000,3.3918737917e+000,4.0328026670e+000,
1.0218750000e+001,3.6299126846e+000,4.0643226284e+000,3.0003611646e+000,3.9922509084e+000,4.4197581589e+000,5.8354274922e+000,4.9595955299e+000,3.7309117731e+000,4.4176313830e+000,4.9651056986e+000,3.3159924212e+000,3.9497902359e+000,3.4114052555e+000,4.0978010692e+000,
1.0312500000e+001,3.6741280787e+000,4.1158253193e+000,3.0812343451e+000,4.0454193247e+000,4.5339943273e+000,5.9247845141e+000,5.4483577353e+000,3.7272410373e+000,4.3697419414e+000,4.9500305676e+000,3.3886091190e+000,4.0037915997e+000,3.4779539256e+000,4.1659470911e+000,
1.0406250000e+001,4.0449758222e+000,4.5873462794e+000,3.2999464134e+000,4.1749272152e+000,4.6458797401e+000,6.0780245973e+000,6.1264079244e+000,3.7631150231e+000,4.3488844894e+000,4.9520372693e+000,3.4216728375e+000,4.0706120598e+000,3.5357066288e+000,4.2380701439e+000,
1.0500000000e+001,4.3231595661e+000,1.0445571418e+001,3.4428662393e+000,4.2764823481e+000,4.7601035134e+000,6.4805282009e+000,6.1698607038e+000,7.8682723374e+000,4.3102621428e+000,4.9896440751e+000,3.4485870670e+000,4.1489152959e+000,3.6210749311e+000,4.2354252317e+000,
1.0593750000e+001,4.4130497614e+000,1.0851041917e+001,3.5047927998e+000,4.2790225142e+000,4.7768239789e+000,6.5693402956e+000,6.1668082586e+000,8.5597624190e+000,4.3434170724e+000,4.9158946840e+000,3.4751855568e+000,4.2146321637e+000,3.6586691139e+000,4.2872910965e+000,
1.0687500000e+001,4.4313945803e+000,1.0940975469e+001,3.5237563314e+000,4.1954721570e+000,4.7611410095e+000,6.6564208247e+000,6.1900497973e+000,8.5784914085e+000,4.1698624904e+000,4.9259962945e+000,3.4582310200e+000,4.1931375300e+000,3.5232316618e+000,4.2523636236e+000,
1.0781250000e+001,4.4377008382e+000,1.0947686869e+001,3.5057725642e+000,4.1399590043e+000,4.7930576331e+000,6.6597636249e+000,6.1716455433e+000,8.5789014702e+000,4.1034106781e+000,4.8564732195e+000,3.3856645235e+000,4.1173015085e+000,3.2913265066e+000,4.1893582856e+000,
1.0875000000e+001,4.4853578113e+000,1.0948018110e+001,3.5859108097e+000,7.9394265166e+000,4.8994377584e+000,6.6863534215e+000,6.2362535674e+000,8.5789102899e+000,4.1726105235e+000,4.6962339592e+000,3.3178593447e+000,4.1397043279e+000,3.3323678242e+000,4.2241499646e+000,
1.0968750000e+001,4.5716118718e+000,1.0948029951e+001,3.6000921008e+000,8.9596793753e+000,4.9167635602e+000,6.7075987915e+000,6.2308709983e+000,8.5784922893e+000,4.2677059025e+000,4.7703270485e+000,3.3268108688e+000,4.1906326609e+000,3.3612816784e+000,4.1998212985e+000,
1.1062500000e+001,4.5916937962e+000,1.0948112666e+001,3.6179903024e+000,8.9922373864e+000,4.9649793682e+000,6.6850974416e+000,6.2598197447e+000,8.5781349798e+000,4.2190596520e+000,4.7027354042e+000,3.2333972449e+000,4.1892971425e+000,3.3180346903e+000,4.2650508543e+000,
1.1156250000e+001,4.5978339200e+000,1.0948111598e+001,3.6131337762e+000,8.9942545974e+000,5.0208117973e+000,6.6890681214e+000,6.2538586871e+000,8.5781287618e+000,4.2222403389e+000,4.5398161819e+000,3.2677708043e+000,4.1471463384e+000,3.2471945069e+000,4.2465330949e+000,
1.1250000000e+001,4.6058947957e+000,1.0948119861e+001,3.6461423755e+000,8.9939176619e+000,5.0645799191e+000,6.6907462936e+000,6.2719295903e+000,8.5782430857e+000,4.3240440756e+000,4.6959059935e+000,3.3855041772e+000,4.2473199672e+000,3.3902945397e+000,4.3166352854e+000,
1.1343750000e+001,4.6439130451e+000,1.0948152475e+001,3.6697447696e+000,8.9933435473e+000,5.0377248013e+000,6.6765129755e+000,5.6777963203e+000,8.5793332469e+000,4.4129938207e+000,4.8647288913e+000,3.4673069653e+000,4.3963653131e+000,3.4224993260e+000,4.4245420941e+000,
1.1437500000e+001,4.6541962689e+000,1.0939614284e+001,3.6157511067e+000,8.9932597255e+000,5.0145369424e+000,6.6947046448e+000,5.4322312981e+000,8.5659849484e+000,4.4276873702e+000,4.9247945591e+000,3.5606660014e+000,4.4412564312e+000,3.4905587270e+000,4.4675995843e+000,
1.1531250000e+001,4.7138827827e+000,9.5843695288e+000,3.5108419884e+000,8.9929540529e+000,4.9954984985e+000,6.3366925416e+000,5.3414258019e+000,6.7341479347e+000,4.4631107706e+000,4.9170859669e+000,3.5943362249e+000,4.5468102244e+000,3.6018697403e+000,4.6208648912e+000,
1.1625000000e+001,4.7160893423e+000,8.2295051210e+000,3.4542691416e+000,8.9933019933e+000,5.0419171530e+000,6.2426437026e+000,5.2703270651e+000,4.5863725861e+000,4.4495505558e+000,4.8926194548e+000,3.5633453694e+000,4.4922757780e+000,3.6233690360e+000,4.5930409886e+000,
1.1718750000e+001,4.7084175887e+000,5.2118879111e+000,3.4092529548e+000,8.9932135734e+000,4.9985170874e+000,6.2670294353e+000,5.2694665524e+000,3.8268640675e+000,4.4835513754e+000,4.8989078006e+000,3.6061544456e+000,4.5126501463e+000,3.6174577112e+000,4.5704509655e+000,
1.1812500000e+001,4.7454428968e+000,4.8537559759e+000,3.5791336436e+000,8.9937224910e+000,4.9993193483e+000,6.1895234127e+000,5.1551383740e+000,3.9060457723e+000,4.6277969928e+000,4.8788006285e+000,3.6864984659e+000,4.6845119687e+000,3.6951439565e+000,4.7483124593e+000,
1.1906250000e+001,4.7343596530e+000,4.7518614918e+000,3.5087767028e+000,7.4935086218e+000,5.0054402710e+000,6.1972456072e+000,5.0713986761e+000,3.8312318910e+000,4.5205020279e+000,4.8817892338e+000,3.6442572035e+000,4.7351770752e+000,3.6645991514e+000,4.8652934130e+000,
1.2000000000e+001,4.6992079215e+000,4.7070305959e+000,3.4606184973e+000,5.3350980356e+000,4.9655718215e+000,6.1482278769e+000,5.0317844948e+000,3.8830959053e+000,4.4938521346e+000,4.8551300346e+000,3.7379248498e+000,4.7549373869e+000,3.6281001699e+000,4.8791342197e+000,
1.2093750000e+001,4.7133644240e+000,4.7880483822e+000,3.4721209701e+000,4.1361629685e+000,4.8658125462e+000,6.4183369416e+000,4.9630879619e+000,4.0209370650e+000,4.4848439135e+000,4.9167017075e+000,3.7889603011e+000,4.7411988209e+000,3.7227056513e+000,4.8612382215e+000,
1.2187500000e+001,4.7025700863e+000,4.8134752349e+000,3.5085381447e+000,4.1695422664e+000,4.8931035672e+000,6.4976309769e+000,4.9903102764e+000,4.0554449601e+000,4.4940176111e+000,4.9899086596e+000,3.7470644232e+000,4.7459551963e+000,3.7101067746e+000,4.8647784755e+000,
1.2281250000e+001,4.7072117598e+000,4.8091153304e+000,3.5180891547e+000,4.1607661958e+000,4.8617714681e+000,6.4382245694e+000,4.9353473611e+000,4.0121530959e+000,4.3640368380e+000,4.9158211294e+000,3.6455302566e+000,4.6910234264e+000,3.6630451314e+000,4.8268467359e+000,
1.2375000000e+001,4.6827348784e+000,4.7215113831e+000,3.4507189565e+000,4.1152015970e+000,4.9092799327e+000,6.4111552739e+000,5.0434684339e+000,3.9710381662e+000,4.2912253570e+000,4.8506400387e+000,3.5696976572e+000,4.6126004830e+000,3.5910977793e+000,4.8796547391e+000,
1.2468750000e+001,4.2047827626e+000,4.4425409518e+000,3.3674506087e+000,4.0508172487e+000,4.7608920177e+000,6.5351901855e+000,4.9355803229e+000,3.8895559323e+000,4.3164576568e+000,4.8358280966e+000,3.4494793260e+000,4.6428557250e+000,3.5035779826e+000,4.8986577406e+000,
1.2562500000e+001,3.9378831936e+000,4.3389852953e+000,3.3327089677e+000,3.9217822547e+000,4.7301286383e+000,6.5496644456e+000,4.9981153924e+000,3.8843710383e+000,4.3062325392e+000,4.8961760069e+000,3.3174884183e+000,4.6001450405e+000,3.4522769090e+000,4.8486088809e+000,
1.2656250000e+001,3.9363066288e+000,4.2889695168e+000,3.3734054357e+000,3.9008401780e+000,4.6882784670e+000,6.5086035140e+000,5.0786345044e+000,3.8450798012e+000,4.2466996479e+000,4.8948720194e+000,3.3056254062e+000,4.6394717729e+000,3.4238741516e+000,4.9138166914e+000,
1.2750000000e+001,4.2355048018e+000,4.5635153329e+000,3.4519454940e+000,4.1380638445e+000,4.6771108014e+000,6.5495266673e+000,5.1959340278e+000,3.9266481773e+000,4.1530480594e+000,4.9590002959e+000,3.2385973672e+000,4.6421790763e+000,3.5331636757e+000,4.9547942308e+000,
1.2843750000e+001,4.2683347619e+000,4.6904835250e+000,3.4120362049e+000,4.2445271985e+000,4.7731505996e+000,6.6820601144e+000,5.1774701499e+000,4.0696197532e+000,4.0163752084e+000,4.9908594022e+000,3.2704565987e+000,4.5179667500e+000,3.5717899018e+000,4.9218354032e+000,
1.2937500000e+001,4.3732171580e+000,4.8152029058e+000,3.5284834946e+000,4.3968739478e+000,4.9208329960e+000,6.6703308512e+000,5.0915747033e+000,4.1372461788e+000,4.2497616280e+000,4.9817932334e+000,3.4185799807e+000,4.4932764680e+000,3.6667832296e+000,4.9089952398e+000,
1.3031250000e+001,4.4556881071e+000,4.8349076408e+000,3.6665208755e+000,4.3856965060e+000,4.9635350293e+000,6.6798013340e+000,5.1260882447e+000,4.2291877984e+000,4.4073753177e+000,4.9789841966e+000,3.3102862704e+000,4.5400331938e+000,3.6856441748e+000,4.9566849985e+000,
1.3125000000e+001,4.4738645456e+000,4.7843710490e+000,3.6434744744e+000,4.3608272977e+000,4.9726907987e+000,6.4633788936e+000,5.0280025535e+000,4.1495164169e+000,4.4735863114e+000,4.9494018898e+000,3.3813339563e+000,4.5658210222e+000,3.7307922121e+000,5.0082484825e+000,
1.3218750000e+001,4.4800408549e+000,4.8220601433e+000,3.6432648271e+000,4.3805112943e+000,5.0051034235e+000,6.4251764458e+000,5.0690446744e+000,4.1089084781e+000,4.4839816652e+000,4.8692632989e+000,3.4082141520e+000,4.6873743162e+000,3.7772270502e+000,5.1728577298e+000,
1.3312500000e+001,4.4423771621e+000,4.8250800538e+000,3.5988747258e+000,4.3770959353e+000,5.0765487887e+000,6.4262912091e+000,5.0230902794e+000,4.1336964700e+000,4.5243324710e+000,4.9285301699e+000,3.4044236367e+000,4.7114973728e+000,3.7263114747e+000,5.1443163528e+000,
1.3406250000e+001,4.4557539268e+000,4.8248992015e+000,3.5898969302e+000,4.3678152770e+000,5.0482371060e+000,6.3323281286e+000,4.9500777268e+000,4.1814798513e+000,4.4803317546e+000,4.8647839849e+000,3.4345213640e+000,4.6595715801e+000,3.7548730122e+000,5.0884715477e+000,
1.3500000000e+001,4.4922891551e+000,4.8441914708e+000,3.6172937571e+000,4.3666404288e+000,5.0800257181e+000,6.1631818634e+000,5.0050095414e+000,4.1959609586e+000,4.4485780067e+000,4.8813982872e+000,3.4751139149e+000,4.6306229056e+000,3.7874261153e+000,5.0497487202e+000,
1.3593750000e+001,4.5342655108e+000,4.8746412530e+000,3.6610448995e+000,4.3889662282e+000,5.0863374877e+000,6.0362096461e+000,4.9203445222e+000,4.3027873924e+000,4.5131635101e+000,4.7770971508e+000,3.5011838778e+000,4.5853070562e+000,3.7667636235e+000,4.9813678834e+000,
1.3687500000e+001,4.5797501358e+000,4.8279645547e+000,3.6254467120e+000,4.2947881954e+000,5.1520033552e+000,6.1724440985e+000,4.9161163216e+000,4.3041875107e+000,4.5737315013e+000,4.7763647319e+000,3.5153318906e+000,4.5947343874e+000,3.8348762135e+000,4.9958688116e+000,
1.3781250000e+001,4.6453288499e+000,4.6307551146e+000,3.5786574607e+000,4.0504377175e+000,5.2702885096e+000,6.2016856294e+000,4.8531276363e+000,4.2784631291e+000,4.5888909691e+000,4.7739262149e+000,3.4874736256e+000,4.5986671715e+000,3.7686756357e+000,4.9611022246e+000,
1.3875000000e+001,4.6731246627e+000,4.5561845640e+000,3.6352212879e+000,4.0048833254e+000,5.3135149348e+000,5.9768892064e+000,4.8787006447e+000,4.1342609122e+000,4.5934798241e+000,4.9117597619e+000,3.2717416066e+000,4.6160842263e+000,3.7162615184e+000,4.8894565427e+000,
1.3968750000e+001,4.6379712964e+000,4.4922974726e+000,3.5739559291e+000,3.8512693261e+000,5.1743626003e+000,5.9756412511e+000,4.9810455129e+000,4.1521792460e+000,4.4859986610e+000,4.8634963223e+000,3.2151112052e+000,4.6265104984e+000,3.7724687331e+000,4.8699995464e+000,
1.4062500000e+001,4.5934116188e+000,4.5233613856e+000,3.5081442388e+000,3.9149688893e+000,5.1960882500e+000,6.0043762349e+000,4.9955665563e+000,4.0204107011e+000,4.5618114735e+000,4.7519070354e+000,3.1838077338e+000,4.6346632115e+000,3.6705377317e+000,4.8572480537e+000,
1.4156250000e+001,4.5814866720e+000,4.4538960813e+000,3.5324464022e+000,3.7870382577e+000,5.1569275360e+000,6.0016687897e+000,5.1021978818e+000,4.0298543706e+000,4.5451742802e+000,4.7778620026e+000,3.1868902379e+000,4.6119187634e+000,3.6045629553e+000,4.7765164530e+000,
1.4250000000e+001,4.5667549347e+000,4.3615760975e+000,3.5316794713e+000,3.7354375742e+000,5.0515919329e+000,6.1066172629e+000,5.1236548174e+000,4.0288849230e+000,4.6178904260e+000,4.8614758152e+000,3.2898010424e+000,4.6042527982e+000,3.5393039335e+000,4.6276522628e+000,
1.4343750000e+001,4.5930458311e+000,4.4037074689e+000,3.5782097102e+000,3.8256714907e+000,5.0642087734e+000,6.0709664662e+000,5.1080447000e+000,4.0706406903e+000,4.7939358781e+000,4.8509348626e+000,3.3546124945e+000,4.6125372122e+000,3.6022348839e+000,4.6753739266e+000,
1.4437500000e+001,4.7596247795e+000,4.4837514194e+000,3.6504074554e+000,3.8799167558e+000,5.1027794565e+000,6.1822928558e+000,5.1355640689e+000,3.9926128181e+000,4.9024937057e+000,5.0600856485e+000,3.5299797387e+000,4.8653272890e+000,3.8910426872e+000,5.0940003826e+000,
1.4531250000e+001,4.9101675937e+000,4.5439789641e+000,3.7503819063e+000,3.9332240196e+000,5.3059006311e+000,6.3685911332e+000,5.2711450157e+000,3.9847726694e+000,4.9602558547e+000,5.1423827450e+000,3.6893945828e+000,4.9038128696e+000,4.0610512569e+000,5.1356866767e+000,
1.4625000000e+001,4.9341276926e+000,4.6419487816e+000,3.7751446804e+000,4.0218598236e+000,5.3523793014e+000,6.4704704198e+000,5.2570464134e+000,3.8946494033e+000,5.0075365776e+000,5.1914642983e+000,3.8440712326e+000,4.9140537966e+000,4.1812197236e+000,5.2153917739e+000,
1.4718750000e+001,4.8666361332e+000,4.6997958402e+000,3.8496847989e+000,4.1138135983e+000,5.2643249701e+000,6.4163174223e+000,5.2904064201e+000,3.8873451398e+000,5.1575914468e+000,5.2679931773e+000,3.9603514053e+000,4.9434171357e+000,4.1855069056e+000,5.2499288373e+000,
1.4812500000e+001,4.7555592475e+000,4.7221486620e+000,3.9102076501e+000,4.2129474782e+000,5.2045787295e+000,6.3838113252e+000,5.3378880246e+000,3.8247697269e+000,5.2264251740e+000,5.2529720434e+000,3.9570485406e+000,4.9559049803e+000,4.2166823754e+000,5.2618754555e+000,
1.4906250000e+001,4.6877794267e+000,4.5997618428e+000,3.8766419506e+000,4.1173264543e+000,5.2330787594e+000,6.4190210420e+000,5.4270414003e+000,3.7995780903e+000,5.3975457125e+000,5.2399466054e+000,4.1270885729e+000,4.9014192962e+000,4.2569736546e+000,5.2754448476e+000,
1.5000000000e+001,4.7187445223e+000,4.5415925961e+000,3.8945258748e+000,4.0712773001e+000,5.3595749593e+000,6.3842137606e+000,5.4515452878e+000,3.8140587391e+000,5.3968040195e+000,5.3184056268e+000,4.1331131231e+000,4.8992744986e+000,4.2965419305e+000,5.3522756595e+000,
1.5093750000e+001,4.8158491234e+000,4.6175581416e+000,3.9226887877e+000,4.0991130465e+000,5.4180954066e+000,6.5133200794e+000,5.4362119082e+000,3.9506992215e+000,5.5083688501e+000,5.3481250608e+000,4.2083089548e+000,4.9350818079e+000,4.3721897277e+000,5.3393805097e+000,
1.5187500000e+001,4.9598789671e+000,4.7163478313e+000,4.0857745189e+000,4.1345869256e+000,5.4536509946e+000,6.5070449137e+000,5.5211179217e+000,3.9722951057e+000,5.5978888942e+000,5.3212617994e+000,4.2755034238e+000,5.0275958600e+000,4.4661253382e+000,5.4075310643e+000,
1.5281250000e+001,4.9570096455e+000,4.7357934262e+000,4.0542574089e+000,4.1018798978e+000,5.4765513754e+000,6.5226678775e+000,5.4814371293e+000,4.0486502900e+000,5.5568004708e+000,5.2570136993e+000,4.2100886404e+000,4.9647208692e+000,4.4495233075e+000,5.3728368115e+000,
1.5375000000e+001,4.9249193581e+000,4.7416670431e+000,4.0544667791e+000,4.1342299434e+000,5.4804456424e+000,6.5198063117e+000,5.4721561338e+000,4.0127899107e+000,5.5430626387e+000,5.2362112842e+000,4.2444742060e+000,4.8688051809e+000,4.3614105646e+000,5.1477516784e+000,
1.5468750000e+001,4.7668506238e+000,4.7117379745e+000,4.0038339027e+000,4.1558047204e+000,5.3496788733e+000,6.4274587828e+000,5.4023600941e+000,4.0772330018e+000,5.5022796127e+000,5.1640987566e+000,4.0762845180e+000,4.7118546928e+000,4.1423647923e+000,4.9924668520e+000,
1.5562500000e+001,4.7846203542e+000,4.7328415419e+000,4.0672506145e+000,4.2005746758e+000,5.3569912594e+000,6.1885224362e+000,5.3955526166e+000,4.0313108843e+000,5.5585057070e+000,5.1376715592e+000,4.1196652729e+000,4.7528695673e+000,4.1338134048e+000,4.9553724544e+000,
1.5656250000e+001,4.7343263735e+000,4.6245987540e+000,4.0147447143e+000,4.1328730396e+000,5.3078523877e+000,6.1959083476e+000,5.4460574716e+000,4.0357134982e+000,5.5590562984e+000,5.1208032867e+000,4.0890555936e+000,4.7821516083e+000,4.0979355159e+000,4.9206353617e+000,
1.5750000000e+001,4.7641255095e+000,4.6597857340e+000,3.9538196545e+000,4.0328995708e+000,5.4190548375e+000,6.2292073978e+000,5.3666080787e+000,4.0734192957e+000,5.5533926900e+000,5.0698628536e+000,4.0603180985e+000,4.6395838188e+000,4.0949177034e+000,4.8103158364e+000,
1.5843750000e+001,4.7563248282e+000,4.6796202794e+000,3.9520849035e+000,4.0535561524e+000,5.4069474672e+000,6.1720925679e+000,5.3885119813e+000,4.1225545738e+000,5.5557438401e+000,4.9670099741e+000,4.1001949153e+000,4.5927086904e+000,4.0391011933e+000,4.7815101645e+000,
1.5937500000e+001,4.7596328209e+000,4.7240026790e+000,3.9791412758e+000,4.1000298631e+000,5.4022067431e+000,6.2294804536e+000,5.3057731022e+000,4.1056783211e+000,5.5755375712e+000,4.9147393644e+000,4.1033648544e+000,4.6797062235e+000,4.0603626927e+000,4.8329746832e+000,
1.6031250000e+001,4.7756962160e+000,4.7481470507e+000,4.0569885264e+000,4.0846959299e+000,5.2642024421e+000,6.2014682503e+000,5.3504813061e+000,4.0957718943e+000,5.5929060476e+000,4.8679045283e+000,4.0562640590e+000,4.6899882384e+000,3.9499650860e+000,4.7690800630e+000,
1.6125000000e+001,4.6164757666e+000,4.6169839766e+000,3.9951794070e+000,3.9571782628e+000,5.2213440993e+000,6.1451940483e+000,5.3408046924e+000,4.0143498658e+000,5.5347387462e+000,4.8562123727e+000,3.9477457910e+000,4.5780599802e+000,3.8329046822e+000,4.6114943218e+000,
1.6218750000e+001,4.5622595760e+000,4.6289713234e+000,3.9393344512e+000,4.0117008788e+000,5.1047493673e+000,6.0929141589e+000,5.3097763873e+000,3.9926387380e+000,5.5866937006e+000,4.8652350380e+000,3.9859424775e+000,4.5657368221e+000,3.8390349721e+000,4.6381091428e+000,
1.6312500000e+001,4.5854137451e+000,4.6095547711e+000,3.9901997132e+000,3.9989418109e+000,5.1391241565e+000,6.0877511008e+000,5.4417249215e+000,3.8875320885e+000,5.6084796077e+000,4.9334055543e+000,4.0278422362e+000,4.5464698541e+000,3.9079703160e+000,4.6299014384e+000,
1.6406250000e+001,4.6362085835e+000,4.6776990896e+000,4.0689006140e+000,4.0159285000e+000,5.1545083120e+000,6.1265001156e+000,5.4705950846e+000,3.8121629381e+000,5.6452130116e+000,4.8198231757e+000,4.0221558435e+000,4.5223477326e+000,3.9184774356e+000,4.6281700921e+000,
1.6500000000e+001,4.7408401152e+000,4.7647855536e+000,4.0984441929e+000,4.0520472162e+000,5.2721419354e+000,6.1584282724e+000,5.4695286804e+000,3.7679654641e+000,5.7159387736e+000,4.7946776910e+000,4.0525991616e+000,4.6382671544e+000,3.9313315208e+000,4.7316940105e+000,
1.6593750000e+001,4.7064264807e+000,4.7784628700e+000,4.0407553923e+000,4.0139494596e+000,5.1738162867e+000,6.1477174573e+000,5.3803034990e+000,3.8418684114e+000,5.6486238877e+000,4.7178063435e+000,3.9826057441e+000,4.5544899121e+000,3.8921808655e+000,4.6809807970e+000,
1.6687500000e+001,4.6526260816e+000,4.7282765427e+000,4.0576125578e+000,4.0513858995e+000,5.1590470449e+000,6.1186740370e+000,5.4682687016e+000,3.7664703804e+000,5.6700473973e+000,4.7517982334e+000,4.0776868943e+000,4.6919125701e+000,4.0996956950e+000,4.8855868440e+000,
1.6781250000e+001,4.7076872790e+000,4.7864121165e+000,4.1534951556e+000,4.1716210342e+000,5.1093358936e+000,6.1256106777e+000,5.4637173747e+000,3.7528379430e+000,5.6685670851e+000,4.8003456916e+000,4.0656784746e+000,4.7254304585e+000,4.0907657900e+000,4.9203087631e+000,
1.6875000000e+001,4.6749971847e+000,4.7633866292e+000,4.1403404447e+000,4.1545999919e+000,5.1339320911e+000,6.1118465874e+000,5.5051964899e+000,3.7724596797e+000,5.5561680109e+000,4.8202779992e+000,3.9820205238e+000,4.6446892689e+000,4.0278416544e+000,4.8431497536e+000,
1.6968750000e+001,4.6470002549e+000,4.7440545440e+000,4.1279053643e+000,4.1836543198e+000,5.1385346470e+000,6.0673195555e+000,5.5161723166e+000,3.7619320140e+000,5.5689812808e+000,4.8638296996e+000,3.9955898026e+000,4.7781839601e+000,4.0869802488e+000,4.9498348153e+000,
1.7062500000e+001,4.7076000311e+000,4.7664201779e+000,4.1108730010e+000,4.2315828892e+000,5.2997597983e+000,6.1777128534e+000,5.5138077450e+000,3.7356845518e+000,5.6889350998e+000,4.9576907619e+000,4.0969200198e+000,4.7279289794e+000,4.1315418172e+000,4.9077180053e+000,
1.7156250000e+001,4.7513375062e+000,4.8397180596e+000,4.1504390686e+000,4.3468532041e+000,5.3361701479e+000,6.1719834217e+000,5.4954262617e+000,3.7706920788e+000,5.7528723268e+000,4.9158778540e+000,4.1754213887e+000,4.7628853074e+000,4.1743176103e+000,4.9600346096e+000,
1.7250000000e+001,4.7936689877e+000,4.8875211747e+000,4.2182528138e+000,4.3969295986e+000,5.4027527452e+000,6.3321227492e+000,5.4844233198e+000,3.8487061269e+000,5.7236734946e+000,5.0282682596e+000,4.1447476523e+000,4.7385788883e+000,4.1468135606e+000,4.9587147596e+000,
1.7343750000e+001,4.8243417122e+000,4.9231619934e+000,4.1930906463e+000,4.4185570610e+000,5.4086756124e+000,6.3147916283e+000,5.4771717153e+000,3.9564386671e+000,5.7874443381e+000,5.1223073496e+000,4.1664680240e+000,4.7778515409e+000,4.1632909279e+000,4.9985966487e+000,
1.7437500000e+001,4.7037260031e+000,4.8702024997e+000,4.1382758045e+000,4.3980201157e+000,5.3548662153e+000,6.2701479036e+000,5.4737238696e+000,4.0759512902e+000,5.7237817899e+000,5.1820557881e+000,4.1234139292e+000,4.7053355408e+000,4.1160186253e+000,4.9297597784e+000,
1.7531250000e+001,4.6696699203e+000,4.8231325033e+000,4.1151765370e+000,4.4977560368e+000,5.3472243560e+000,6.3335197102e+000,5.4250558845e+000,4.0746785647e+000,5.7928439682e+000,5.1543665885e+000,4.0898864613e+000,4.6843568580e+000,4.1664979218e+000,4.9187287211e+000,
1.7625000000e+001,4.6702709191e+000,4.8687595222e+000,4.0978189080e+000,4.5277504092e+000,5.4033976077e+000,6.3216533522e+000,5.4346633932e+000,4.0662382726e+000,5.7936189215e+000,5.0951307130e+000,4.0222578732e+000,4.7891398117e+000,4.1218274375e+000,4.9603827410e+000,
1.7718750000e+001,4.7277688960e+000,4.9047308925e+000,4.1077593970e+000,4.6118946017e+000,5.3754375763e+000,6.4008786921e+000,5.3473231648e+000,4.2268172740e+000,5.8778010251e+000,5.1027915562e+000,4.1388552337e+000,4.8025584028e+000,4.1300030451e+000,4.8765257549e+000,
1.7812500000e+001,4.8770008719e+000,5.0123931618e+000,4.2231463462e+000,4.6588695903e+000,5.4700378042e+000,6.4224768685e+000,5.5344048758e+000,4.2395424354e+000,6.0123041665e+000,5.0926318684e+000,4.2894943564e+000,4.9704382952e+000,4.3075462903e+000,5.0107915442e+000,
1.7906250000e+001,4.9647286701e+000,5.0446746092e+000,4.3122213365e+000,4.7249798826e+000,5.5003598030e+000,6.4671439653e+000,5.5392606773e+000,4.1671565740e+000,6.0654162537e+000,5.1424995287e+000,4.2608660017e+000,4.9569928821e+000,4.2924277575e+000,5.0110083013e+000,
1.8000000000e+001,4.9689635943e+000,5.0392559679e+000,4.3207386569e+000,4.7207301960e+000,5.4745029692e+000,6.3774569395e+000,5.5078109605e+000,4.1317100866e+000,6.0356071769e+000,5.1292402140e+000,4.2331985869e+000,4.8836172683e+000,4.2966160083e+000,4.9111890037e+000,
1.8093750000e+001,4.9171290400e+000,5.0013173077e+000,4.2707583057e+000,4.6698368798e+000,5.3430914028e+000,6.4139730163e+000,5.4838679478e+000,4.1500579099e+000,5.9508766183e+000,5.1125468509e+000,4.1951158525e+000,4.8385277130e+000,4.2324601347e+000,4.8666728919e+000,
1.8187500000e+001,4.9305010439e+000,4.9772605269e+000,4.2713613816e+000,4.7077354335e+000,5.3629055958e+000,6.3211105248e+000,5.5343649707e+000,4.1346440152e+000,5.9093457812e+000,5.1581449046e+000,4.1613928835e+000,4.8767429934e+000,4.2023212602e+000,4.9102934614e+000,
1.8281250000e+001,4.9177147215e+000,4.9225086491e+000,4.2391060960e+000,4.6458396648e+000,5.3133272129e+000,6.2911808212e+000,5.5143778392e+000,4.2023675382e+000,5.9330988365e+000,5.0074270228e+000,4.2211066250e+000,4.9386581466e+000,4.2858021642e+000,4.9913723985e+000,
1.8375000000e+001,4.9383652557e+000,4.9290484236e+000,4.2334591068e+000,4.6883511804e+000,5.3211917624e+000,6.2995201082e+000,5.4012833399e+000,4.1245873460e+000,5.9366623796e+000,4.9024813310e+000,4.2355131722e+000,4.9614513885e+000,4.2831103490e+000,5.0001998692e+000,
1.8468750000e+001,5.0811555628e+000,4.9584087620e+000,4.3040371816e+000,4.6825937733e+000,5.3165016760e+000,6.2295624152e+000,5.5819233108e+000,4.0922554273e+000,5.9458819800e+000,4.8249969382e+000,4.2678621882e+000,5.0140772644e+000,4.2798109253e+000,5.0587296106e+000,
1.8562500000e+001,5.0922313861e+000,4.9917802352e+000,4.3448586329e+000,4.6671107891e+000,5.2490252832e+000,6.2045444596e+000,5.6094334466e+000,4.0109040967e+000,5.9128799668e+000,4.8276407141e+000,4.3288691353e+000,5.0030327350e+000,4.2561594070e+000,5.0627864416e+000,
1.8656250000e+001,5.1036184203e+000,5.0174454643e+000,4.3637291158e+000,4.7018556030e+000,5.2461254633e+000,6.2021235392e+000,5.5731022487e+000,4.0203285798e+000,5.9581969528e+000,4.9886742338e+000,4.3319268753e+000,4.9805338563e+000,4.2789107128e+000,5.0895522384e+000,
1.8750000000e+001,4.9593028407e+000,4.8851341190e+000,4.2601864467e+000,4.5851872555e+000,5.0776500178e+000,6.2889368309e+000,5.5610887553e+000,3.8787399929e+000,5.7849867784e+000,4.9426131369e+000,4.1587864922e+000,4.8438530853e+000,4.0339614281e+000,5.0217321734e+000,
1.8843750000e+001,4.8576652436e+000,4.7573786592e+000,4.1022480083e+000,4.4585772764e+000,5.0490876276e+000,6.2377661345e+000,5.4493578793e+000,3.9503943495e+000,5.6952626638e+000,4.9834646863e+000,4.0903540926e+000,4.7087409468e+000,3.8212043064e+000,5.1605878371e+000,
1.8937500000e+001,4.8686816366e+000,4.7496584577e+000,4.0629677179e+000,4.4831778219e+000,5.1402410630e+000,6.2121722746e+000,5.3915144347e+000,4.0371399657e+000,5.7693034178e+000,5.0339225712e+000,4.1813800762e+000,4.7837609521e+000,3.8771755218e+000,5.2136723773e+000,
1.9031250000e+001,4.8636210091e+000,4.8061257945e+000,4.0303300123e+000,4.4705491968e+000,5.2103753564e+000,6.1743111661e+000,5.4197827276e+000,4.0417213241e+000,5.7111826143e+000,5.0847863747e+000,4.1033543305e+000,4.7916590696e+000,3.8116584947e+000,5.2179424389e+000,
1.9125000000e+001,4.9043693757e+000,4.9082874391e+000,4.1089176166e+000,4.5289582415e+000,5.1876779574e+000,6.0986557524e+000,5.4559569068e+000,4.0885237008e+000,5.8243310780e+000,5.0433547785e+000,4.1557506263e+000,4.9007578719e+000,4.0336386109e+000,5.3540006833e+000,
1.9218750000e+001,4.8491536794e+000,4.8523074455e+000,4.0621333015e+000,4.5195643354e+000,5.2233891347e+000,6.0697160904e+000,5.4273453428e+000,4.0305326139e+000,5.8381342136e+000,4.9468397556e+000,4.1369398126e+000,4.8550867599e+000,4.0657101430e+000,5.3363176969e+000,
1.9312500000e+001,4.8647403573e+000,4.8626416948e+000,4.0550090119e+000,4.5345321052e+000,5.2465212681e+000,6.0361035331e+000,5.4884874885e+000,3.9082389015e+000,5.8496509970e+000,4.9882466017e+000,4.1609761271e+000,4.8248243868e+000,3.9559468351e+000,5.2825315770e+000,
1.9406250000e+001,4.8438850012e+000,4.9493014835e+000,4.1089534247e+000,4.6159073202e+000,5.3268454913e+000,6.0414909427e+000,5.5496422445e+000,3.9150190619e+000,5.8898085804e+000,5.0227139871e+000,4.1831800632e+000,4.7766481095e+000,3.9931789734e+000,5.3425762786e+000,
1.9500000000e+001,4.6504161192e+000,4.8590336288e+000,3.9672434310e+000,4.5964195090e+000,5.3572644677e+000,6.1026653017e+000,5.4146391535e+000,3.9589565404e+000,5.9339800049e+000,5.1406882490e+000,4.1801271182e+000,4.7745550291e+000,4.0502965350e+000,5.3538990617e+000,
1.9593750000e+001,4.6274343768e+000,4.8304569660e+000,3.9042183943e+000,4.5450536351e+000,5.3461773784e+000,6.1650006463e+000,5.4335189746e+000,4.0179870233e+000,5.8731148494e+000,5.0885676540e+000,4.1086093655e+000,4.8112003905e+000,4.0061557209e+000,5.4143570321e+000,
1.9687500000e+001,4.7742920859e+000,4.9079357569e+000,3.9084933887e+000,4.5603122774e+000,5.3505501053e+000,6.0947839627e+000,5.4325170431e+000,4.0036281837e+000,5.8633883033e+000,5.0652699697e+000,4.1141874404e+000,4.8064410278e+000,4.0175148564e+000,5.4131039234e+000,
1.9781250000e+001,4.8095469551e+000,4.9584462834e+000,3.9265940505e+000,4.5696849563e+000,5.3666563344e+000,6.1484553817e+000,5.4623102510e+000,4.0806684976e+000,5.9373339185e+000,5.0801354391e+000,4.2235624665e+000,4.7405971670e+000,4.0783612281e+000,5.2510913591e+000,
1.9875000000e+001,4.8358717141e+000,4.9937548281e+000,4.0204869822e+000,4.5874286069e+000,5.3822257127e+000,6.1962817584e+000,5.5582757546e+000,4.0305439429e+000,5.9386576028e+000,4.9998719834e+000,4.1603074055e+000,4.7471208066e+000,4.0527368383e+000,5.1531735253e+000,
1.9968750000e+001,4.7877508489e+000,4.9509613290e+000,4.0107867684e+000,4.5329235924e+000,5.2837846152e+000,6.2916017184e+000,5.5904175408e+000,4.1412366779e+000,5.8604116410e+000,4.8546487196e+000,4.1295139977e+000,4.6612946435e+000,4.0018327502e+000,5.0730485770e+000,
2.0062500000e+001,4.7527385787e+000,4.8934126675e+000,3.9702689056e+000,4.4752881676e+000,5.2941205177e+000,6.3441037880e+000,5.4896786997e+000,4.1499440142e+000,5.8048209318e+000,4.8313879652e+000,4.1040208398e+000,4.6236054721e+000,3.9477812476e+000,5.0320314316e+000,
2.0156250000e+001,4.7190764462e+000,4.8506282791e+000,3.9288622152e+000,4.4389255352e+000,5.2879691945e+000,6.2901520881e+000,5.4793866118e+000,4.1767851031e+000,5.7775435935e+000,4.8443226776e+000,4.0966508837e+000,4.5222748676e+000,3.7841018870e+000,4.9069394329e+000,
2.0250000000e+001,4.6866603106e+000,4.8156498723e+000,3.9277588285e+000,4.3926944158e+000,5.2714249779e+000,6.3834570401e+000,5.3559709585e+000,4.1676659496e+000,5.7238449611e+000,4.8518008706e+000,4.1408365835e+000,4.5864872323e+000,3.7594060825e+000,4.9140542847e+000,
2.0343750000e+001,4.6849401354e+000,4.8552487986e+000,4.0406936754e+000,4.4217065457e+000,5.2512152764e+000,6.4017978455e+000,5.2801018910e+000,4.2800416111e+000,5.6722395052e+000,4.8717352726e+000,4.0803831928e+000,4.6933173973e+000,3.7503224845e+000,4.9260208600e+000,
2.0437500000e+001,4.5681179203e+000,4.6511345848e+000,3.9454790699e+000,4.2026667550e+000,5.0902357211e+000,6.4291930844e+000,5.2129037830e+000,4.2714126943e+000,5.5895586861e+000,4.8475280343e+000,4.0361260676e+000,4.6576660128e+000,3.6638636791e+000,4.7558687157e+000,
2.0531250000e+001,4.6314886247e+000,4.6146073845e+000,4.0449449855e+000,4.2012473215e+000,5.0927829515e+000,6.4546381535e+000,5.2386493122e+000,4.3227922771e+000,5.5849308690e+000,4.7182781025e+000,4.1487091476e+000,4.5432501798e+000,3.6417665393e+000,4.5846392635e+000,
2.0625000000e+001,4.5599652395e+000,4.5094801294e+000,4.0527787958e+000,4.0715812612e+000,5.0700012073e+000,6.3790578627e+000,5.1910055648e+000,4.2743379828e+000,5.5634033494e+000,4.6373945672e+000,4.1847846857e+000,4.5984603620e+000,3.6567248682e+000,4.5465069386e+000,
2.0718750000e+001,4.3662948186e+000,4.3214811299e+000,4.0022210956e+000,3.9772769694e+000,4.9941246293e+000,6.2388326708e+000,5.1268684060e+000,4.1272079134e+000,5.4183457186e+000,4.5598214782e+000,4.1877057237e+000,4.7786943599e+000,3.6165844658e+000,4.7506980043e+000,
2.0812500000e+001,4.3227480602e+000,4.1701027308e+000,3.9502144822e+000,3.8190632983e+000,4.9772150033e+000,6.1041146096e+000,4.9843517017e+000,4.0811473653e+000,5.3308313556e+000,4.5346118117e+000,4.1326600076e+000,4.8056153895e+000,3.5079523307e+000,4.8004725569e+000,
2.0906250000e+001,4.0642071172e+000,3.9705340557e+000,3.7571901082e+000,3.7432999404e+000,4.7014257059e+000,5.9570721023e+000,4.6745850417e+000,3.9650797560e+000,5.1306294305e+000,4.5258403175e+000,4.0298813530e+000,4.7790856878e+000,3.5194698990e+000,4.7807164497e+000,
2.1000000000e+001,4.0477071498e+000,3.8391146745e+000,3.7206706948e+000,3.6452496942e+000,4.6326442283e+000,5.8109335584e+000,4.5384491261e+000,3.7558532766e+000,5.0998980076e+000,4.5033014143e+000,3.9877672881e+000,4.8127100166e+000,3.5136069209e+000,4.8481477263e+000,
2.1093750000e+001,3.9916980298e+000,3.7954349677e+000,3.6498524317e+000,3.6633578856e+000,4.5460115279e+000,5.6875332414e+000,4.4333151535e+000,3.6968622041e+000,4.9558662413e+000,4.4364969653e+000,3.9224648370e+000,4.8296362741e+000,3.4287749815e+000,4.8072346078e+000,
2.1187500000e+001,3.8797170899e+000,3.7420381955e+000,3.5141093340e+000,3.5619603100e+000,4.2597095896e+000,5.6445391082e+000,4.2401024688e+000,3.5602394836e+000,4.8226187436e+000,4.3329390199e+000,3.9111623490e+000,4.8424586122e+000,3.4092014927e+000,4.7665074556e+000,
2.1281250000e+001,3.8290440411e+000,3.6728090551e+000,3.3662302943e+000,3.5186409441e+000,4.2495884260e+000,5.2189707671e+000,4.1094731062e+000,3.2956558410e+000,4.5828412277e+000,4.1353841774e+000,3.7307317873e+000,4.7828153737e+000,3.2375821829e+000,4.7185763768e+000,
2.1375000000e+001,3.6791691210e+000,3.4412790008e+000,3.1529162788e+000,3.1670273935e+000,3.9585395916e+000,5.0668503552e+000,3.9280618925e+000,3.1378772146e+000,4.4317013358e+000,4.1800235621e+000,3.7468897932e+000,4.9155194521e+000,3.2293377571e+000,4.8673001738e+000,
2.1468750000e+001,3.7394038026e+000,3.4927021937e+000,3.1498490107e+000,3.0947006443e+000,3.9210268073e+000,4.6111418366e+000,3.8497673245e+000,2.6863285595e+000,4.1309825853e+000,4.1794296907e+000,3.5882297105e+000,4.9819215030e+000,3.1323304357e+000,5.0700369423e+000,
2.1562500000e+001,3.6449945696e+000,3.5000813812e+000,2.9452380064e+000,3.0397462948e+000,3.5723143055e+000,4.1069337236e+000,3.5213140682e+000,2.6174395067e+000,3.4869910862e+000,4.1116871067e+000,3.5469006177e+000,4.9696110281e+000,3.1317646914e+000,5.0867663086e+000,
2.1656250000e+001,3.5682957515e+000,3.4195190693e+000,2.8317433411e+000,2.9709208888e+000,3.4607252764e+000,3.9469555016e+000,3.3315880124e+000,2.7818065555e+000,3.4385274037e+000,4.0880327098e+000,3.5128471989e+000,4.9243931336e+000,3.0160956435e+000,5.0041943371e+000,
2.1750000000e+001,3.5699922577e+000,3.4670303164e+000,2.8469593990e+000,3.1471546601e+000,3.3249424014e+000,3.9595813981e+000,3.2182732653e+000,2.8257200870e+000,3.4229524208e+000,4.0367271949e+000,3.2382096308e+000,4.9777464845e+000,2.9482305206e+000,4.9581485943e+000,
2.1843750000e+001,3.6607839483e+000,3.5697059496e+000,2.9065722861e+000,3.2344431494e+000,3.4110469094e+000,3.9194632460e+000,3.2783432824e+000,3.0643208840e+000,3.4321948535e+000,4.0796485618e+000,3.2236735414e+000,5.0468349231e+000,3.0005796597e+000,4.9314545278e+000,
2.1937500000e+001,3.7251197448e+000,3.6282620260e+000,2.8975284217e+000,3.2094110989e+000,3.5137885595e+000,3.9786825543e+000,3.2962535710e+000,3.7861856288e+000,3.5136477917e+000,4.0678291325e+000,3.3352362051e+000,5.0613464936e+000,3.0281993668e+000,4.9613165073e+000,
2.2031250000e+001,3.9122248111e+000,3.7008815584e+000,2.9694177379e+000,3.1559685981e+000,3.5888556753e+000,3.8797706386e+000,3.2965940063e+000,4.3654578223e+000,3.5225236125e+000,4.1668115206e+000,3.3506119645e+000,5.0617374327e+000,3.0526940181e+000,4.9355280905e+000,
2.2125000000e+001,4.3118147155e+000,3.9851208212e+000,3.1388628391e+000,3.1886274483e+000,3.8186194942e+000,4.0313660613e+000,3.3619853754e+000,4.9701161704e+000,3.6241842617e+000,4.1857367242e+000,3.4892114173e+000,5.0085305791e+000,3.1201463865e+000,4.9060824603e+000,
2.2218750000e+001,4.3900055998e+000,4.0092745497e+000,3.1907426501e+000,3.1710664327e+000,3.8837987981e+000,4.0849884436e+000,3.4675328012e+000,5.0809489740e+000,3.7023699365e+000,4.3131173196e+000,3.4855755201e+000,5.0174469998e+000,3.1542181882e+000,4.8992041726e+000,
2.2312500000e+001,4.3821622448e+000,4.0443022689e+000,3.2136127444e+000,3.2785698452e+000,3.9153291924e+000,4.1612270914e+000,3.4805680750e+000,5.1301146344e+000,3.7790073595e+000,4.2866386787e+000,3.5971186960e+000,5.0046679652e+000,3.4377796146e+000,4.9255555957e+000,
2.2406250000e+001,4.4326197321e+000,4.0763915825e+000,3.2806867564e+000,3.3630537345e+000,3.9612547381e+000,4.1029633075e+000,3.5375695871e+000,5.1598463217e+000,3.8530712174e+000,4.4141677752e+000,3.6024719984e+000,4.7873156801e+000,3.3949378410e+000,4.6543401194e+000,
2.2500000000e+001,4.3547583333e+000,3.9910318840e+000,3.2346983581e+000,3.3518294068e+000,3.9307592473e+000,4.1578791234e+000,3.4409917236e+000,5.2911970503e+000,3.8663588969e+000,4.4468801356e+000,3.6078403073e+000,4.7732052446e+000,3.3237048613e+000,4.5118864143e+000,
2.2593750000e+001,4.3201951274e+000,3.9775728772e+000,3.2090370966e+000,3.3251966598e+000,3.9229122915e+000,4.2020572160e+000,3.5114372706e+000,5.5975514184e+000,3.9393056259e+000,4.4687558424e+000,3.5192992147e+000,4.7748035111e+000,3.2898701692e+000,4.6053374936e+000,
2.2687500000e+001,4.3273543113e+000,3.9930300079e+000,3.2228059197e+000,3.2849090440e+000,3.9675346435e+000,4.2185512122e+000,3.5585920241e+000,5.6298929856e+000,3.9572881611e+000,4.4303027715e+000,3.4944477472e+000,4.7831648050e+000,3.3008572719e+000,4.6316629547e+000,
2.2781250000e+001,4.3440607859e+000,3.9630094006e+000,3.2339788948e+000,3.2536245534e+000,4.0523587794e+000,4.3450223064e+000,3.5922571984e+000,5.6386122639e+000,4.1275718946e+000,4.4220358443e+000,3.5111410350e+000,4.5788244821e+000,3.3406751656e+000,4.5124022281e+000,
2.2875000000e+001,4.3249450925e+000,3.9529381173e+000,3.2084278308e+000,3.3046139716e+000,4.0232930388e+000,4.4685951227e+000,3.5841536057e+000,5.5925194187e+000,4.1412635003e+000,4.4363728285e+000,3.4801567242e+000,4.5383789426e+000,3.3002115075e+000,4.4923287670e+000,
2.2968750000e+001,4.3157833644e+000,3.9505381431e+000,3.2275439719e+000,3.3701320531e+000,4.0149536633e+000,4.5663141003e+000,3.6252079315e+000,5.5455525990e+000,4.1501381811e+000,4.4863881845e+000,3.4900908814e+000,4.5093027661e+000,3.2842453786e+000,4.4564446383e+000,
2.3062500000e+001,3.8750536561e+000,3.6771545730e+000,3.0832027863e+000,3.3156985940e+000,3.9652280683e+000,4.6086968709e+000,3.8290903287e+000,5.1991375932e+000,4.2120232645e+000,4.4896453113e+000,3.5522136108e+000,4.5175881851e+000,3.3838778027e+000,4.5153080426e+000,
2.3156250000e+001,3.6867335349e+000,3.6189077536e+000,3.1344815472e+000,3.4348427466e+000,4.0481310419e+000,4.6543020136e+000,3.9994276959e+000,5.0637665884e+000,4.2238807420e+000,4.4854496887e+000,3.4728136416e+000,4.4834453145e+000,3.3060650472e+000,4.5575351520e+000,
2.3250000000e+001,3.6800410090e+000,3.6660524362e+000,3.1082243661e+000,3.4670109087e+000,4.1485281917e+000,4.8576653704e+000,4.0734209444e+000,4.9525237711e+000,4.3736493814e+000,4.5980632437e+000,3.4032380610e+000,4.4557062319e+000,3.2021740993e+000,4.5983057899e+000,
2.3343750000e+001,3.7472493471e+000,3.6118855559e+000,3.2063905025e+000,3.4130872852e+000,4.2748086829e+000,4.9190577439e+000,4.2709188343e+000,4.9068888784e+000,4.3669978427e+000,4.5954886043e+000,3.3958865199e+000,4.4741026265e+000,3.0049932408e+000,4.5292313184e+000,
2.3437500000e+001,3.7876279367e+000,3.6190762625e+000,3.2514682581e+000,3.4828121607e+000,4.3335109935e+000,4.9726042515e+000,4.4368409627e+000,4.8621979685e+000,4.3775377117e+000,4.4741079122e+000,3.3868589697e+000,4.4899739126e+000,3.0375767939e+000,4.5107729721e+000,
2.3531250000e+001,3.8537958725e+000,3.7219880469e+000,3.2226889703e+000,3.6056984358e+000,4.3947465927e+000,5.0594742801e+000,4.5177695323e+000,4.1100021616e+000,4.4411197597e+000,4.4950144863e+000,3.4026376855e+000,4.4779359424e+000,3.1282553330e+000,4.4104741553e+000,
2.3625000000e+001,4.0149801607e+000,3.9450277324e+000,3.3876662638e+000,3.7550731544e+000,4.5131889720e+000,5.1793808061e+000,4.6961022201e+000,3.5849122699e+000,4.4273735225e+000,4.5263598754e+000,3.3462803993e+000,4.3748668040e+000,3.1205046159e+000,4.2810093932e+000,
2.3718750000e+001,4.0647305107e+000,3.9885516351e+000,3.4324019860e+000,3.7835816374e+000,4.6954863454e+000,5.2476535598e+000,4.9175026368e+000,3.2987571506e+000,4.4146871371e+000,4.5805466561e+000,3.3710299101e+000,4.3472442706e+000,3.1558748165e+000,4.2806411859e+000,
2.3812500000e+001,4.2481950520e+000,4.1331776295e+000,3.5560742586e+000,3.7604243447e+000,4.8151190113e+000,5.3298426201e+000,4.9943224402e+000,3.4311723106e+000,4.5782303106e+000,4.5680848677e+000,3.5339962045e+000,4.4380629334e+000,3.2258474639e+000,4.4731955855e+000,
2.3906250000e+001,4.4063606857e+000,4.3196335739e+000,3.6989003769e+000,3.8903091645e+000,4.9889439964e+000,5.4098802181e+000,5.1245964072e+000,3.7104883204e+000,4.6567640235e+000,4.5073204430e+000,3.6133278394e+000,4.4374348331e+000,3.3782202707e+000,4.5373062098e+000,
2.4000000000e+001,4.5150876303e+000,4.4933493423e+000,3.8467067316e+000,4.0461340332e+000,5.0696979934e+000,5.3596157784e+000,5.2902381560e+000,4.2386915459e+000,4.7032897325e+000,4.4778453719e+000,3.6608543527e+000,4.4964645023e+000,3.4609100036e+000,4.5943237207e+000,
2.4093750000e+001,4.5934068049e+000,4.5738471776e+000,3.8809581613e+000,4.1877002263e+000,5.2340663580e+000,5.4203545104e+000,5.3238562333e+000,4.6692565478e+000,4.8324441396e+000,4.5008857313e+000,3.6823508833e+000,4.4902045042e+000,3.4921947583e+000,4.6278537435e+000,
2.4187500000e+001,4.6166889828e+000,4.5980778718e+000,3.8881446769e+000,4.2305154734e+000,5.2057434908e+000,5.4991081769e+000,5.3658741345e+000,4.7269567336e+000,4.8788487510e+000,4.4870327998e+000,3.7367849838e+000,4.4799252580e+000,3.5184722844e+000,4.5923971270e+000,
2.4281250000e+001,4.5987721709e+000,4.5830844275e+000,3.8756704163e+000,4.2396092840e+000,5.2699636720e+000,5.5254862542e+000,5.3916774008e+000,4.7615181447e+000,4.9630963559e+000,4.3090386153e+000,3.7456852608e+000,4.5204075247e+000,3.5834213330e+000,4.7281802349e+000,
2.4375000000e+001,4.5862625621e+000,4.5925112513e+000,3.8373312089e+000,4.2698273795e+000,5.2570074148e+000,5.6759726118e+000,5.3522861227e+000,4.7908722329e+000,5.0190235794e+000,4.3671307852e+000,3.7424133908e+000,4.5160374749e+000,3.6229100556e+000,4.7683171446e+000,
2.4468750000e+001,4.5667034444e+000,4.5992870844e+000,3.8142892286e+000,4.2493308323e+000,5.2460391572e+000,5.7466859332e+000,5.2734332328e+000,4.8581773234e+000,5.0689158185e+000,4.5688986814e+000,3.7237030429e+000,4.5965251371e+000,3.5984252783e+000,4.7928503758e+000,
2.4562500000e+001,4.5569600614e+000,4.6555093614e+000,3.8547310125e+000,4.3175036164e+000,5.2848723782e+000,5.7182078500e+000,5.2565315975e+000,4.8781519887e+000,5.1062897972e+000,4.6435091274e+000,3.6929303526e+000,4.6510719979e+000,3.5784678498e+000,4.8517871808e+000,
2.4656250000e+001,4.5789111981e+000,4.6378606588e+000,3.8542620081e+000,4.3135313793e+000,5.3260341951e+000,5.7615947047e+000,5.1395811839e+000,4.8879995638e+000,5.1920094439e+000,4.8686672852e+000,3.7026969757e+000,4.8155877086e+000,3.6452513575e+000,4.9566186592e+000,
2.4750000000e+001,4.6471717554e+000,4.7337110762e+000,3.9504368303e+000,4.4686502273e+000,5.2883847774e+000,5.7919140996e+000,5.1317215387e+000,4.8848517058e+000,5.2735197886e+000,4.9331845286e+000,3.7485089121e+000,4.9148764003e+000,3.7793134934e+000,5.0644283616e+000,
2.4843750000e+001,4.4997607504e+000,4.6208065104e+000,3.8182730731e+000,4.4448922905e+000,5.2669322504e+000,5.7147153028e+000,5.2069678613e+000,4.8590242611e+000,5.1976692510e+000,4.9550815871e+000,3.5646848211e+000,4.7886293121e+000,3.6675123393e+000,4.9944018382e+000,
2.4937500000e+001,4.4004460775e+000,4.5244977957e+000,3.7116352705e+000,4.3340436536e+000,5.1710608915e+000,5.7256273571e+000,5.2290294426e+000,4.7395762654e+000,5.1859602806e+000,4.9561589929e+000,3.4612221609e+000,4.8109137752e+000,3.6070748818e+000,4.9895896122e+000,
2.5031250000e+001,4.2846526857e+000,4.4746751219e+000,3.6074060753e+000,4.3415985459e+000,5.0675478526e+000,5.7903529438e+000,5.0558221665e+000,4.3432279372e+000,5.1540891534e+000,4.9725028116e+000,3.3552330125e+000,4.7715415026e+000,3.4943067260e+000,4.9330789169e+000,
2.5125000000e+001,4.3377292825e+000,4.5150974195e+000,3.6593288786e+000,4.3399332544e+000,4.9825855564e+000,5.9377366906e+000,5.1257630162e+000,4.2031552343e+000,5.2357526536e+000,5.0407471260e+000,3.3307128049e+000,4.8608190459e+000,3.6019843447e+000,4.9301670071e+000,
2.5218750000e+001,4.3602657244e+000,4.5176805411e+000,3.7087459250e+000,4.3638725869e+000,5.0387443696e+000,5.8835462523e+000,5.1550465067e+000,4.1689344648e+000,5.2856452674e+000,5.0250791543e+000,3.2848938567e+000,4.8894768447e+000,3.6377893838e+000,4.9038328649e+000,
2.5312500000e+001,4.3891184614e+000,4.5727393148e+000,3.7361019102e+000,4.3710131162e+000,5.0026754606e+000,5.7783322750e+000,5.1461762377e+000,4.1537349696e+000,5.3308420788e+000,5.0898180139e+000,3.3048910866e+000,4.9061421273e+000,3.6815749819e+000,4.8943988082e+000,
2.5406250000e+001,4.4693330607e+000,4.6869533292e+000,3.8191857690e+000,4.4227511270e+000,5.0406893007e+000,5.8153836318e+000,5.3115248692e+000,4.1728389827e+000,5.4344432526e+000,5.0934708704e+000,3.5894808395e+000,4.9359357706e+000,3.7989236831e+000,4.9187745811e+000,
2.5500000000e+001,4.4395088416e+000,4.6294465593e+000,3.8266527436e+000,4.3970570007e+000,5.0394592937e+000,5.8368367424e+000,5.3363780878e+000,4.0842742585e+000,5.4458439047e+000,5.0877456661e+000,3.7790014801e+000,4.8527720836e+000,3.8389691248e+000,4.8964380488e+000,
2.5593750000e+001,4.5856182539e+000,4.6279701911e+000,3.8649593919e+000,4.3723783462e+000,5.0186340238e+000,5.9301168858e+000,5.3990682165e+000,4.0337827581e+000,5.5364647577e+000,5.1115032912e+000,3.8919553837e+000,4.8661228342e+000,3.9869643604e+000,4.9360648808e+000,
2.5687500000e+001,4.7403162565e+000,4.6815999930e+000,3.8694402516e+000,4.3254798622e+000,5.1216783902e+000,5.9225028978e+000,5.5370325335e+000,3.9380712222e+000,5.5070175954e+000,4.9744655165e+000,3.9288991948e+000,4.7692316065e+000,3.9244245369e+000,4.7672258662e+000,
2.5781250000e+001,4.7361738219e+000,4.6489027774e+000,3.8637059561e+000,4.3065318320e+000,5.1811109452e+000,5.8519019069e+000,5.5622811953e+000,3.8394604644e+000,5.5151672609e+000,5.0304076300e+000,3.9605457559e+000,4.7806645123e+000,3.9018290041e+000,4.6365721050e+000,
2.5875000000e+001,4.7447408304e+000,4.6524964908e+000,3.8820955246e+000,4.2772478917e+000,5.1808090088e+000,5.8713067084e+000,5.4960200031e+000,3.7954734750e+000,5.4979533215e+000,5.0971711179e+000,3.9653478948e+000,4.7901297590e+000,3.8651538744e+000,4.5771792106e+000,
2.5968750000e+001,4.8532031583e+000,4.7654868766e+000,3.9918311076e+000,4.3703201739e+000,5.2638191601e+000,6.0058638251e+000,5.3908931210e+000,4.0166844275e+000,5.6645500821e+000,5.1694114202e+000,4.0593277839e+000,4.8488290854e+000,3.8606903757e+000,4.5443406133e+000,
2.6062500000e+001,4.9730865969e+000,4.8395657026e+000,4.1182509251e+000,4.3254259529e+000,5.2976981009e+000,6.0601652030e+000,5.3970284645e+000,3.9234404317e+000,5.8407627180e+000,5.2394213388e+000,4.2699068888e+000,4.9579386734e+000,3.9908351023e+000,4.6792394777e+000,
2.6156250000e+001,5.0484099778e+000,4.9186186782e+000,4.3023386919e+000,4.4694288849e+000,5.3261288628e+000,5.9936127953e+000,5.4110845153e+000,3.9107585375e+000,5.9240509559e+000,5.1839425393e+000,4.4316479785e+000,5.0765503629e+000,4.1373532812e+000,4.8921138978e+000,
2.6250000000e+001,5.0911094990e+000,4.9798578999e+000,4.3443587703e+000,4.5022092735e+000,5.2901321534e+000,5.9481882223e+000,5.4217121064e+000,3.9469552056e+000,5.8485803613e+000,5.1753391571e+000,4.4109465313e+000,5.0192842045e+000,4.0830613114e+000,4.8540094001e+000,
2.6343750000e+001,5.0835530739e+000,4.9647279746e+000,4.3137915154e+000,4.5037792518e+000,5.2783068135e+000,5.9775064185e+000,5.3087614381e+000,3.8758138874e+000,5.8166377138e+000,5.1080671067e+000,4.3727866466e+000,5.0019258711e+000,4.0670501992e+000,4.8114165289e+000,
2.6437500000e+001,5.0707721024e+000,4.9953518860e+000,4.2874316279e+000,4.5020587126e+000,5.2681704982e+000,5.9111017331e+000,5.2259686683e+000,3.7648855360e+000,5.7542875836e+000,5.1071455796e+000,4.3178594064e+000,5.0040848539e+000,4.0543197794e+000,4.8827681198e+000,
2.6531250000e+001,5.0174750245e+000,5.0092409205e+000,4.2277524429e+000,4.4889086899e+000,5.2113678218e+000,5.7851745762e+000,5.2000679121e+000,3.7858823659e+000,5.7304219294e+000,5.0420000886e+000,4.2391566024e+000,4.9738058417e+000,3.9711763855e+000,4.8202126183e+000,
2.6625000000e+001,4.9158290680e+000,4.9355185368e+000,4.1702725180e+000,4.4101639743e+000,5.1881907327e+000,5.7338960734e+000,5.2553017182e+000,3.8708960432e+000,5.6101951956e+000,4.9367538781e+000,4.1829449291e+000,4.9283505559e+000,3.8549570040e+000,4.7374069855e+000,
2.6718750000e+001,4.7388243022e+000,4.8207442178e+000,4.0997442878e+000,4.3552647909e+000,4.9918431275e+000,5.7031636220e+000,5.1181029960e+000,3.8933431025e+000,5.5919494871e+000,4.9361369486e+000,4.1367420401e+000,4.8597903123e+000,3.7846727987e+000,4.7049210818e+000,
2.6812500000e+001,4.6994315556e+000,4.8034457445e+000,4.0328095647e+000,4.3066957440e+000,4.8627129415e+000,5.7716854227e+000,4.9666003878e+000,3.9919807509e+000,5.5782982646e+000,4.7515565660e+000,4.1323671164e+000,4.8316937252e+000,3.8288034217e+000,4.7291224162e+000,
2.6906250000e+001,4.7285545773e+000,4.8279889823e+000,4.0530618469e+000,4.3033280232e+000,4.8449777654e+000,5.7600083943e+000,5.0572334391e+000,4.0417177043e+000,5.5942451747e+000,4.7633875188e+000,4.1881767228e+000,4.8095516141e+000,3.8550773208e+000,4.7491816072e+000,
2.7000000000e+001,4.6019209538e+000,4.7084747527e+000,3.9416327165e+000,4.1844341540e+000,4.7449571824e+000,5.6736982136e+000,5.1371481215e+000,3.8464479433e+000,5.3966311434e+000,4.6439121586e+000,4.0921349081e+000,4.6900465322e+000,3.8180170959e+000,4.6909244919e+000,
2.7093750000e+001,4.5000024590e+000,4.6414324076e+000,3.8170386423e+000,4.1479630977e+000,4.6963073300e+000,5.5798987342e+000,5.2341049169e+000,3.8260228667e+000,5.0591043168e+000,4.5977322871e+000,3.7095767020e+000,4.5205375849e+000,3.5377632673e+000,4.6070573858e+000,
2.7187500000e+001,4.4196821048e+000,4.5410030631e+000,3.4673546189e+000,3.9742340355e+000,4.6159765367e+000,5.4848838709e+000,5.2076274801e+000,3.6337570997e+000,4.8495375663e+000,4.6723382923e+000,3.5672379252e+000,4.1733427756e+000,3.5210483573e+000,4.3174493604e+000,
2.7281250000e+001,4.4619223305e+000,4.5768269718e+000,3.5274456933e+000,3.9788224257e+000,4.7226610721e+000,5.4888136427e+000,5.2979026781e+000,3.7782660073e+000,4.8513790470e+000,4.7808434699e+000,3.6661396075e+000,4.2329100417e+000,3.6229153260e+000,4.4396079325e+000,
2.7375000000e+001,4.6275609924e+000,4.6597822489e+000,3.5288275435e+000,4.0294432778e+000,4.7343800129e+000,5.5401750978e+000,5.2886017086e+000,3.8763938021e+000,4.8728664983e+000,4.8522615548e+000,3.5799447549e+000,4.2595723505e+000,3.4506623817e+000,4.3641624347e+000,
2.7468750000e+001,4.6654863562e+000,4.5778945476e+000,3.5628191129e+000,3.9726458605e+000,4.7676259798e+000,5.5976415625e+000,5.3515168213e+000,4.0144282435e+000,4.8767442157e+000,4.8270757617e+000,3.5013329315e+000,4.1548713182e+000,3.3406466396e+000,4.1625198217e+000,
2.7562500000e+001,4.7114874476e+000,4.6321163695e+000,3.6165466989e+000,4.0370252673e+000,4.7902021328e+000,5.5674440260e+000,5.3695736893e+000,4.0546885377e+000,4.8436143978e+000,4.8375098109e+000,3.3518851909e+000,4.2029482852e+000,3.3708805073e+000,4.3403607835e+000,
2.7656250000e+001,4.6910933943e+000,4.6545952448e+000,3.5901110953e+000,4.0989285599e+000,4.7825286667e+000,5.5975521989e+000,5.3423188211e+000,4.0304522735e+000,4.8920180861e+000,4.8085372162e+000,3.4661369598e+000,4.2946524678e+000,3.4545851824e+000,4.4653643574e+000,
2.7750000000e+001,4.7266814281e+000,4.6762959972e+000,3.6389534851e+000,4.0912333732e+000,4.8573496820e+000,5.7272067305e+000,5.3160180213e+000,3.9888961868e+000,4.9536249096e+000,4.8313808022e+000,3.5250375565e+000,4.4328898525e+000,3.4902686304e+000,4.5769638763e+000,
2.7843750000e+001,4.7364716608e+000,4.6881154942e+000,3.6782686949e+000,4.0940148661e+000,4.8875786442e+000,5.7435881208e+000,5.3424584419e+000,3.9760982077e+000,4.8986017382e+000,4.8801089671e+000,3.4781865443e+000,4.3868463111e+000,3.4440026726e+000,4.5926794178e+000,
2.7937500000e+001,4.7480047591e+000,4.6995703525e+000,3.7236633628e+000,4.1585367527e+000,4.8635271079e+000,5.5983934594e+000,5.3508303313e+000,3.9611949140e+000,4.9070346336e+000,4.8454910415e+000,3.4956791365e+000,4.4494818015e+000,3.4129994288e+000,4.5868840449e+000,
2.8031250000e+001,4.7543835161e+000,4.7002123165e+000,3.7093031426e+000,4.1833437411e+000,4.9327129437e+000,5.6121662927e+000,5.3176093132e+000,3.9434461134e+000,4.9637944578e+000,4.8358403773e+000,3.5284802004e+000,4.5102359833e+000,3.4801267059e+000,4.5685701363e+000,
2.8125000000e+001,4.6956744545e+000,4.6489251698e+000,3.6823216368e+000,4.2121916366e+000,4.9497146682e+000,5.5727513282e+000,5.2655562043e+000,3.9187304784e+000,5.0626702812e+000,4.7911129221e+000,3.6375919807e+000,4.5385060098e+000,3.4687177939e+000,4.5751484846e+000,
2.8218750000e+001,4.5482223969e+000,4.5095949606e+000,3.4912907390e+000,4.0830066720e+000,4.8997201249e+000,5.5939404977e+000,5.1492701702e+000,3.9215151033e+000,4.9274037806e+000,4.7432149889e+000,3.5735062512e+000,4.5060862159e+000,3.3093821314e+000,4.4820824132e+000,
2.8312500000e+001,4.3588662699e+000,4.4082419591e+000,3.4325222800e+000,4.0348772553e+000,4.8060301126e+000,5.4874036461e+000,5.0744358997e+000,3.7545583933e+000,4.8704342498e+000,4.5754766704e+000,3.4898807380e+000,4.4962119799e+000,3.2725884816e+000,4.4444841067e+000,
2.8406250000e+001,4.1687067390e+000,4.3603650400e+000,3.4847592088e+000,4.0251116451e+000,4.6966846919e+000,5.4724640735e+000,5.0740739095e+000,3.7809167592e+000,4.8333301827e+000,4.7909658077e+000,3.4838159139e+000,4.5383714222e+000,3.4567026717e+000,4.5574770591e+000,
2.8500000000e+001,4.1887331571e+000,4.3645681126e+000,3.5257071759e+000,4.0958216591e+000,4.6228460320e+000,5.4381773750e+000,5.1026798655e+000,3.7764784823e+000,4.8581351557e+000,4.7592489885e+000,3.5752853138e+000,4.5600937142e+000,3.4718459310e+000,4.5595576684e+000,
2.8593750000e+001,4.1771780108e+000,4.3359786973e+000,3.5507532243e+000,4.0431374736e+000,4.6340047987e+000,5.4538159775e+000,5.1038036591e+000,3.7218630418e+000,4.8733059506e+000,4.7687282197e+000,3.6155363266e+000,4.5359151346e+000,3.5025047469e+000,4.5336136012e+000,
2.8687500000e+001,4.1600284931e+000,4.3569651645e+000,3.5860098380e+000,4.0715024218e+000,4.6320488404e+000,5.3748906885e+000,5.1462453779e+000,3.8450702018e+000,4.7861465417e+000,4.8185749441e+000,3.5670809887e+000,4.4776032567e+000,3.5437748109e+000,4.4842367724e+000,
2.8781250000e+001,4.1572559618e+000,4.4264544788e+000,3.5245333595e+000,4.0845318159e+000,4.5629056944e+000,5.1957625517e+000,5.1670427667e+000,3.8583893013e+000,4.6332934464e+000,4.6846188993e+000,3.6173808985e+000,4.4230613175e+000,3.6266128537e+000,4.5064872680e+000,
2.8875000000e+001,4.2429496452e+000,4.4406537700e+000,3.4532987183e+000,4.0801529683e+000,4.5557301192e+000,5.2128282284e+000,5.0694327922e+000,3.8725400313e+000,4.6007052876e+000,4.6949355102e+000,3.5739690792e+000,4.4069445057e+000,3.5989982585e+000,4.4710819587e+000,
2.8968750000e+001,4.2476150493e+000,4.4732439890e+000,3.4017471133e+000,4.0437157688e+000,4.5601789786e+000,5.3653768302e+000,4.9982008801e+000,3.8125791846e+000,4.5724963565e+000,4.7084511839e+000,3.5539821144e+000,4.3499581776e+000,3.6186483335e+000,4.4648696481e+000,
2.9062500000e+001,4.2548603531e+000,4.4649274455e+000,3.5115250381e+000,4.0223747431e+000,4.4191925259e+000,5.3261085958e+000,4.9733074040e+000,3.8571083599e+000,4.4922559879e+000,4.6032910608e+000,3.6188745622e+000,4.3969798461e+000,3.6558020109e+000,4.5764014930e+000,
2.9156250000e+001,4.3023176020e+000,4.5105311712e+000,3.5235607411e+000,4.0759914566e+000,4.3433650678e+000,5.4272719144e+000,5.0510687062e+000,3.8415011459e+000,4.3363070538e+000,4.6537407312e+000,3.5748812453e+000,4.4170295929e+000,3.6125501974e+000,4.5456342467e+000,
2.9250000000e+001,4.3042359764e+000,4.4620791300e+000,3.5108025060e+000,3.9808967885e+000,4.3182098228e+000,5.4741103576e+000,5.0749718752e+000,3.8455603092e+000,4.4168009651e+000,4.8536934114e+000,3.7550347881e+000,4.3575120707e+000,3.6316608395e+000,4.5331833227e+000,
2.9343750000e+001,4.3436682484e+000,4.5070912846e+000,3.5321439826e+000,4.0080265014e+000,4.4555762136e+000,5.4961155667e+000,5.0906580134e+000,3.8234943087e+000,4.5087489128e+000,4.8877000167e+000,3.9546310559e+000,4.3871289739e+000,3.6877438157e+000,4.5524057319e+000,
2.9437500000e+001,4.2272952923e+000,4.3889893856e+000,3.4269842539e+000,3.8869015243e+000,4.4866867436e+000,5.5134115074e+000,4.9956362282e+000,3.6819372466e+000,4.4130370386e+000,4.7329079095e+000,3.9407949210e+000,4.3731719361e+000,3.6229744984e+000,4.4818890474e+000,
2.9531250000e+001,4.2181219557e+000,4.3844894259e+000,3.4212614847e+000,3.9683984324e+000,4.4473420769e+000,5.5354841769e+000,4.9555478241e+000,3.5937728063e+000,4.4389900847e+000,4.7621144363e+000,3.9283100501e+000,4.3690753392e+000,3.6385776092e+000,4.4943154973e+000,
2.9625000000e+001,4.3021134555e+000,4.4182692717e+000,3.4311300936e+000,3.9150978818e+000,4.5017476580e+000,5.5813137289e+000,4.9287875610e+000,3.6107425712e+000,4.5128154648e+000,4.9065576696e+000,3.9985445640e+000,4.3162163479e+000,3.6397912752e+000,4.4295868297e+000,
2.9718750000e+001,4.2870182597e+000,4.3981067651e+000,3.3987296553e+000,3.9196829202e+000,4.5367725159e+000,5.6408069647e+000,4.8440456825e+000,3.6045882034e+000,4.5733743439e+000,4.9171863021e+000,4.0119061754e+000,4.3813519777e+000,3.5380203143e+000,4.4266101392e+000,
2.9812500000e+001,4.2102754290e+000,4.3372287672e+000,3.4776942647e+000,3.9620199635e+000,4.5081161206e+000,5.6459651668e+000,4.8612909978e+000,3.5527841366e+000,4.6864398325e+000,4.9087391929e+000,4.0347766168e+000,4.4154414561e+000,3.4936301918e+000,4.3544785846e+000,
2.9906250000e+001,4.0914496227e+000,4.3535289792e+000,3.5350691670e+000,4.0822511137e+000,4.5262252448e+000,5.7201586302e+000,4.8423234462e+000,3.4532270813e+000,4.7507674746e+000,4.8503445770e+000,4.0457980065e+000,4.4123435200e+000,3.4321775916e+000,4.3455518004e+000,
3.0000000000e+001,4.1363677076e+000,4.2982661120e+000,3.5487790100e+000,4.0346976732e+000,4.6158923509e+000,5.6794279212e+000,4.9222241518e+000,3.6020235605e+000,4.8592759959e+000,4.8805917045e+000,4.0555114344e+000,4.3351685976e+000,3.4778709296e+000,4.3311672051e+000,
3.0093750000e+001,4.0560881093e+000,4.2605261321e+000,3.4846477324e+000,4.0231545590e+000,4.6408876220e+000,5.6711047028e+000,4.8167899042e+000,3.5822925284e+000,4.7882780486e+000,4.8857195649e+000,4.0601643374e+000,4.2682395243e+000,3.4250477231e+000,4.2552502123e+000,
3.0187500000e+001,3.9875447104e+000,4.1842187682e+000,3.4671815852e+000,3.9605937470e+000,4.6760989758e+000,5.6585300216e+000,4.8847632685e+000,3.5954551885e+000,4.7884724951e+000,4.8523974126e+000,4.0278822436e+000,4.3136715370e+000,3.4699637773e+000,4.3312924312e+000,
3.0281250000e+001,4.0308616348e+000,4.1857215326e+000,3.4660053885e+000,4.0003765863e+000,4.7539388203e+000,5.6696751602e+000,4.8904680082e+000,3.5761889944e+000,4.7543199838e+000,4.6594127186e+000,3.8567388484e+000,4.3379354541e+000,3.4278892712e+000,4.3026688110e+000,
3.0375000000e+001,4.0753089084e+000,4.1605226341e+000,3.5372994185e+000,3.9985519385e+000,4.7090403354e+000,5.6667151661e+000,4.9498162470e+000,3.6221139643e+000,4.7576861623e+000,4.6133609689e+000,3.7684955413e+000,4.3527996490e+000,3.3935498405e+000,4.2816283636e+000,
3.0468750000e+001,4.0726722081e+000,4.1422491073e+000,3.5406096697e+000,3.9668030937e+000,4.6568440759e+000,5.5958048050e+000,5.0376299786e+000,3.5950071027e+000,4.7100422844e+000,4.5666028780e+000,3.7888332195e+000,4.3973845125e+000,3.3550311590e+000,4.2742762091e+000,
3.0562500000e+001,4.0763353565e+000,4.1094241994e+000,3.5717768324e+000,3.9000139934e+000,4.5902891950e+000,5.6512328656e+000,5.0202374997e+000,3.7016030386e+000,4.7268914354e+000,4.5655488605e+000,3.8121719080e+000,4.4848288773e+000,3.4725775576e+000,4.3908195635e+000,
3.0656250000e+001,4.0660382494e+000,4.1480732549e+000,3.6008282171e+000,3.9334866759e+000,4.5856112349e+000,5.5466881020e+000,5.1352554808e+000,3.7394087882e+000,4.7337202710e+000,4.4268425679e+000,3.8354895177e+000,4.4604671667e+000,3.5173662082e+000,4.3324897030e+000,
3.0750000000e+001,4.0853663017e+000,4.1412996126e+000,3.5842748324e+000,3.9448202794e+000,4.5721747052e+000,5.6814440524e+000,5.1710048423e+000,3.6582904313e+000,4.7403248487e+000,4.4019548332e+000,3.8388568570e+000,4.4342921389e+000,3.6199438564e+000,4.2875813130e+000,
3.0843750000e+001,4.1107166877e+000,4.1213716179e+000,3.6111039649e+000,3.8501686960e+000,4.5177065750e+000,5.6449386289e+000,5.2752094537e+000,3.7601215796e+000,4.6127837032e+000,4.6920284848e+000,3.8306957406e+000,4.4005674518e+000,3.6202092552e+000,4.2851264796e+000,
3.0937500000e+001,4.1148647923e+000,4.1033500523e+000,3.6219418896e+000,3.8074586429e+000,4.4712335622e+000,5.6505290673e+000,5.3141622451e+000,3.7151112821e+000,4.6689096758e+000,4.7477676985e+000,3.8526793370e+000,4.5174191076e+000,3.6913652624e+000,4.4060607024e+000,
3.1031250000e+001,4.0756433621e+000,4.0651764033e+000,3.5729069347e+000,3.7892102154e+000,4.3165281769e+000,5.6008366171e+000,5.3174728169e+000,3.5712229732e+000,4.5713347176e+000,4.6827170723e+000,3.7853989942e+000,4.5867875884e+000,3.6526515992e+000,4.4176918038e+000,
3.1125000000e+001,4.0443640101e+000,4.0226361842e+000,3.5348125286e+000,3.7501623621e+000,4.2231646139e+000,5.5874813144e+000,5.2723988684e+000,3.6457908681e+000,4.5694038231e+000,4.7085470675e+000,3.7527196384e+000,4.5288305654e+000,3.5883650001e+000,4.3034630078e+000,
3.1218750000e+001,4.0978184877e+000,4.0448835796e+000,3.5742004065e+000,3.7236354510e+000,4.1890905392e+000,5.5851428027e+000,5.2816521789e+000,3.6993491435e+000,4.5368530239e+000,4.6851429685e+000,3.6958436787e+000,4.4906247900e+000,3.5852091244e+000,4.2982890534e+000,
3.1312500000e+001,4.0610825091e+000,3.9907780006e+000,3.5301851948e+000,3.7354072391e+000,4.1691888122e+000,5.5180405914e+000,5.2601602942e+000,3.6505260196e+000,4.4560394580e+000,4.7355148291e+000,3.8512248705e+000,4.4435297321e+000,3.5993865541e+000,4.3838458351e+000,
3.1406250000e+001,4.0212234057e+000,4.0330892505e+000,3.4796711823e+000,3.7816615272e+000,4.0799034467e+000,5.5721926183e+000,5.1955081969e+000,3.7365462972e+000,4.6140826975e+000,4.8035803327e+000,3.9464402391e+000,4.3925715439e+000,3.6583620249e+000,4.4299532188e+000,
3.1500000000e+001,4.1279185724e+000,4.1332289317e+000,3.5965083826e+000,3.8907261557e+000,4.2520048114e+000,5.6234698341e+000,5.2550574262e+000,3.8086055119e+000,4.6145229197e+000,4.8747229565e+000,3.9312144020e+000,4.2958762104e+000,3.6361424250e+000,4.3941580235e+000,
3.1593750000e+001,4.0321459214e+000,4.1110493724e+000,3.5542199812e+000,3.8787976982e+000,4.2548933263e+000,5.5872300402e+000,5.2413745548e+000,3.7596687746e+000,4.5751640020e+000,4.7916884446e+000,3.9262246270e+000,4.2287336661e+000,3.5803996537e+000,4.3522302664e+000,
3.1687500000e+001,4.0554745432e+000,4.1074379358e+000,3.5723763750e+000,3.8546614799e+000,4.2949939265e+000,5.5834009071e+000,5.1612636293e+000,3.7752683024e+000,4.5265935835e+000,4.7810185244e+000,3.8438703921e+000,4.2241043621e+000,3.5683274208e+000,4.3248679199e+000,
3.1781250000e+001,3.9814485477e+000,4.0721085609e+000,3.5672142146e+000,3.8793457474e+000,4.2784909616e+000,5.5365996364e+000,5.1417211300e+000,3.6732689590e+000,4.5774385880e+000,4.8776401661e+000,3.8225445451e+000,4.1202284359e+000,3.5297401727e+000,4.2869579274e+000,
3.1875000000e+001,3.8591499654e+000,3.9563382667e+000,3.4191402085e+000,3.8465151794e+000,4.2749166755e+000,5.4831316287e+000,4.9085123675e+000,3.6989081051e+000,4.6317888233e+000,4.7088056345e+000,3.8556594077e+000,4.1691071746e+000,3.6229443508e+000,4.3390176357e+000,
3.1968750000e+001,3.9860662195e+000,3.9522571851e+000,3.5515124350e+000,3.8127336403e+000,4.4617540103e+000,5.6228576990e+000,4.9817885926e+000,3.7982515203e+000,4.6100080551e+000,4.7489461189e+000,3.8892647206e+000,4.0770190581e+000,3.6409214252e+000,4.3106075488e+000,
3.2062500000e+001,4.4950534299e+000,4.3133009369e+000,3.6749065139e+000,3.8860912969e+000,4.6787497389e+000,5.6634910006e+000,5.0243661312e+000,3.8687483598e+000,4.6413105175e+000,4.7674554666e+000,3.9200263036e+000,4.1358699377e+000,3.6251399182e+000,4.3248763928e+000,
3.2156250000e+001,4.6555339400e+000,4.3883142178e+000,3.6732709888e+000,3.9004936888e+000,4.7733600501e+000,5.7044478031e+000,5.0076343173e+000,3.8128841699e+000,4.5951742288e+000,4.7093342365e+000,4.0203855957e+000,4.2297169774e+000,3.6939533337e+000,4.4648347116e+000,
3.2250000000e+001,4.6315232306e+000,4.3526051321e+000,3.6538589013e+000,3.8974350427e+000,4.7818834832e+000,5.6765972312e+000,5.0038733498e+000,3.7485368629e+000,4.6312366656e+000,4.7808552601e+000,4.0252591902e+000,4.2580644331e+000,3.7495430640e+000,4.4316205207e+000,
3.2343750000e+001,4.6500437433e+000,4.3730510583e+000,3.6829870939e+000,3.8524734191e+000,4.8104216755e+000,5.7109667901e+000,5.0474048823e+000,3.7435736900e+000,4.5911070857e+000,4.6417845753e+000,3.9068516712e+000,4.1801141250e+000,3.6324443981e+000,4.3140991516e+000,
3.2437500000e+001,4.6267855489e+000,4.3410551660e+000,3.6279173243e+000,3.8115936951e+000,4.7960114986e+000,5.6338011775e+000,4.9818931464e+000,3.6372313258e+000,4.5266911081e+000,4.7065623419e+000,3.8951037370e+000,4.2287978911e+000,3.6622001964e+000,4.3352201359e+000,
3.2531250000e+001,4.5868085003e+000,4.2956839950e+000,3.5307628025e+000,3.6519231363e+000,4.7750834966e+000,5.6095701216e+000,4.8791523859e+000,3.6592651347e+000,4.6512333379e+000,4.7013748195e+000,4.0223597382e+000,4.1894966475e+000,3.6900218621e+000,4.2743867700e+000,
3.2625000000e+001,4.6249214898e+000,4.2254995734e+000,3.5507924926e+000,3.5620798735e+000,4.9182775132e+000,5.6396959557e+000,4.8630649039e+000,3.6091171721e+000,4.7509326295e+000,4.8593152334e+000,4.1338896145e+000,4.1863617418e+000,3.6869465275e+000,4.2468534843e+000,
3.2718750000e+001,4.6156275752e+000,4.1934547279e+000,3.5409172953e+000,3.5098608385e+000,4.8978423457e+000,5.5623098083e+000,4.8767153987e+000,3.6396460180e+000,4.7895608723e+000,4.8123200605e+000,4.1323301270e+000,4.1782415449e+000,3.6497330697e+000,4.2427986188e+000,
3.2812500000e+001,4.6422405664e+000,4.2234743535e+000,3.5451071848e+000,3.5503575574e+000,4.9017390228e+000,5.5841159428e+000,4.8317185445e+000,3.7004528151e+000,4.8117333298e+000,4.6734799472e+000,4.1057441796e+000,4.1516185162e+000,3.6612932622e+000,4.2718534102e+000,
3.2906250000e+001,4.6825050034e+000,4.2639939342e+000,3.6023891199e+000,3.5006223692e+000,4.9251942896e+000,5.5520176640e+000,4.8197051916e+000,3.8197394208e+000,4.7653176701e+000,4.6351399740e+000,4.0285667043e+000,4.0957154527e+000,3.5044564005e+000,4.1434162881e+000,
3.3000000000e+001,4.6670991474e+000,4.3075867093e+000,3.5242401750e+000,3.5166748321e+000,4.9033648532e+000,5.4371283071e+000,4.6754873915e+000,3.8491011898e+000,4.8657515963e+000,4.6525356469e+000,4.1809618899e+000,4.1326445127e+000,3.7507033710e+000,4.2565874693e+000,
3.3093750000e+001,4.1909226296e+000,4.0765969312e+000,3.4687324272e+000,3.5295151646e+000,4.7921221698e+000,5.3690325773e+000,4.6497818338e+000,3.9021166657e+000,4.9744962628e+000,4.7866913649e+000,4.1841514510e+000,4.0854321031e+000,3.8252649163e+000,4.2207370263e+000,
3.3187500000e+001,4.1414167257e+000,4.1596886249e+000,3.4902437586e+000,3.6910683118e+000,4.8076401842e+000,5.3697799236e+000,4.7427177311e+000,4.0286946231e+000,5.0375534148e+000,4.8187431273e+000,4.1137457428e+000,4.1147971147e+000,3.7785680348e+000,4.1078520499e+000,
3.3281250000e+001,4.2350436880e+000,4.1871434389e+000,3.5727799600e+000,3.7124358280e+000,4.7671801582e+000,5.3904694249e+000,4.7325113950e+000,4.0788539574e+000,5.0613099501e+000,4.7931516125e+000,4.0577941265e+000,4.2085183553e+000,3.7515913745e+000,4.2140008379e+000,
3.3375000000e+001,4.4488645724e+000,4.4402203363e+000,3.6972172836e+000,3.9898097570e+000,4.8173028988e+000,5.3686635201e+000,4.8240885033e+000,4.0986613230e+000,5.0415527683e+000,4.8034890917e+000,4.1407863069e+000,4.3766138202e+000,3.8203562644e+000,4.2843387733e+000,
3.3468750000e+001,4.5495442840e+000,4.4841590990e+000,3.7359005070e+000,4.0042089014e+000,4.8321912345e+000,5.6593330670e+000,4.8678016673e+000,4.1747176661e+000,5.0408209559e+000,4.7883322154e+000,4.0949524448e+000,4.4310444023e+000,3.7911152577e+000,4.3124959397e+000,
3.3562500000e+001,4.5437576004e+000,4.4622862961e+000,3.7338924074e+000,4.0754710900e+000,4.8571607372e+000,5.6285847069e+000,5.0671075728e+000,4.1915388916e+000,4.9151392178e+000,4.6596831960e+000,3.9025498509e+000,4.4279732850e+000,3.7358823218e+000,4.3145035411e+000,
3.3656250000e+001,4.5475684336e+000,4.5564617558e+000,3.7558057423e+000,4.3083598376e+000,4.7310844477e+000,5.5439046738e+000,5.1595344100e+000,4.2015272140e+000,4.9877758723e+000,4.6683292483e+000,3.8386088672e+000,4.5101593016e+000,3.7104577011e+000,4.3572412251e+000,
3.3750000000e+001,4.5478171537e+000,4.5630003071e+000,3.7950636477e+000,4.3477101147e+000,4.8114670446e+000,5.4799433757e+000,5.2009792735e+000,4.1998617486e+000,5.1430698738e+000,4.7326418341e+000,3.9256821702e+000,4.6004496818e+000,3.7655041164e+000,4.3780734098e+000,
3.3843750000e+001,4.6814853035e+000,4.6003972654e+000,3.9219235262e+000,4.3908077115e+000,5.2394575581e+000,5.4880147111e+000,5.4041959002e+000,4.2672050431e+000,5.3706245205e+000,4.7442259545e+000,4.0659902938e+000,4.8493251017e+000,3.7752290756e+000,4.5996351363e+000,
3.3937500000e+001,4.7319550832e+000,4.5894222047e+000,3.9705595639e+000,4.3584307374e+000,5.3413849498e+000,5.5778130490e+000,5.4807417690e+000,4.2731585399e+000,5.5930497134e+000,4.8349482817e+000,4.1653696914e+000,4.9703658742e+000,3.7659608903e+000,4.6951446621e+000,
3.4031250000e+001,4.7095512574e+000,4.5317216631e+000,3.9415363191e+000,4.3869498750e+000,5.3555691408e+000,5.6510859783e+000,5.4861763904e+000,4.2510701773e+000,5.6513520102e+000,4.8298817243e+000,4.0621132416e+000,4.9314502865e+000,3.5519694657e+000,4.6034409304e+000,
3.4125000000e+001,4.7323383394e+000,4.4708690889e+000,4.0124356306e+000,4.3523712689e+000,5.3279217673e+000,5.6272072398e+000,5.5941752442e+000,4.1869217342e+000,5.6987203464e+000,4.7870290402e+000,4.0621864740e+000,4.8961874290e+000,3.4986603281e+000,4.5913648736e+000,
3.4218750000e+001,4.6806065916e+000,4.4268389024e+000,3.9641479593e+000,4.2939366280e+000,5.2843248964e+000,5.6423439323e+000,5.5167346881e+000,4.0765540559e+000,5.7065523990e+000,4.7726596728e+000,4.1548763624e+000,4.8814870485e+000,3.5117549181e+000,4.5657632194e+000,
3.4312500000e+001,4.6878900786e+000,4.3897857841e+000,3.9781426001e+000,4.2572563185e+000,5.3191252333e+000,5.6932193892e+000,5.5367969865e+000,4.0065025830e+000,5.7862428264e+000,4.7682236741e+000,4.2363935041e+000,4.8990760132e+000,3.5209332843e+000,4.6247885938e+000,
3.4406250000e+001,4.5739143476e+000,4.3024754408e+000,3.9800730336e+000,4.2133671273e+000,5.3202766329e+000,5.7019826504e+000,5.5727068420e+000,4.0229450657e+000,5.9043526173e+000,4.6942618715e+000,4.2877831533e+000,4.8934276731e+000,3.5215339292e+000,4.6472802503e+000,
3.4500000000e+001,4.5392999168e+000,4.2355207204e+000,3.9407387451e+000,4.1708233416e+000,5.3399980383e+000,5.6162628046e+000,5.5129538112e+000,3.9746391313e+000,5.8958234652e+000,4.7179351158e+000,4.2511543646e+000,4.8807371922e+000,3.5201456124e+000,4.6681296929e+000,
3.4593750000e+001,4.5972574838e+000,4.3093331423e+000,4.0086144904e+000,4.0883853115e+000,5.4213257236e+000,5.6418563837e+000,5.3970081154e+000,3.9559451040e+000,5.9516008302e+000,4.7879483368e+000,4.3037339505e+000,4.9670029616e+000,3.5232878915e+000,4.7472446764e+000,
3.4687500000e+001,4.5737543563e+000,4.2300098229e+000,3.9935496387e+000,3.9248494155e+000,5.4499390047e+000,5.6984400509e+000,5.3805606473e+000,4.0058612887e+000,5.8976080614e+000,4.7269441193e+000,4.3355041873e+000,4.9295738739e+000,3.5220690752e+000,4.7134474918e+000,
3.4781250000e+001,4.4746920756e+000,4.2607410304e+000,3.8770588504e+000,3.9381048634e+000,5.2714673276e+000,5.7449061956e+000,5.3124394416e+000,4.0080901494e+000,5.7487261415e+000,4.8350041611e+000,4.1890655167e+000,4.7230829811e+000,3.4235579585e+000,4.5196705347e+000,
3.4875000000e+001,4.5031607983e+000,4.3081551139e+000,3.9076536201e+000,3.9528942806e+000,5.2178581209e+000,5.6536717499e+000,5.2169542962e+000,3.9046626296e+000,5.7298218141e+000,4.8757221403e+000,4.1851737684e+000,4.5575879607e+000,3.4442698814e+000,4.4379265317e+000,
3.4968750000e+001,4.5072180067e+000,4.3706641998e+000,3.8604250416e+000,4.0185323515e+000,5.2028942579e+000,5.6273287566e+000,5.1127567217e+000,3.8061803449e+000,5.7621131799e+000,4.9051072063e+000,4.2228971440e+000,4.5062931961e+000,3.5854892152e+000,4.3510600040e+000,
3.5062500000e+001,4.6970857530e+000,4.5843055134e+000,4.0273359412e+000,4.2273712161e+000,5.2901986908e+000,5.6097490843e+000,5.1747351250e+000,3.9470861857e+000,5.8401518641e+000,4.9924917261e+000,4.3639247472e+000,4.7576282582e+000,3.8293689554e+000,4.6362876844e+000,
3.5156250000e+001,4.6795115146e+000,4.6364041370e+000,3.9457398832e+000,4.2542589243e+000,5.3440841839e+000,5.7104528987e+000,5.0044746097e+000,4.0343365567e+000,5.8204321511e+000,4.9411388210e+000,4.3090566318e+000,4.7804542217e+000,3.8291590837e+000,4.6334663510e+000,
3.5250000000e+001,4.8723422581e+000,4.8281156196e+000,4.0037655296e+000,4.3167566541e+000,5.4090400042e+000,5.8453513599e+000,5.1197147994e+000,4.0620342638e+000,5.8163050512e+000,4.9512321173e+000,4.3591734892e+000,4.8430335327e+000,3.9144686729e+000,4.7562393502e+000,
3.5343750000e+001,5.0131456884e+000,5.0005417945e+000,4.2168359399e+000,4.5426572863e+000,5.4982670661e+000,6.0230773323e+000,5.2796521042e+000,4.1033766472e+000,6.0726103005e+000,5.0687621184e+000,4.3752783772e+000,4.9780857227e+000,3.9957911251e+000,4.8263080598e+000,
3.5437500000e+001,5.0682683448e+000,5.0164204383e+000,4.2803942008e+000,4.6000157676e+000,5.6234677172e+000,6.0174634048e+000,5.3454118005e+000,4.0661671526e+000,6.1370805095e+000,5.0460716941e+000,4.3441306877e+000,5.0015885180e+000,4.0337177384e+000,4.8028113878e+000,
3.5531250000e+001,5.0605355799e+000,5.0034342224e+000,4.2675209757e+000,4.6016611038e+000,5.5782762982e+000,6.0403173478e+000,5.4088597252e+000,4.1828417277e+000,6.1687565806e+000,5.0770774770e+000,4.3995003584e+000,5.0046855293e+000,4.1247321583e+000,4.8351763242e+000,
3.5625000000e+001,5.0788497798e+000,5.0170990999e+000,4.2731927083e+000,4.6208453449e+000,5.5213686960e+000,5.9914279572e+000,5.4118867824e+000,4.1818078051e+000,6.2287438803e+000,5.1471037779e+000,4.4674228585e+000,5.0871136399e+000,4.2657908972e+000,4.9396773234e+000,
3.5718750000e+001,5.0885287954e+000,5.0034436198e+000,4.2796367142e+000,4.5808935165e+000,5.5753580128e+000,6.0817892295e+000,5.3935369380e+000,4.1477024118e+000,6.2439998439e+000,5.1274553635e+000,4.4719318136e+000,5.1103072659e+000,4.3002769427e+000,4.9973973039e+000,
3.5812500000e+001,5.0540652635e+000,4.9799974002e+000,4.2730011362e+000,4.6007721453e+000,5.4934425679e+000,6.1042775677e+000,5.3808057199e+000,4.1457327606e+000,6.2277864189e+000,4.9970556670e+000,4.4848149618e+000,5.1598187961e+000,4.3609103227e+000,5.0546007436e+000,
3.5906250000e+001,5.0600188993e+000,4.9843472546e+000,4.2791259472e+000,4.5934431190e+000,5.5357634741e+000,6.1186683802e+000,5.3789632065e+000,4.1730314467e+000,6.1885015591e+000,4.9923333231e+000,4.4985021852e+000,5.1431139483e+000,4.3430717768e+000,5.0737411404e+000,
3.6000000000e+001,4.9921254147e+000,4.9643658054e+000,4.2281989896e+000,4.4856301460e+000,5.5000129159e+000,6.0825630343e+000,5.4885668601e+000,4.1935155182e+000,6.0518558946e+000,4.9275789876e+000,4.4611573871e+000,5.1217218737e+000,4.2331880493e+000,5.1384681667e+000,
3.6093750000e+001,4.9324132089e+000,4.9465550471e+000,4.1686162406e+000,4.4306231187e+000,5.4451333257e+000,6.1150530662e+000,5.4510247783e+000,4.1673551347e+000,6.0028543388e+000,4.9276138350e+000,4.4336854051e+000,5.0390572188e+000,4.2640906417e+000,5.1141137171e+000,
3.6187500000e+001,4.8341713706e+000,4.8484200791e+000,4.1568781943e+000,4.4145111454e+000,5.3894552447e+000,6.0237131247e+000,5.4429412413e+000,4.1216114079e+000,6.0456339813e+000,4.9901885929e+000,4.4827067507e+000,5.0891374501e+000,4.2862933928e+000,5.1164553325e+000,
3.6281250000e+001,4.7892568817e+000,4.7794775258e+000,4.1544032384e+000,4.4036513677e+000,5.3593203429e+000,5.8984433621e+000,5.4414156245e+000,4.1347658051e+000,6.0040013884e+000,5.0299068973e+000,4.4400095219e+000,5.0370882060e+000,4.3041656781e+000,5.1149940891e+000,
3.6375000000e+001,4.6622385517e+000,4.6042964725e+000,4.0158989600e+000,4.1638101570e+000,5.2374333812e+000,5.7612675796e+000,5.3615556039e+000,4.2229541424e+000,5.8147684376e+000,5.0211308730e+000,4.3957925845e+000,4.9194365136e+000,4.2871098276e+000,5.0729615611e+000,
3.6468750000e+001,4.5629763752e+000,4.5697340127e+000,3.9259156996e+000,4.0450261834e+000,5.0111316871e+000,5.7609837214e+000,5.3115628077e+000,4.3735950447e+000,5.6333975616e+000,5.0616822509e+000,4.3785593345e+000,4.9223361759e+000,4.2080038867e+000,5.0535440021e+000,
3.6562500000e+001,4.6802098775e+000,4.7095121721e+000,4.0247962356e+000,4.1663266138e+000,5.1126359775e+000,5.8994964956e+000,5.2129930630e+000,4.4177777383e+000,5.7345111009e+000,5.0461464501e+000,4.4929017362e+000,4.9128822604e+000,4.3112068945e+000,5.0749203320e+000,
3.6656250000e+001,5.0819032217e+000,5.0356900372e+000,4.2237908827e+000,4.3573063514e+000,5.2176756656e+000,5.9516999947e+000,5.3739740756e+000,4.4140611311e+000,5.7268453007e+000,5.0191360128e+000,4.4201301012e+000,4.9099825975e+000,4.2013791804e+000,5.0557074021e+000,
3.6750000000e+001,5.1584427438e+000,5.0910484190e+000,4.3022261465e+000,4.4050644832e+000,5.1658459980e+000,6.0508066258e+000,5.4441682932e+000,4.4473601581e+000,5.7841853054e+000,5.0418257450e+000,4.3320609224e+000,4.8783947878e+000,4.0642200920e+000,5.0371728378e+000,
3.6843750000e+001,5.1643991723e+000,5.0874696642e+000,4.3051416663e+000,4.3895753618e+000,5.0951369800e+000,6.1002022515e+000,5.4592760427e+000,4.4710448012e+000,5.7968580879e+000,5.0820604765e+000,4.3400307357e+000,4.8942028957e+000,4.0914601605e+000,5.0488430141e+000,
3.6937500000e+001,5.1413521085e+000,5.0805420914e+000,4.2573600693e+000,4.4419927765e+000,5.0489291218e+000,6.0869098446e+000,5.3460825105e+000,4.4096261018e+000,5.8174898218e+000,5.0517376771e+000,4.3601587967e+000,4.8686827821e+000,4.0988010821e+000,4.9769624702e+000,
3.7031250000e+001,5.1645204928e+000,5.0107944393e+000,4.3045293809e+000,4.4257468622e+000,5.2611072481e+000,6.0815621493e+000,5.3144273471e+000,4.4199595700e+000,5.8893863482e+000,5.0654365862e+000,4.3468280994e+000,4.8551531860e+000,4.1019237352e+000,4.9065042908e+000,
3.7125000000e+001,5.2302791343e+000,5.0447687783e+000,4.3715117893e+000,4.4476260052e+000,5.3235241903e+000,6.0589895010e+000,5.3883170798e+000,4.4105186234e+000,5.9275180582e+000,4.9713045245e+000,4.3218812231e+000,4.9330671249e+000,4.0751284106e+000,4.8802227446e+000,
3.7218750000e+001,5.2431284514e+000,5.0600466402e+000,4.3912635715e+000,4.4542429353e+000,5.4395989118e+000,6.1009102870e+000,5.4152860595e+000,4.3927853999e+000,5.9140625299e+000,4.9431284484e+000,4.2721437130e+000,4.8788008251e+000,4.0511170218e+000,4.8724897777e+000,
3.7312500000e+001,5.2197829964e+000,5.0108499476e+000,4.3546018047e+000,4.3915226321e+000,5.3912262975e+000,6.1485862173e+000,5.4126009114e+000,4.3714889005e+000,5.8389812907e+000,4.8797060694e+000,4.2333256525e+000,4.8276248918e+000,3.9554006164e+000,4.7699935444e+000,
3.7406250000e+001,5.1610759417e+000,4.9862251315e+000,4.2882361879e+000,4.3765954506e+000,5.3796689677e+000,6.1775684765e+000,5.2892466098e+000,4.3485017545e+000,5.7516368092e+000,4.8375521183e+000,4.1809268168e+000,4.7855136368e+000,3.9187597317e+000,4.7241936300e+000,
3.7500000000e+001,5.1399038995e+000,4.9834149209e+000,4.2636024344e+000,4.3681955893e+000,5.3340864680e+000,6.0835702742e+000,5.2404015541e+000,4.2527976346e+000,5.6586926039e+000,4.7382851207e+000,4.0863312905e+000,4.7419988726e+000,3.9093360920e+000,4.7128407534e+000,
3.7593750000e+001,5.0424032695e+000,4.8639518060e+000,4.2004295939e+000,4.2231522744e+000,5.2996981482e+000,5.9645648322e+000,5.3276596130e+000,3.9905585754e+000,5.4315536381e+000,4.6500184822e+000,3.9124586801e+000,4.5683222819e+000,3.6804916496e+000,4.5677092911e+000,
3.7687500000e+001,4.6005707661e+000,4.4247734829e+000,3.9495889725e+000,3.9672943843e+000,5.2518056115e+000,5.8718365546e+000,5.2190331226e+000,3.9608538959e+000,5.3041409992e+000,4.5563574333e+000,3.9241715258e+000,4.5096888716e+000,3.6949612520e+000,4.5272130204e+000,
3.7781250000e+001,4.5057042405e+000,4.4152205649e+000,3.8792390749e+000,4.0038973585e+000,5.2773663278e+000,5.7371059205e+000,5.1715982236e+000,3.9429443692e+000,5.2383468083e+000,4.4795925018e+000,3.9327190947e+000,4.5365170717e+000,3.6910633064e+000,4.4952408868e+000,
3.7875000000e+001,4.5997040484e+000,4.5491065265e+000,3.9147171391e+000,4.0999919770e+000,5.3446187296e+000,5.8086165123e+000,5.1690316380e+000,4.0510016427e+000,5.3743788244e+000,4.5582585935e+000,4.0963573913e+000,4.5891693637e+000,3.9553419652e+000,4.6174446515e+000,
3.7968750000e+001,4.6501028870e+000,4.6143907034e+000,4.0138691225e+000,4.0846372438e+000,5.5161570892e+000,5.9988000103e+000,5.2487945952e+000,4.2206812417e+000,5.5131633294e+000,4.7414545135e+000,4.0856889029e+000,4.7084451612e+000,4.0529637153e+000,4.7437299358e+000,
3.8062500000e+001,4.5713926069e+000,4.6281697426e+000,3.9602009540e+000,4.1234588526e+000,5.3455510103e+000,6.0011934879e+000,5.2272975123e+000,4.1392977375e+000,5.5218745892e+000,4.7527571630e+000,4.0613847003e+000,4.7368833510e+000,4.0303529587e+000,4.7595736480e+000,
3.8156250000e+001,4.4620830123e+000,4.4995268539e+000,3.8107176892e+000,4.0900843919e+000,5.2123192502e+000,5.9407788087e+000,5.0660841439e+000,4.1111125095e+000,5.4111930904e+000,4.7471085871e+000,4.0343216921e+000,4.6287533847e+000,3.9987215985e+000,4.7239259444e+000,
3.8250000000e+001,4.4961766809e+000,4.4815418257e+000,3.8845295498e+000,4.0821400373e+000,5.1975541716e+000,5.9782689589e+000,5.1420065363e+000,4.1220584804e+000,5.4926029830e+000,4.6747824177e+000,4.0627219871e+000,4.6158820476e+000,4.0075941840e+000,4.6825420271e+000,
3.8343750000e+001,4.5516958543e+000,4.4525609035e+000,3.8757718233e+000,4.0388241146e+000,5.1867571274e+000,5.9195956564e+000,5.1479518722e+000,4.0936455981e+000,5.4741512688e+000,4.6760514454e+000,4.0402834562e+000,4.6578887579e+000,3.9424077133e+000,4.6770867059e+000,
3.8437500000e+001,4.7266777762e+000,4.5485239806e+000,3.8749419500e+000,4.0425158132e+000,5.2847792046e+000,5.8319143312e+000,5.1841332436e+000,4.0931597212e+000,5.4790128496e+000,4.7151842989e+000,4.0504262572e+000,4.6574319054e+000,3.9509428697e+000,4.6490041040e+000,
3.8531250000e+001,4.8478799742e+000,4.5937563729e+000,4.0391380884e+000,4.1192668153e+000,5.3699601959e+000,5.8173814547e+000,5.2329541323e+000,3.9884153384e+000,5.5650918084e+000,4.7949311567e+000,4.1111630560e+000,4.8139280381e+000,4.0477838547e+000,4.8429017663e+000,
3.8625000000e+001,4.8414679980e+000,4.6502296839e+000,4.0529218891e+000,4.1510895639e+000,5.3154210495e+000,6.0054097820e+000,5.3735153048e+000,4.2233789102e+000,5.6457319906e+000,4.9778081724e+000,4.0936053485e+000,4.8672480109e+000,4.0700010491e+000,4.8519245099e+000,
3.8718750000e+001,4.8423763892e+000,4.6324128615e+000,4.0346430964e+000,4.1736789802e+000,5.3891238141e+000,6.0450021083e+000,5.5044968965e+000,4.2644455092e+000,5.7875753699e+000,5.1852196232e+000,4.1738703650e+000,4.8663954120e+000,4.1435391537e+000,4.9012683526e+000,
3.8812500000e+001,4.8760372603e+000,4.6566940297e+000,4.1361745920e+000,4.2171023884e+000,5.4715258006e+000,6.0804901754e+000,5.6775433494e+000,4.3601249578e+000,5.9027812970e+000,5.2240480846e+000,4.1731824779e+000,4.8787103642e+000,4.1340342998e+000,4.8926960373e+000,
3.8906250000e+001,4.8146961853e+000,4.5473109395e+000,4.1062125930e+000,4.1610461737e+000,5.3699097221e+000,5.9238754345e+000,5.7680660429e+000,4.2527816069e+000,5.7573971366e+000,5.0943449037e+000,4.0458739354e+000,4.8460781906e+000,3.9158201021e+000,4.8016899588e+000,
3.9000000000e+001,4.8692554003e+000,4.5741289658e+000,4.1384333458e+000,4.1347553952e+000,5.2152572563e+000,5.7751418493e+000,5.7724769395e+000,4.2008598292e+000,5.7847518825e+000,5.1030572310e+000,4.0929715837e+000,4.8296208581e+000,3.9666469622e+000,4.7869005633e+000,
3.9093750000e+001,5.0598290796e+000,4.6635873989e+000,4.1214339504e+000,4.1139369656e+000,5.3339230565e+000,5.7498820217e+000,5.7757482223e+000,4.1923162337e+000,5.7559203973e+000,5.1711462313e+000,4.0945147455e+000,4.8486649536e+000,3.9909515783e+000,4.8460751222e+000,
3.9187500000e+001,5.1010855878e+000,4.8318462738e+000,4.1386482796e+000,4.2192111591e+000,5.4135479482e+000,5.7299143255e+000,5.7751166614e+000,4.3009738874e+000,5.8603569702e+000,5.2411447205e+000,4.1535028215e+000,4.9490898146e+000,4.0998531451e+000,4.9481678925e+000,
3.9281250000e+001,5.1062939593e+000,4.8335354439e+000,4.1358140793e+000,4.2266929275e+000,5.4724328868e+000,5.6819107096e+000,5.7695245789e+000,4.3037255611e+000,5.8930730471e+000,5.3231294597e+000,4.1812323777e+000,4.9777977016e+000,4.1597059181e+000,4.9778225846e+000,
3.9375000000e+001,5.0282039124e+000,4.7965562523e+000,4.1482311949e+000,4.2396219991e+000,5.4504339694e+000,5.6945777930e+000,5.7495878839e+000,4.3420009510e+000,5.9364137307e+000,5.3465344604e+000,4.2535086527e+000,4.9808420839e+000,4.2197371252e+000,4.9782362738e+000,
3.9468750000e+001,4.9332160771e+000,4.7655303097e+000,4.1099300581e+000,4.2578381265e+000,5.4303454086e+000,5.8057879731e+000,5.7209028684e+000,4.3507616174e+000,5.9452364333e+000,5.3230113847e+000,4.2474271435e+000,4.9791070868e+000,4.1907628096e+000,5.0004784862e+000,
3.9562500000e+001,4.8879447771e+000,4.7502163024e+000,4.0215753254e+000,4.2329535064e+000,5.3442154009e+000,5.8142746806e+000,5.6130856584e+000,4.3380025004e+000,5.9535312235e+000,5.2864133709e+000,4.2347747315e+000,4.9870574569e+000,4.1633792531e+000,4.9113508930e+000,
3.9656250000e+001,4.9297731160e+000,4.7302380298e+000,4.0782229064e+000,4.1787804144e+000,5.3996477438e+000,5.5513042573e+000,5.5885402815e+000,4.2126470587e+000,5.9232151009e+000,5.1055020088e+000,4.2665349864e+000,4.9882780723e+000,4.1467153535e+000,4.8910370221e+000,
3.9750000000e+001,4.9104521261e+000,4.6605161228e+000,4.0295766924e+000,4.0968458434e+000,5.2727483616e+000,5.6316836672e+000,5.3967813008e+000,4.0778020124e+000,5.8207548871e+000,4.9686043765e+000,4.2108164959e+000,4.9651876327e+000,4.1135315492e+000,4.8593382163e+000,
3.9843750000e+001,4.8623458615e+000,4.6165418765e+000,3.9634889411e+000,4.0228314853e+000,5.2575646781e+000,5.6397597914e+000,5.3389607950e+000,4.5625335371e+000,5.7605759523e+000,5.0504005690e+000,4.2185491203e+000,4.9239708059e+000,4.1278286810e+000,4.8399543213e+000,
3.9937500000e+001,4.8558222660e+000,4.6258793870e+000,3.9400484142e+000,4.0677795910e+000,5.3470883762e+000,5.7692299607e+000,5.2174096840e+000,4.6656628735e+000,5.7685988377e+000,5.0792070569e+000,4.2729995884e+000,4.9119274133e+000,4.1855784052e+000,4.8689146295e+000,
4.0031250000e+001,4.7129171074e+000,4.5162114572e+000,3.9265600777e+000,4.0591237946e+000,5.2886684338e+000,5.7342275113e+000,5.2478085788e+000,4.6547306159e+000,5.6673133287e+000,4.9868817954e+000,4.1695859949e+000,4.9429042405e+000,4.0506254509e+000,4.8659227204e+000,
4.0125000000e+001,4.6188863236e+000,4.4712913167e+000,4.0207954990e+000,4.0790340562e+000,5.2949111016e+000,5.8940728633e+000,5.2581567995e+000,4.6459647069e+000,5.6925403070e+000,4.9410806155e+000,4.2175418821e+000,4.9452142151e+000,4.0559421815e+000,4.8706524994e+000,
4.0218750000e+001,4.5250315780e+000,4.2863948088e+000,3.9766589394e+000,4.0805165902e+000,5.1955064101e+000,5.9525052842e+000,5.3370869739e+000,4.5675120520e+000,5.5950737489e+000,4.8474200894e+000,4.1893158843e+000,4.8445588682e+000,3.9769051534e+000,4.7640846823e+000,
4.0312500000e+001,4.7017772014e+000,4.3459472189e+000,4.1271025766e+000,4.2083395539e+000,5.1846579203e+000,6.1736825270e+000,5.4751917022e+000,4.5165664499e+000,5.7076690859e+000,4.8396838959e+000,4.2138041033e+000,4.8907044638e+000,3.9580131773e+000,4.8007679252e+000,
4.0406250000e+001,4.7463930485e+000,4.4153578234e+000,4.1900281052e+000,4.2233676208e+000,5.1851763909e+000,6.1818148319e+000,5.5397798330e+000,4.5227796745e+000,5.7307088078e+000,4.7582122669e+000,4.2013033056e+000,4.8961754263e+000,3.9847313112e+000,4.7949351105e+000,
4.0500000000e+001,4.8443792554e+000,4.4811828013e+000,4.2951919076e+000,4.2843882213e+000,5.2155406761e+000,6.2772289575e+000,5.6684031903e+000,4.6362483201e+000,5.8065537973e+000,4.8344366460e+000,4.2937030642e+000,4.9745284409e+000,4.0510519880e+000,4.8517627759e+000,
4.0593750000e+001,4.8508503457e+000,4.4383969035e+000,4.3149833804e+000,4.2540203557e+000,5.1983812662e+000,6.2964734487e+000,5.7002309894e+000,4.6552884462e+000,5.8151664780e+000,4.8735502363e+000,4.2962219827e+000,4.9476646504e+000,3.9894039411e+000,4.8604864724e+000,
4.0687500000e+001,4.8168760311e+000,4.4963592359e+000,4.2534566946e+000,4.2509119428e+000,5.0766227106e+000,6.2684217076e+000,5.5988075955e+000,4.6086650500e+000,5.8024086031e+000,4.8629769560e+000,4.2493805885e+000,4.8696169501e+000,4.0094454534e+000,4.7767368804e+000,
4.0781250000e+001,4.8076298957e+000,4.5114457726e+000,4.2556422033e+000,4.2617477574e+000,5.0583036964e+000,6.1257854434e+000,5.5577357667e+000,4.4719475533e+000,5.7829352154e+000,4.8736583164e+000,4.2350891162e+000,4.8404842508e+000,4.0204426137e+000,4.7443186532e+000,
4.0875000000e+001,4.8263516016e+000,4.5458066313e+000,4.2402830056e+000,4.2635162167e+000,4.9219935309e+000,6.0599963147e+000,5.4831459264e+000,3.9503608905e+000,5.8075633331e+000,4.7524146132e+000,4.2584964133e+000,4.8523034106e+000,3.9495775303e+000,4.7537986467e+000,
4.0968750000e+001,4.8975516217e+000,4.5917947799e+000,4.3148313193e+000,4.2410211396e+000,5.0070844295e+000,6.1333939853e+000,5.4997557347e+000,3.9956724387e+000,5.8168763585e+000,4.8773848232e+000,4.1866923766e+000,4.7805909614e+000,3.8176118227e+000,4.5856658395e+000,
4.1062500000e+001,4.8605979112e+000,4.6122887704e+000,4.2571094354e+000,4.2839038765e+000,4.9500203763e+000,6.2399518982e+000,5.4676212360e+000,4.1054445096e+000,5.8040308530e+000,4.9881366742e+000,4.1165033904e+000,4.7424295814e+000,3.8171838306e+000,4.6144048832e+000,
4.1156250000e+001,4.7917088995e+000,4.5784082678e+000,4.2179644182e+000,4.3360614985e+000,4.9622050994e+000,6.1889052350e+000,5.4119705950e+000,4.1650114393e+000,5.7658758909e+000,4.9384658957e+000,4.0560031878e+000,4.7903093983e+000,3.7525264090e+000,4.6415409650e+000,
